%OpenBCI Raw EEG Data
%Number of channels = 8
%Sample Rate = 250 Hz
%Board = OpenBCI_GUI$BoardCytonSerial
Sample Index, EXG Channel 0, EXG Channel 1, EXG Channel 2, EXG Channel 3, EXG Channel 4, EXG Channel 5, EXG Channel 6, EXG Channel 7, Accel Channel 0, Accel Channel 1, Accel Channel 2, Other, Other, Other, Other, Other, Other, Other, Analog Channel 0, Analog Channel 1, Analog Channel 2, Timestamp, Other, Timestamp (Formatted)
0.0, 0.0, 0.0, 0.0, 0.0, 0.0, 0.0, 0.0, 0.0, 0.0, 0.0, 0.0, 192.0, 0.0, 0.0, 0.0, 0.0, 0.0, 0.0, 0.0, 0.0, 0.0, 1.6635894689765656E9, 0.0, 2022-09-19 17:11:08.976
1.0, -11963.681812725285, -26311.512447775895, -33510.87522636357, -16071.79833314399, -12097.59111375703, 187500.0, -46177.631160930534, -10860.19854071123, 0.608, -0.6880000000000001, 0.448, 192.0, 19.0, 0.0, 234.0, 128.0, 14.0, 0.0, 0.0, 0.0, 0.0, 1.6635894689926317E9, 0.0, 2022-09-19 17:11:08.992
2.0, -11990.392147349376, -26306.9079884181, -33505.48845594984, -16072.692402922203, -12090.930293909347, 187500.0, -46169.6962916489, -10862.47841864567, 0.608, -0.6880000000000001, 0.448, 192.0, 0.0, 0.0, 0.0, 0.0, 0.0, 0.0, 0.0, 0.0, 0.0, 1.663589468995634E9, 0.0, 2022-09-19 17:11:08.995
3.0, -11991.062699683036, -26289.473627742962, -33511.45637171941, -16080.22494080364, -12086.258779318188, 187500.0, -46170.12097479355, -10872.760221095112, 0.608, -0.6880000000000001, 0.448, 192.0, 0.0, 0.0, 0.0, 0.0, 0.0, 0.0, 0.0, 0.0, 0.0, 1.663589468999618E9, 0.0, 2022-09-19 17:11:08.999
4.0, -11975.483533797686, -26278.923604360058, -33520.66529043499, -16083.242426305107, -12093.210171843788, 187500.0, -46176.93825685242, -10880.33746246546, 0.608, -0.6880000000000001, 0.448, 192.0, 0.0, 0.0, 0.0, 0.0, 0.0, 0.0, 0.0, 0.0, 0.0, 1.6635894690037572E9, 0.0, 2022-09-19 17:11:09.003
5.0, -11987.374661847909, -26295.732116190447, -33512.5069037088, -16074.145266311798, -12109.258724362699, 187500.0, -46176.178297540944, -10856.175226709274, 0.608, -0.6880000000000001, 0.448, 192.0, 0.0, 0.0, 0.0, 0.0, 0.0, 0.0, 0.0, 0.0, 0.0, 1.663589469007747E9, 0.0, 2022-09-19 17:11:09.007
6.0, -12017.840089540494, -26311.87007568718, -33506.941319339436, -16071.731277910625, -12109.348131340521, 187500.0, -46175.10541380709, -10869.630976871369, 0.608, -0.6880000000000001, 0.448, 192.0, 0.0, 0.0, 0.0, 0.0, 0.0, 0.0, 0.0, 0.0, 0.0, 1.663589469011674E9, 0.0, 2022-09-19 17:11:09.011
7.0, -12038.358990950464, -26316.40747981161, -33515.92672061047, -16076.022812846044, -12108.811689473592, 187500.0, -46178.32406500865, -10874.660119373813, 0.608, -0.6880000000000001, 0.448, 192.0, 0.0, 0.0, 0.0, 0.0, 0.0, 0.0, 0.0, 0.0, 0.0, 1.6635894690166328E9, 0.0, 2022-09-19 17:11:09.016
8.0, -12032.61459262545, -26305.388069795143, -33524.17451431448, -16078.36974601385, -12106.084776650045, 187500.0, -46178.12289930855, -10868.62514837088, 0.604, -0.6980000000000001, 0.438, 192.0, 18.0, 224.0, 234.0, 48.0, 13.0, 176.0, 0.0, 0.0, 0.0, 1.6635894690206835E9, 0.0, 2022-09-19 17:11:09.020
9.0, -12015.515508117142, -26303.555226749806, -33534.63513071956, -16072.290071522008, -12105.123651638467, 187500.0, -46181.699178421404, -10853.224796441174, 0.604, -0.6980000000000001, 0.438, 192.0, 0.0, 0.0, 0.0, 0.0, 0.0, 0.0, 0.0, 0.0, 0.0, 1.6635894690239005E9, 0.0, 2022-09-19 17:11:09.023
10.0, -12031.09467400249, -26323.917665948593, -33538.27846506578, -16077.363917513361, -12120.881631479459, 187500.0, -46191.980980870845, -10865.987642525155, 0.604, -0.6980000000000001, 0.438, 192.0, 0.0, 0.0, 0.0, 0.0, 0.0, 0.0, 0.0, 0.0, 0.0, 1.663589469027694E9, 0.0, 2022-09-19 17:11:09.027
11.0, -12062.163598795367, -26331.62901778567, -33526.18617131546, -16068.691440664703, -12126.827195504571, 187500.0, -46183.39791100001, -10873.587235639958, 0.604, -0.6980000000000001, 0.438, 192.0, 0.0, 0.0, 0.0, 0.0, 0.0, 0.0, 0.0, 0.0, 0.0, 1.6635894690317264E9, 0.0, 2022-09-19 17:11:09.031
12.0, -12083.844790917015, -26329.17032589559, -33523.839238147644, -16062.879987106322, -12127.050712949123, 187500.0, -46179.7992801427, -10865.562959380504, 0.604, -0.6980000000000001, 0.438, 192.0, 0.0, 0.0, 0.0, 0.0, 0.0, 0.0, 0.0, 0.0, 0.0, 1.6635894690357375E9, 0.0, 2022-09-19 17:11:09.035
13.0, -12085.722337451261, -26324.96819793799, -33527.08024109367, -16068.60203368688, -12117.506518066708, 187500.0, -46182.48148947734, -10861.271424445084, 0.604, -0.6980000000000001, 0.438, 192.0, 0.0, 0.0, 0.0, 0.0, 0.0, 0.0, 0.0, 0.0, 0.0, 1.6635894690396929E9, 0.0, 2022-09-19 17:11:09.039
14.0, -12073.562988467573, -26323.44827931503, -33529.82950566167, -16073.698231422692, -12109.21402087379, 187500.0, -46182.21326854388, -10865.026517513576, 0.604, -0.6980000000000001, 0.438, 192.0, 0.0, 0.0, 0.0, 0.0, 0.0, 0.0, 0.0, 0.0, 0.0, 1.663589469044835E9, 0.0, 2022-09-19 17:11:09.044
15.0, -12093.76896545517, -26337.440471344053, -33524.755659670314, -16070.054897076476, -12112.052692419613, 187500.0, -46182.72735866634, -10858.075124987976, 0.604, -0.6980000000000001, 0.438, 192.0, 0.0, 0.0, 0.0, 0.0, 0.0, 0.0, 0.0, 0.0, 0.0, 1.6635894690477316E9, 0.0, 2022-09-19 17:11:09.047
16.0, -12139.143006699445, -26355.27716341939, -33523.16868581399, -16073.56412095596, -12111.292733108132, 187500.0, -46181.52036446576, -10859.550340122027, 0.604, -0.6980000000000001, 0.438, 192.0, 0.0, 0.0, 0.0, 0.0, 0.0, 0.0, 0.0, 0.0, 0.0, 1.663589469051737E9, 0.0, 2022-09-19 17:11:09.051
17.0, -12167.619129135506, -26346.58233482627, -33520.50882822381, -16071.843036632901, -12110.421015074375, 187500.0, -46173.42903297294, -10859.617395355392, 0.604, -0.6980000000000001, 0.438, 192.0, 0.0, 0.0, 0.0, 0.0, 0.0, 0.0, 0.0, 0.0, 0.0, 1.6635894690557928E9, 0.0, 2022-09-19 17:11:09.055
18.0, -12178.705594385337, -26333.68537827556, -33518.743040411835, -16072.759458155568, -12116.165413399389, 187500.0, -46168.981035826335, -10862.67958434577, 0.6, -0.706, 0.432, 192.0, 18.0, 192.0, 233.0, 240.0, 13.0, 128.0, 0.0, 0.0, 0.0, 1.6635894690597308E9, 0.0, 2022-09-19 17:11:09.059
19.0, -12176.269254239709, -26322.17422988108, -33519.502999723314, -16072.714754666658, -12113.259686620198, 187500.0, -46169.94216083791, -10860.19854071123, 0.6, -0.706, 0.432, 192.0, 0.0, 0.0, 0.0, 0.0, 0.0, 0.0, 0.0, 0.0, 0.0, 1.6635894690637376E9, 0.0, 2022-09-19 17:11:09.063
20.0, -12207.718158688327, -26336.479346332475, -33515.814961888194, -16067.529149953027, -12121.216907646289, 187500.0, -46176.51357370777, -10855.77289530908, 0.6, -0.706, 0.432, 192.0, 0.0, 0.0, 0.0, 0.0, 0.0, 0.0, 0.0, 0.0, 0.0, 1.6635894690678236E9, 0.0, 2022-09-19 17:11:09.067
21.0, -12261.0941244476, -26356.484157619972, -33514.3620984986, -16067.79737088649, -12134.69500955284, 187500.0, -46177.47469871935, -10865.63001461387, 0.6, -0.706, 0.432, 192.0, 0.0, 0.0, 0.0, 0.0, 0.0, 0.0, 0.0, 0.0, 0.0, 1.6635894690728335E9, 0.0, 2022-09-19 17:11:09.072
22.0, -12292.520677151762, -26357.93702100957, -33514.406801987505, -16063.505835951071, -12133.01862871869, 187500.0, -46173.36197773957, -10858.455104643715, 0.6, -0.706, 0.432, 192.0, 0.0, 0.0, 0.0, 0.0, 0.0, 0.0, 0.0, 0.0, 0.0, 1.663589469075807E9, 0.0, 2022-09-19 17:11:09.075
23.0, -12296.67810162045, -26342.581372568773, -33519.70416542341, -16061.807103372468, -12118.042959933635, 187500.0, -46169.18220152643, -10852.062505729498, 0.6, -0.706, 0.432, 192.0, 0.0, 0.0, 0.0, 0.0, 0.0, 0.0, 0.0, 0.0, 0.0, 1.6635894690797517E9, 0.0, 2022-09-19 17:11:09.079
24.0, -12287.71505209387, -26333.350102108732, -33522.58754045815, -16063.125856295332, -12112.566782542084, 187500.0, -46167.505820692284, -10847.681563816257, 0.6, -0.706, 0.432, 192.0, 0.0, 0.0, 0.0, 0.0, 0.0, 0.0, 0.0, 0.0, 0.0, 1.663589469083907E9, 0.0, 2022-09-19 17:11:09.083
25.0, -12319.856860620603, -26355.83595703077, -33520.19590380143, -16066.478617963627, -12123.027398947168, 187500.0, -46174.83719287362, -10859.460933144204, 0.6, -0.706, 0.432, 192.0, 0.0, 0.0, 0.0, 0.0, 0.0, 0.0, 0.0, 0.0, 0.0, 1.6635894690878396E9, 0.0, 2022-09-19 17:11:09.087
26.0, -12371.824666479191, -26376.26545146292, -33516.73138341086, -16071.37364999934, -12132.459835107307, 187500.0, -46177.67586441945, -10885.947750323743, 0.6, -0.706, 0.432, 192.0, 0.0, 0.0, 0.0, 0.0, 0.0, 0.0, 0.0, 0.0, 0.0, 1.6635894690918312E9, 0.0, 2022-09-19 17:11:09.091
27.0, -12395.584570835183, -26369.962259526525, -33518.318357267184, -16067.41739123075, -12126.246050148733, 187500.0, -46173.98782658432, -10885.67952939028, 0.6, -0.706, 0.432, 192.0, 0.0, 0.0, 0.0, 0.0, 0.0, 0.0, 0.0, 0.0, 0.0, 1.6635894690958927E9, 0.0, 2022-09-19 17:11:09.095
28.0, -12400.12197495961, -26362.519128622906, -33528.48840099435, -16069.65256567628, -12116.567744799584, 187500.0, -46178.45817547538, -10866.881712303366, 0.602, -0.708, 0.424, 192.0, 18.0, 208.0, 233.0, 224.0, 13.0, 64.0, 0.0, 0.0, 0.0, 1.6635894691008596E9, 0.0, 2022-09-19 17:11:09.100
29.0, -12391.695367299959, -26352.527898851386, -33525.672081192984, -16063.572891184438, -12105.525983038662, 187500.0, -46172.35614923909, -10841.758351535602, 0.602, -0.708, 0.424, 192.0, 0.0, 0.0, 0.0, 0.0, 0.0, 0.0, 0.0, 0.0, 0.0, 1.6635894691038926E9, 0.0, 2022-09-19 17:11:09.103
30.0, -12421.289076958785, -26364.486082134972, -33521.84993289113, -16062.723524895137, -12112.387968586441, 187500.0, -46171.7973556277, -10847.256880671606, 0.602, -0.708, 0.424, 192.0, 0.0, 0.0, 0.0, 0.0, 0.0, 0.0, 0.0, 0.0, 0.0, 1.6635894691068313E9, 0.0, 2022-09-19 17:11:09.106
31.0, -12467.020746114344, -26377.517149152416, -33525.76148817081, -16062.142379539298, -12117.215945388789, 187500.0, -46174.926599851446, -10856.95753776521, 0.602, -0.708, 0.424, 192.0, 0.0, 0.0, 0.0, 0.0, 0.0, 0.0, 0.0, 0.0, 0.0, 1.6635894691118588E9, 0.0, 2022-09-19 17:11:09.111
32.0, -12490.28891209232, -26378.947660797556, -33530.50005799533, -16064.288147007008, -12109.63870401844, 187500.0, -46175.70891090738, -10857.449276143227, 0.602, -0.708, 0.424, 192.0, 0.0, 0.0, 0.0, 0.0, 0.0, 0.0, 0.0, 0.0, 0.0, 1.6635894691158423E9, 0.0, 2022-09-19 17:11:09.115
33.0, -12490.981816170433, -26371.50452989394, -33526.8120201602, -16064.80223712948, -12096.719395723272, 187500.0, -46168.57870442614, -10851.48136037366, 0.602, -0.708, 0.424, 192.0, 0.0, 0.0, 0.0, 0.0, 0.0, 0.0, 0.0, 0.0, 0.0, 1.6635894691198242E9, 0.0, 2022-09-19 17:11:09.119
34.0, -12479.694185220504, -26369.247003703953, -33537.563209243206, -16067.551501697482, -12099.11103237999, 187500.0, -46178.61463768657, -10845.267575415084, 0.602, -0.708, 0.424, 192.0, 0.0, 0.0, 0.0, 0.0, 0.0, 0.0, 0.0, 0.0, 0.0, 1.6635894691239305E9, 0.0, 2022-09-19 17:11:09.123
35.0, -12498.42494707405, -26382.479236421495, -33534.8139446752, -16067.976184842133, -12115.360750598998, 187500.0, -46184.51549822277, -10859.930319777766, 0.602, -0.708, 0.424, 192.0, 0.0, 0.0, 0.0, 0.0, 0.0, 0.0, 0.0, 0.0, 0.0, 1.6635894691279104E9, 0.0, 2022-09-19 17:11:09.127
36.0, -12527.079883465754, -26379.729971853492, -33521.335842768654, -16062.209434772663, -12117.573573300073, 187500.0, -46173.741957395316, -10867.060526259009, 0.602, -0.708, 0.424, 192.0, 0.0, 0.0, 0.0, 0.0, 0.0, 0.0, 0.0, 0.0, 0.0, 1.6635894691319132E9, 0.0, 2022-09-19 17:11:09.131
37.0, -12534.634773091648, -26369.381114170686, -33522.811057902705, -16055.03452480251, -12109.996331929724, 187500.0, -46171.7973556277, -10856.28698543155, 0.602, -0.708, 0.424, 192.0, 0.0, 0.0, 0.0, 0.0, 0.0, 0.0, 0.0, 0.0, 0.0, 1.6635894691358874E9, 0.0, 2022-09-19 17:11:09.135
38.0, -12515.769900771369, -26359.389884399163, -33527.59433121614, -16060.13072253832, -12097.792279457126, 187500.0, -46173.80901262868, -10855.281156931062, 0.602, -0.708, 0.422, 192.0, 18.0, 208.0, 233.0, 224.0, 13.0, 48.0, 0.0, 0.0, 0.0, 1.6635894691409233E9, 0.0, 2022-09-19 17:11:09.140
39.0, -12487.561999268772, -26357.713503565017, -33528.600159716625, -16062.835283617413, -12092.785488699137, 187500.0, -46173.4960882063, -10829.487243829637, 0.602, -0.708, 0.422, 192.0, 0.0, 0.0, 0.0, 0.0, 0.0, 0.0, 0.0, 0.0, 0.0, 1.663589469143892E9, 0.0, 2022-09-19 17:11:09.143
40.0, -12500.838935475223, -26379.282936964388, -33522.76635441379, -16067.283280764019, -12103.670788248872, 187500.0, -46175.3512829961, -10838.986735223143, 0.602, -0.708, 0.422, 192.0, 0.0, 0.0, 0.0, 0.0, 0.0, 0.0, 0.0, 0.0, 0.0, 1.6635894691468692E9, 0.0, 2022-09-19 17:11:09.146
41.0, -12526.43168287655, -26392.582224915295, -33521.49230497984, -16072.93827211121, -12113.125576153467, 187500.0, -46179.08402432013, -10862.523122134582, 0.602, -0.708, 0.422, 192.0, 0.0, 0.0, 0.0, 0.0, 0.0, 0.0, 0.0, 0.0, 0.0, 1.6635894691518826E9, 0.0, 2022-09-19 17:11:09.151
42.0, -12528.28687766634, -26389.56473941383, -33522.60989220261, -16073.698231422692, -12110.77864298566, 187500.0, -46175.17246904045, -10862.836046556957, 0.602, -0.708, 0.422, 192.0, 0.0, 0.0, 0.0, 0.0, 0.0, 0.0, 0.0, 0.0, 0.0, 1.6635894691559217E9, 0.0, 2022-09-19 17:11:09.155
43.0, -12499.52018255236, -26377.539500896874, -33520.93351136846, -16070.948966854688, -12093.925427666358, 187500.0, -46168.66811140396, -10853.24714818563, 0.602, -0.708, 0.422, 192.0, 0.0, 0.0, 0.0, 0.0, 0.0, 0.0, 0.0, 0.0, 0.0, 1.6635894691599348E9, 0.0, 2022-09-19 17:11:09.159
44.0, -12459.80113265528, -26368.77761707039, -33522.11815382459, -16067.752667397579, -12086.437593273831, 187500.0, -46170.031567815735, -10845.647555070826, 0.602, -0.708, 0.422, 192.0, 0.0, 0.0, 0.0, 0.0, 0.0, 0.0, 0.0, 0.0, 0.0, 1.6635894691639273E9, 0.0, 2022-09-19 17:11:09.163
45.0, -12462.729211178925, -26388.447152191064, -33520.218255545886, -16067.752667397579, -12095.467698033775, 187500.0, -46181.14038481002, -10852.688354574246, 0.602, -0.708, 0.422, 192.0, 0.0, 0.0, 0.0, 0.0, 0.0, 0.0, 0.0, 0.0, 0.0, 1.6635894691679497E9, 0.0, 2022-09-19 17:11:09.167
46.0, -12484.879789934133, -26410.195399546075, -33519.70416542341, -16067.350335997384, -12104.564858027084, 187500.0, -46179.7992801427, -10861.070258744987, 0.602, -0.708, 0.422, 192.0, 0.0, 0.0, 0.0, 0.0, 0.0, 0.0, 0.0, 0.0, 0.0, 1.6635894691719308E9, 0.0, 2022-09-19 17:11:09.171
47.0, -12476.766106696858, -26397.18668427309, -33517.04430783323, -16061.784751628013, -12097.702872479305, 187500.0, -46168.73516663732, -10858.276290688073, 0.602, -0.708, 0.422, 192.0, 0.0, 0.0, 0.0, 0.0, 0.0, 0.0, 0.0, 0.0, 0.0, 1.6635894691749532E9, 0.0, 2022-09-19 17:11:09.174
48.0, -12449.18405403901, -26388.93889056908, -33525.470915492886, -16061.874158605833, -12088.426898530353, 187500.0, -46172.37850098354, -10852.062505729498, 0.602, -0.7000000000000001, 0.426, 192.0, 18.0, 208.0, 234.0, 32.0, 13.0, 80.0, 0.0, 0.0, 0.0, 1.6635894691790402E9, 0.0, 2022-09-19 17:11:09.179
49.0, -12416.528155389806, -26390.436457447584, -33531.17061032899, -16066.165693541254, -12084.113011850479, 187500.0, -46181.43095748794, -10860.690279089247, 0.602, -0.7000000000000001, 0.426, 192.0, 0.0, 0.0, 0.0, 0.0, 0.0, 0.0, 0.0, 0.0, 0.0, 1.6635894691839712E9, 0.0, 2022-09-19 17:11:09.183
50.0, -12422.786643837291, -26409.010757089945, -33524.97917711487, -16058.141417281799, -12090.527962509152, 187500.0, -46187.28711453523, -10864.266558202096, 0.602, -0.7000000000000001, 0.426, 192.0, 0.0, 0.0, 0.0, 0.0, 0.0, 0.0, 0.0, 0.0, 0.0, 1.6635894691879804E9, 0.0, 2022-09-19 17:11:09.187
51.0, -12441.740923135392, -26413.302292025364, -33511.09874380812, -16045.89266132029, -12088.024567130156, 187500.0, -46177.58645744163, -10856.734020320657, 0.602, -0.7000000000000001, 0.426, 192.0, 0.0, 0.0, 0.0, 0.0, 0.0, 0.0, 0.0, 0.0, 0.0, 1.6635894691919796E9, 0.0, 2022-09-19 17:11:09.191
52.0, -12444.154911536565, -26410.75419315746, -33513.73624965385, -16048.239594488097, -12085.878799662447, 187500.0, -46177.787623141725, -10854.43179064176, 0.602, -0.7000000000000001, 0.426, 192.0, 0.0, 0.0, 0.0, 0.0, 0.0, 0.0, 0.0, 0.0, 0.0, 1.6635894691960175E9, 0.0, 2022-09-19 17:11:09.196
53.0, -12424.306562460251, -26409.70366116806, -33524.80036315922, -16056.196815514186, -12084.738860695226, 187500.0, -46183.241448788816, -10849.849683028422, 0.602, -0.7000000000000001, 0.426, 192.0, 0.0, 0.0, 0.0, 0.0, 0.0, 0.0, 0.0, 0.0, 0.0, 1.6635894692000024E9, 0.0, 2022-09-19 17:11:09.200
54.0, -12393.505858600838, -26402.640509920184, -33529.74009868385, -16059.638984160303, -12085.118840350968, 187500.0, -46184.984884856334, -10845.826369026467, 0.602, -0.7000000000000001, 0.426, 192.0, 0.0, 0.0, 0.0, 0.0, 0.0, 0.0, 0.0, 0.0, 0.0, 1.6635894692029736E9, 0.0, 2022-09-19 17:11:09.202
55.0, -12404.54762036176, -26414.106954825755, -33524.66625269249, -16055.36980096934, -12093.657206732894, 187500.0, -46186.32598952365, -10857.739848821146, 0.602, -0.7000000000000001, 0.426, 192.0, 0.0, 0.0, 0.0, 0.0, 0.0, 0.0, 0.0, 0.0, 0.0, 1.6635894692070487E9, 0.0, 2022-09-19 17:11:09.207
56.0, -12428.955725306956, -26423.494687496983, -33525.98500561536, -16053.84988234638, -12099.53571552464, 187500.0, -46187.55533546869, -10871.285005961063, 0.602, -0.7000000000000001, 0.426, 192.0, 0.0, 0.0, 0.0, 0.0, 0.0, 0.0, 0.0, 0.0, 0.0, 1.6635894692120242E9, 0.0, 2022-09-19 17:11:09.212
57.0, -12426.675847372515, -26412.967015858536, -33524.554493970216, -16046.473806676127, -12094.685386977839, 187500.0, -46184.67196043396, -10856.666965087292, 0.602, -0.7000000000000001, 0.426, 192.0, 0.0, 0.0, 0.0, 0.0, 0.0, 0.0, 0.0, 0.0, 0.0, 1.663589469216025E9, 0.0, 2022-09-19 17:11:09.216
58.0, -12404.994655250866, -26403.244007020476, -33525.40386025952, -16046.786731098502, -12080.469677504263, 187500.0, -46183.53202146674, -10845.71461030419, 0.604, -0.7020000000000001, 0.432, 192.0, 18.0, 224.0, 234.0, 16.0, 13.0, 128.0, 0.0, 0.0, 0.0, 1.6635894692200136E9, 0.0, 2022-09-19 17:11:09.220
59.0, -12386.040375952767, -26411.692966424584, -33529.27071205029, -16053.60401315737, -12076.558122224586, 187500.0, -46184.94018136742, -10845.602851581914, 0.604, -0.7020000000000001, 0.432, 192.0, 0.0, 0.0, 0.0, 0.0, 0.0, 0.0, 0.0, 0.0, 0.0, 1.663589469223062E9, 0.0, 2022-09-19 17:11:09.223
60.0, -12404.927600017501, -26429.8872864112, -33524.84506664814, -16052.195853256686, -12089.857410175493, 187500.0, -46187.66709419097, -10852.420133640782, 0.604, -0.7020000000000001, 0.432, 192.0, 0.0, 0.0, 0.0, 0.0, 0.0, 0.0, 0.0, 0.0, 0.0, 1.6635894692270496E9, 0.0, 2022-09-19 17:11:09.227
61.0, -12425.424149683018, -26435.586981247307, -33526.63320620456, -16059.03548706001, -12095.87002943397, 187500.0, -46187.98001861334, -10873.117849006398, 0.604, -0.7020000000000001, 0.432, 192.0, 0.0, 0.0, 0.0, 0.0, 0.0, 0.0, 0.0, 0.0, 0.0, 1.663589469231048E9, 0.0, 2022-09-19 17:11:09.231
62.0, -12419.947972291468, -26424.031129363913, -33524.71095618141, -16058.56610042645, -12086.415241529376, 187500.0, -46182.59324819961, -10876.15768625232, 0.604, -0.7020000000000001, 0.432, 192.0, 0.0, 0.0, 0.0, 0.0, 0.0, 0.0, 0.0, 0.0, 0.0, 1.6635894692349885E9, 0.0, 2022-09-19 17:11:09.234
63.0, -12391.002463221845, -26407.624948933717, -33520.66529043499, -16049.781864855513, -12069.919654121359, 187500.0, -46176.06653881867, -10840.394895123827, 0.604, -0.7020000000000001, 0.432, 192.0, 0.0, 0.0, 0.0, 0.0, 0.0, 0.0, 0.0, 0.0, 0.0, 1.6635894692400937E9, 0.0, 2022-09-19 17:11:09.240
64.0, -12360.559387273715, -26406.015623332933, -33519.48064797886, -16056.621498658837, -12059.973127838746, 187500.0, -46172.13263179453, -10836.684505544246, 0.604, -0.7020000000000001, 0.432, 192.0, 0.0, 0.0, 0.0, 0.0, 0.0, 0.0, 0.0, 0.0, 0.0, 1.6635894692440255E9, 0.0, 2022-09-19 17:11:09.244
65.0, -12372.40581183503, -26428.814402677348, -33515.412630488, -16063.528187695527, -12068.466790731763, 187500.0, -46178.45817547538, -10854.275328430573, 0.604, -0.7020000000000001, 0.432, 192.0, 0.0, 0.0, 0.0, 0.0, 0.0, 0.0, 0.0, 0.0, 0.0, 1.663589469248072E9, 0.0, 2022-09-19 17:11:09.248
66.0, -12397.775041791803, -26451.90375469968, -33521.06762183519, -16064.019926073543, -12078.458020503285, 187500.0, -46188.38235001354, -10859.304470933017, 0.604, -0.7020000000000001, 0.432, 192.0, 0.0, 0.0, 0.0, 0.0, 0.0, 0.0, 0.0, 0.0, 0.0, 1.6635894692511213E9, 0.0, 2022-09-19 17:11:09.251
67.0, -12394.958721990433, -26446.449929052586, -33521.268787535286, -16063.550539439982, -12069.204398298789, 187500.0, -46180.13455630953, -10854.610604597403, 0.604, -0.7020000000000001, 0.432, 192.0, 0.0, 0.0, 0.0, 0.0, 0.0, 0.0, 0.0, 0.0, 0.0, 1.6635894692551324E9, 0.0, 2022-09-19 17:11:09.255
68.0, -12369.276567611287, -26428.970864888535, -33520.88880787955, -16064.623423173836, -12056.843883615004, 187500.0, -46174.27839926224, -10847.972136494176, 0.596, -0.7000000000000001, 0.426, 192.0, 18.0, 160.0, 234.0, 32.0, 13.0, 80.0, 0.0, 0.0, 0.0, 1.6635894692591076E9, 0.0, 2022-09-19 17:11:09.259
69.0, -12341.850977164624, -26418.51024848345, -33522.07345033568, -16068.289109264508, -12060.57662493904, 187500.0, -46174.926599851446, -10844.19469168123, 0.596, -0.7000000000000001, 0.426, 192.0, 0.0, 0.0, 0.0, 0.0, 0.0, 0.0, 0.0, 0.0, 0.0, 1.6635894692631123E9, 0.0, 2022-09-19 17:11:09.263
70.0, -12361.162884374009, -26437.442176037097, -33526.34263352664, -16070.189007543207, -12085.074136862057, 187500.0, -46183.08498657763, -10849.760276050602, 0.596, -0.7000000000000001, 0.426, 192.0, 0.0, 0.0, 0.0, 0.0, 0.0, 0.0, 0.0, 0.0, 0.0, 1.6635894692672887E9, 0.0, 2022-09-19 17:11:09.267
71.0, -12391.963588233422, -26454.116577400757, -33528.57780797217, -16073.742934911603, -12097.032320145647, 187500.0, -46185.700140678906, -10859.371526166384, 0.596, -0.7000000000000001, 0.426, 192.0, 0.0, 0.0, 0.0, 0.0, 0.0, 0.0, 0.0, 0.0, 0.0, 1.6635894692721317E9, 0.0, 2022-09-19 17:11:09.272
72.0, -12402.111280216131, -26459.078664669833, -33536.31151155371, -16080.51551348156, -12097.546410268118, 187500.0, -46186.84007964612, -10862.277252945572, 0.596, -0.7000000000000001, 0.426, 192.0, 0.0, 0.0, 0.0, 0.0, 0.0, 0.0, 0.0, 0.0, 0.0, 1.6635894692761276E9, 0.0, 2022-09-19 17:11:09.276
73.0, -12383.760498018324, -26446.38287381922, -33538.881962166066, -16081.27547279304, -12084.828267673049, 187500.0, -46184.42609124495, -10866.38997392535, 0.596, -0.7000000000000001, 0.426, 192.0, 0.0, 0.0, 0.0, 0.0, 0.0, 0.0, 0.0, 0.0, 0.0, 1.6635894692791636E9, 0.0, 2022-09-19 17:11:09.279
74.0, -12363.44276230845, -26440.57142026084, -33539.06077612171, -16074.972280856644, -12076.781639669138, 187500.0, -46185.18605055643, -10856.041116242543, 0.596, -0.7000000000000001, 0.426, 192.0, 0.0, 0.0, 0.0, 0.0, 0.0, 0.0, 0.0, 0.0, 0.0, 1.6635894692831652E9, 0.0, 2022-09-19 17:11:09.283
75.0, -12387.917922487011, -26458.0951879138, -33530.34359578414, -16064.109333051365, -12080.983767626736, 187500.0, -46185.45427148989, -10851.973098751676, 0.596, -0.7000000000000001, 0.426, 192.0, 0.0, 0.0, 0.0, 0.0, 0.0, 0.0, 0.0, 0.0, 0.0, 1.6635894692872002E9, 0.0, 2022-09-19 17:11:09.287
76.0, -12420.462062413939, -26471.1486066757, -33529.18130507247, -16064.310498751462, -12081.609616471484, 187500.0, -46185.09664357861, -10863.528950635071, 0.596, -0.7000000000000001, 0.426, 192.0, 0.0, 0.0, 0.0, 0.0, 0.0, 0.0, 0.0, 0.0, 0.0, 1.663589469291117E9, 0.0, 2022-09-19 17:11:09.291
77.0, -12435.214213754442, -26472.512063087474, -33523.638072447546, -16065.741010396601, -12084.001253128203, 187500.0, -46178.61463768657, -10865.875883802877, 0.596, -0.7000000000000001, 0.426, 192.0, 0.0, 0.0, 0.0, 0.0, 0.0, 0.0, 0.0, 0.0, 0.0, 1.6635894692952275E9, 0.0, 2022-09-19 17:11:09.295
78.0, -12426.966420050434, -26460.978562948534, -33528.86838065009, -16066.120990052343, -12081.922540893858, 187500.0, -46176.33475975213, -10861.360831422906, 0.596, -0.7000000000000001, 0.426, 192.0, 0.0, 0.0, 0.0, 0.0, 0.0, 0.0, 0.0, 0.0, 0.0, 1.6635894693001616E9, 0.0, 2022-09-19 17:11:09.300
79.0, -12417.377521679107, -26461.157376904175, -33534.411613275006, -16071.664222677258, -12074.322947779054, 187500.0, -46184.51549822277, -10860.645575600336, 0.596, -0.6980000000000001, 0.432, 192.0, 18.0, 160.0, 234.0, 48.0, 13.0, 128.0, 0.0, 0.0, 0.0, 1.6635894693042533E9, 0.0, 2022-09-19 17:11:09.304
80.0, -12452.358001751662, -26483.799694037403, -33529.226008561374, -16065.003402829578, -12075.664052446373, 187500.0, -46189.41053025849, -10865.71942159169, 0.596, -0.6980000000000001, 0.432, 192.0, 0.0, 0.0, 0.0, 0.0, 0.0, 0.0, 0.0, 0.0, 0.0, 1.6635894693071373E9, 0.0, 2022-09-19 17:11:09.307
81.0, -12485.170362612052, -26485.409019638184, -33517.49134272234, -16048.351353210373, -12071.372517510954, 187500.0, -46176.75944289678, -10856.82342729848, 0.596, -0.6980000000000001, 0.432, 192.0, 0.0, 0.0, 0.0, 0.0, 0.0, 0.0, 0.0, 0.0, 0.0, 1.6635894693112032E9, 0.0, 2022-09-19 17:11:09.311
82.0, -12496.882676706635, -26481.72098180306, -33525.20269455942, -16048.865443332845, -12070.567854710562, 187500.0, -46175.9994835853, -10852.934223763255, 0.596, -0.6980000000000001, 0.432, 192.0, 0.0, 0.0, 0.0, 0.0, 0.0, 0.0, 0.0, 0.0, 0.0, 1.6635894693152244E9, 0.0, 2022-09-19 17:11:09.315
83.0, -12485.371528312151, -26468.89108048571, -33529.04719460574, -16049.558347410959, -12068.064459331568, 187500.0, -46174.12193705105, -10847.547453349525, 0.596, -0.6980000000000001, 0.432, 192.0, 0.0, 0.0, 0.0, 0.0, 0.0, 0.0, 0.0, 0.0, 0.0, 1.663589469319173E9, 0.0, 2022-09-19 17:11:09.319
84.0, -12474.933263651523, -26462.76670250496, -33524.420383503486, -16044.216280486142, -12067.215093042267, 187500.0, -46168.779870126236, -10849.559110350503, 0.596, -0.6980000000000001, 0.432, 192.0, 0.0, 0.0, 0.0, 0.0, 0.0, 0.0, 0.0, 0.0, 0.0, 1.663589469323254E9, 0.0, 2022-09-19 17:11:09.323
85.0, -12509.62317104616, -26479.172882935156, -33523.95099686992, -16043.45632117466, -12075.48523849073, 187500.0, -46176.51357370777, -10868.155761737318, 0.596, -0.6980000000000001, 0.432, 192.0, 0.0, 0.0, 0.0, 0.0, 0.0, 0.0, 0.0, 0.0, 0.0, 1.6635894693282182E9, 0.0, 2022-09-19 17:11:09.328
86.0, -12548.090523253743, -26490.52756911845, -33526.38733701555, -16042.40578918526, -12072.177180311344, 187500.0, -46178.63698943103, -10883.265540989107, 0.596, -0.6980000000000001, 0.432, 192.0, 0.0, 0.0, 0.0, 0.0, 0.0, 0.0, 0.0, 0.0, 0.0, 1.6635894693322575E9, 0.0, 2022-09-19 17:11:09.332
87.0, -12558.618194892191, -26484.15732194869, -33528.0637178497, -16035.253230959563, -12061.046011572602, 187500.0, -46173.27257076175, -10859.237415699652, 0.596, -0.6980000000000001, 0.432, 192.0, 0.0, 0.0, 0.0, 0.0, 0.0, 0.0, 0.0, 0.0, 0.0, 1.663589469335266E9, 0.0, 2022-09-19 17:11:09.335
88.0, -12546.771770330879, -26474.18844392162, -33530.12007833959, -16037.220184471631, -12050.920671334348, 187500.0, -46172.42320447245, -10846.988659738143, 0.596, -0.6980000000000001, 0.432, 192.0, 0.0, 0.0, 0.0, 0.0, 0.0, 0.0, 0.0, 0.0, 0.0, 1.663589469339286E9, 0.0, 2022-09-19 17:11:09.339
89.0, -12534.701828325013, -26473.562595076874, -33533.24932256333, -16046.294992720485, -12049.534863178118, 187500.0, -46178.5028789643, -10850.743752806635, 0.596, -0.706, 0.426, 192.0, 18.0, 160.0, 233.0, 240.0, 13.0, 80.0, 0.0, 0.0, 0.0, 1.6635894693432949E9, 0.0, 2022-09-19 17:11:09.343
90.0, -12557.344145458239, -26482.592699836816, -33526.87907539357, -16043.881004319312, -12050.00424981168, 187500.0, -46180.782756898734, -10854.163569708297, 0.596, -0.706, 0.426, 192.0, 0.0, 0.0, 0.0, 0.0, 0.0, 0.0, 0.0, 0.0, 0.0, 1.6635894693472457E9, 0.0, 2022-09-19 17:11:09.347
91.0, -12579.58413119127, -26487.19715919461, -33527.2143515604, -16039.812986828447, -12045.153921264879, 187500.0, -46177.631160930534, -10854.990584253143, 0.596, -0.706, 0.426, 192.0, 0.0, 0.0, 0.0, 0.0, 0.0, 0.0, 0.0, 0.0, 0.0, 1.6635894693512745E9, 0.0, 2022-09-19 17:11:09.351
92.0, -12580.902884114133, -26485.856054527292, -33531.84116266265, -16038.427178672217, -12046.137398020912, 187500.0, -46176.62533243005, -10845.20052018172, 0.596, -0.706, 0.426, 192.0, 0.0, 0.0, 0.0, 0.0, 0.0, 0.0, 0.0, 0.0, 0.0, 1.6635894693562794E9, 0.0, 2022-09-19 17:11:09.356
93.0, -12558.19351174754, -26477.250632911997, -33538.50198251033, -16044.775074097524, -12045.958584065269, 187500.0, -46174.99365508481, -10838.606755567404, 0.596, -0.706, 0.426, 192.0, 0.0, 0.0, 0.0, 0.0, 0.0, 0.0, 0.0, 0.0, 0.0, 1.6635894693602824E9, 0.0, 2022-09-19 17:11:09.360
94.0, -12535.461787636494, -26473.652002054692, -33531.751755684825, -16043.545728152481, -12039.565985151052, 187500.0, -46169.78569862672, -10830.09074092993, 0.596, -0.706, 0.426, 192.0, 0.0, 0.0, 0.0, 0.0, 0.0, 0.0, 0.0, 0.0, 0.0, 1.6635894693633292E9, 0.0, 2022-09-19 17:11:09.363
95.0, -12557.120628013687, -26495.020269753968, -33529.00249111682, -16047.501986921072, -12052.686459146316, 187500.0, -46170.50095444929, -10836.729209033158, 0.596, -0.706, 0.426, 192.0, 0.0, 0.0, 0.0, 0.0, 0.0, 0.0, 0.0, 0.0, 0.0, 1.6635894693673549E9, 0.0, 2022-09-19 17:11:09.367
96.0, -12574.95732008902, -26501.614034368282, -33531.125906840076, -16048.55251891047, -12056.374496981442, 187500.0, -46171.082099805135, -10841.71364804669, 0.596, -0.706, 0.426, 192.0, 0.0, 0.0, 0.0, 0.0, 0.0, 0.0, 0.0, 0.0, 0.0, 1.663589469371343E9, 0.0, 2022-09-19 17:11:09.371
97.0, -12572.029241565377, -26497.836589555336, -33534.32220629718, -16049.51364392205, -12049.66897364485, 187500.0, -46172.15498353899, -10846.72043880468, 0.596, -0.706, 0.426, 192.0, 0.0, 0.0, 0.0, 0.0, 0.0, 0.0, 0.0, 0.0, 0.0, 1.663589469375316E9, 0.0, 2022-09-19 17:11:09.375
98.0, -12552.382058189161, -26494.908511031692, -33541.49711626734, -16058.834321359913, -12050.116008533956, 187500.0, -46173.47373646185, -10851.459008629205, 0.596, -0.706, 0.426, 192.0, 0.0, 0.0, 0.0, 0.0, 0.0, 0.0, 0.0, 0.0, 0.0, 1.6635894693793507E9, 0.0, 2022-09-19 17:11:09.379
99.0, -12534.590069602737, -26493.835627297834, -33545.520430269295, -16060.823626616435, -12053.37936322443, 187500.0, -46170.32214049365, -10831.007162452599, 0.594, -0.704, 0.428, 192.0, 18.0, 144.0, 234.0, 0.0, 13.0, 96.0, 0.0, 0.0, 0.0, 1.6635894693843164E9, 0.0, 2022-09-19 17:11:09.384
100.0, -12555.086619268253, -26509.57125539437, -33546.48155528087, -16058.431989959718, -12061.671860417351, 187500.0, -46174.9489515959, -10841.758351535602, 0.594, -0.704, 0.428, 192.0, 0.0, 0.0, 0.0, 0.0, 0.0, 0.0, 0.0, 0.0, 0.0, 1.663589469387363E9, 0.0, 2022-09-19 17:11:09.387
101.0, -12572.744497387946, -26512.92401706267, -33538.21140983241, -16051.771170112035, -12061.694212161805, 187500.0, -46171.976169583344, -10845.20052018172, 0.594, -0.704, 0.428, 192.0, 0.0, 0.0, 0.0, 0.0, 0.0, 0.0, 0.0, 0.0, 0.0, 1.6635894693903756E9, 0.0, 2022-09-19 17:11:09.390
102.0, -12566.195436262542, -26501.43522041264, -33535.8644766646, -16047.703152621169, -12047.232633499221, 187500.0, -46164.68950089091, -10838.159720678297, 0.594, -0.704, 0.428, 192.0, 0.0, 0.0, 0.0, 0.0, 0.0, 0.0, 0.0, 0.0, 0.0, 1.6635894693953612E9, 0.0, 2022-09-19 17:11:09.395
103.0, -12547.554081386816, -26497.411906410685, -33539.03842437726, -16050.094789277888, -12031.854633313971, 187500.0, -46164.17541076844, -10822.088816414931, 0.594, -0.704, 0.428, 192.0, 0.0, 0.0, 0.0, 0.0, 0.0, 0.0, 0.0, 0.0, 0.0, 1.6635894693994095E9, 0.0, 2022-09-19 17:11:09.399
104.0, -12525.895241009623, -26494.908511031692, -33534.8139446752, -16044.328039208418, -12024.299743688076, 187500.0, -46164.577742168636, -10817.484357057137, 0.594, -0.704, 0.428, 192.0, 0.0, 0.0, 0.0, 0.0, 0.0, 0.0, 0.0, 0.0, 0.0, 1.6635894694033544E9, 0.0, 2022-09-19 17:11:09.403
105.0, -12553.454941923017, -26516.544999664427, -33537.71967145439, -16051.03356254501, -12037.442569427798, 187500.0, -46173.78666088422, -10841.691296302235, 0.594, -0.704, 0.428, 192.0, 0.0, 0.0, 0.0, 0.0, 0.0, 0.0, 0.0, 0.0, 0.0, 1.663589469407514E9, 0.0, 2022-09-19 17:11:09.407
106.0, -12577.550122445837, -26528.52553469247, -33539.59721798864, -16056.554443425472, -12039.253060728677, 187500.0, -46175.53009695174, -10851.593119095936, 0.594, -0.704, 0.428, 192.0, 0.0, 0.0, 0.0, 0.0, 0.0, 0.0, 0.0, 0.0, 0.0, 1.6635894694114196E9, 0.0, 2022-09-19 17:11:09.411
107.0, -12574.219712521997, -26524.233999757053, -33547.39797680354, -16059.236652760108, -12040.14713050689, 187500.0, -46179.84398363161, -10844.708781803702, 0.594, -0.704, 0.428, 192.0, 0.0, 0.0, 0.0, 0.0, 0.0, 0.0, 0.0, 0.0, 0.0, 1.6635894694153893E9, 0.0, 2022-09-19 17:11:09.415
108.0, -12545.587127874747, -26512.409926940196, -33550.05783439372, -16054.699248635681, -12038.2919357171, 187500.0, -46181.0509778322, -10824.815729238479, 0.594, -0.704, 0.428, 192.0, 0.0, 0.0, 0.0, 0.0, 0.0, 0.0, 0.0, 0.0, 0.0, 1.66358946941847E9, 0.0, 2022-09-19 17:11:09.418
109.0, -12524.107101453197, -26514.39923219672, -33544.80517444672, -16052.106446278865, -12037.464921172254, 187500.0, -46177.6982161639, -10826.335647861439, 0.598, -0.7000000000000001, 0.43, 192.0, 18.0, 176.0, 234.0, 32.0, 13.0, 112.0, 0.0, 0.0, 0.0, 1.663589469423454E9, 0.0, 2022-09-19 17:11:09.423
110.0, -12549.029296520865, -26530.20191552662, -33536.89265690955, -16052.933460823711, -12049.020773055647, 187500.0, -46175.30657950718, -10855.10234297542, 0.598, -0.7000000000000001, 0.43, 192.0, 0.0, 0.0, 0.0, 0.0, 0.0, 0.0, 0.0, 0.0, 0.0, 1.663589469427456E9, 0.0, 2022-09-19 17:11:09.427
111.0, -12563.87085483919, -26526.20095326912, -33525.35915677061, -16040.640001373293, -12042.829339841526, 187500.0, -46167.148192780995, -10829.464892085183, 0.598, -0.7000000000000001, 0.43, 192.0, 0.0, 0.0, 0.0, 0.0, 0.0, 0.0, 0.0, 0.0, 0.0, 1.6635894694315715E9, 0.0, 2022-09-19 17:11:09.431
112.0, -12551.86796806669, -26514.33217696335, -33528.80132541672, -16047.256117732064, -12034.536842648607, 187500.0, -46165.87414334704, -10824.636915282836, 0.598, -0.7000000000000001, 0.43, 192.0, 0.0, 0.0, 0.0, 0.0, 0.0, 0.0, 0.0, 0.0, 0.0, 1.6635894694354243E9, 0.0, 2022-09-19 17:11:09.435
113.0, -12521.33548514074, -26505.43618267014, -33532.64582546304, -16052.17350151223, -12026.04317975559, 187500.0, -46164.98007356883, -10817.014970423577, 0.598, -0.7000000000000001, 0.43, 192.0, 0.0, 0.0, 0.0, 0.0, 0.0, 0.0, 0.0, 0.0, 0.0, 1.6635894694394279E9, 0.0, 2022-09-19 17:11:09.439
114.0, -12500.57071454176, -26509.928883305656, -33539.530162755276, -16058.74491438209, -12032.61459262545, 187500.0, -46177.0500155747, -10819.585421035938, 0.598, -0.7000000000000001, 0.43, 192.0, 0.0, 0.0, 0.0, 0.0, 0.0, 0.0, 0.0, 0.0, 0.0, 1.6635894694434695E9, 0.0, 2022-09-19 17:11:09.443
115.0, -12521.938982241034, -26532.548848694427, -33538.613741232606, -16059.907205093767, -12050.563043423062, 187500.0, -46181.833288888134, -10830.917755474777, 0.598, -0.7000000000000001, 0.43, 192.0, 0.0, 0.0, 0.0, 0.0, 0.0, 0.0, 0.0, 0.0, 0.0, 1.663589469446463E9, 0.0, 2022-09-19 17:11:09.446
116.0, -12534.724180069468, -26536.818031885392, -33533.94222664145, -16053.715771879646, -12047.456150943775, 187500.0, -46176.13359405203, -10829.464892085183, 0.598, -0.7000000000000001, 0.43, 192.0, 0.0, 0.0, 0.0, 0.0, 0.0, 0.0, 0.0, 0.0, 0.0, 1.6635894694514363E9, 0.0, 2022-09-19 17:11:09.451
117.0, -12532.131377712652, -26537.510935963506, -33543.53112501277, -16060.577757427427, -12044.997459053691, 187500.0, -46182.48148947734, -10828.593174051426, 0.598, -0.7000000000000001, 0.43, 192.0, 0.0, 0.0, 0.0, 0.0, 0.0, 0.0, 0.0, 0.0, 0.0, 1.663589469455474E9, 0.0, 2022-09-19 17:11:09.455
118.0, -12509.243191390418, -26531.274799260475, -33549.856668693625, -16065.204568529674, -12039.409522939864, 187500.0, -46182.36973075506, -10823.876955971356, 0.598, -0.7000000000000001, 0.43, 192.0, 0.0, 0.0, 0.0, 0.0, 0.0, 0.0, 0.0, 0.0, 0.0, 1.6635894694594266E9, 0.0, 2022-09-19 17:11:09.459
119.0, -12491.80883071528, -26530.023101570976, -33551.35423557213, -16072.22301628864, -12042.851691585982, 187500.0, -46187.354169768594, -10833.152929920308, 0.598, -0.6980000000000001, 0.43, 192.0, 18.0, 176.0, 234.0, 48.0, 13.0, 112.0, 0.0, 0.0, 0.0, 1.6635894694634464E9, 0.0, 2022-09-19 17:11:09.463
120.0, -12510.584296057737, -26544.05999708891, -33543.911104668514, -16070.32311800994, -12053.312307991066, 187500.0, -46185.65543718999, -10850.475531873171, 0.598, -0.6980000000000001, 0.43, 192.0, 0.0, 0.0, 0.0, 0.0, 0.0, 0.0, 0.0, 0.0, 0.0, 1.66358946946744E9, 0.0, 2022-09-19 17:11:09.467
121.0, -12523.883584008645, -26547.43511050166, -33542.391186045556, -16059.08019054892, -12049.221938755743, 187500.0, -46183.867297633566, -10839.791398023533, 0.598, -0.6980000000000001, 0.43, 192.0, 0.0, 0.0, 0.0, 0.0, 0.0, 0.0, 0.0, 0.0, 0.0, 1.6635894694714935E9, 0.0, 2022-09-19 17:11:09.471
122.0, -12524.487081108939, -26547.613924457306, -33548.113232626114, -16056.755609125568, -12046.830302099026, 187500.0, -46185.29780927871, -10811.583496520936, 0.598, -0.6980000000000001, 0.43, 192.0, 0.0, 0.0, 0.0, 0.0, 0.0, 0.0, 0.0, 0.0, 0.0, 1.6635894694744723E9, 0.0, 2022-09-19 17:11:09.474
123.0, -12508.818508245768, -26546.362226767807, -33554.86345945161, -16062.27649000603, -12038.694267117295, 187500.0, -46186.54950696821, -10804.788566206524, 0.598, -0.6980000000000001, 0.43, 192.0, 0.0, 0.0, 0.0, 0.0, 0.0, 0.0, 0.0, 0.0, 0.0, 1.663589469479454E9, 0.0, 2022-09-19 17:11:09.479
124.0, -12496.56975228426, -26553.939468138156, -33544.201677346435, -16061.494178950094, -12028.457168156763, 187500.0, -46175.552448696195, -10805.749691218101, 0.598, -0.6980000000000001, 0.43, 192.0, 0.0, 0.0, 0.0, 0.0, 0.0, 0.0, 0.0, 0.0, 0.0, 1.663589469483505E9, 0.0, 2022-09-19 17:11:09.483
125.0, -12522.363665385685, -26572.469064291607, -33540.04425287774, -16058.431989959718, -12032.636944369906, 187500.0, -46175.21717252937, -10819.384255335839, 0.598, -0.6980000000000001, 0.43, 192.0, 0.0, 0.0, 0.0, 0.0, 0.0, 0.0, 0.0, 0.0, 0.0, 1.6635894694875207E9, 0.0, 2022-09-19 17:11:09.487
126.0, -12544.223671462974, -26570.949145668645, -33538.54668599924, -16054.676896891226, -12029.306534446067, 187500.0, -46174.12193705105, -10821.105339658898, 0.598, -0.6980000000000001, 0.43, 192.0, 0.0, 0.0, 0.0, 0.0, 0.0, 0.0, 0.0, 0.0, 0.0, 1.6635894694914727E9, 0.0, 2022-09-19 17:11:09.491
127.0, -12553.343183200739, -26572.245546847054, -33549.9684274159, -16065.450437718682, -12029.641810612895, 187500.0, -46185.20840230089, -10831.230679897151, 0.598, -0.6980000000000001, 0.43, 192.0, 0.0, 0.0, 0.0, 0.0, 0.0, 0.0, 0.0, 0.0, 0.0, 1.6635894694955516E9, 0.0, 2022-09-19 17:11:09.495
128.0, -12533.00309574641, -26559.281535062975, -33545.051043635736, -16067.70796390867, -12020.455243641763, 187500.0, -46179.57576269815, -10827.497938573115, 0.598, -0.6980000000000001, 0.43, 192.0, 0.0, 0.0, 0.0, 0.0, 0.0, 0.0, 0.0, 0.0, 0.0, 1.6635894694996624E9, 0.0, 2022-09-19 17:11:09.499
129.0, -12523.056569463799, -26560.935564152667, -33541.675930222984, -16070.27841452103, -12020.52229887513, 187500.0, -46177.4523469749, -10833.354095620405, 0.604, -0.706, 0.43, 192.0, 18.0, 224.0, 233.0, 240.0, 13.0, 112.0, 0.0, 0.0, 0.0, 1.6635894695024872E9, 0.0, 2022-09-19 17:11:09.502
130.0, -12560.853369337723, -26580.69450625116, -33534.79159293075, -16065.85276911888, -12036.973182794236, 187500.0, -46177.83232663063, -10843.591194580937, 0.604, -0.706, 0.43, 192.0, 0.0, 0.0, 0.0, 0.0, 0.0, 0.0, 0.0, 0.0, 0.0, 1.6635894695065527E9, 0.0, 2022-09-19 17:11:09.506
131.0, -12596.34793953275, -26588.204692388143, -33534.79159293075, -16061.672992905736, -12050.495988189698, 187500.0, -46178.72639640885, -10844.373505636871, 0.604, -0.706, 0.43, 192.0, 0.0, 0.0, 0.0, 0.0, 0.0, 0.0, 0.0, 0.0, 0.0, 1.6635894695116427E9, 0.0, 2022-09-19 17:11:09.511
132.0, -12601.377082035195, -26579.621622517305, -33534.00928187481, -16062.343545239395, -12044.103389275479, 187500.0, -46172.37850098354, -10844.015877725587, 0.604, -0.706, 0.43, 192.0, 0.0, 0.0, 0.0, 0.0, 0.0, 0.0, 0.0, 0.0, 0.0, 1.6635894695155864E9, 0.0, 2022-09-19 17:11:09.515
133.0, -12587.429593495082, -26569.362171812318, -33537.94318889895, -16062.9917458286, -12035.833243827015, 187500.0, -46169.91980909346, -10846.072238215476, 0.604, -0.706, 0.43, 192.0, 0.0, 0.0, 0.0, 0.0, 0.0, 0.0, 0.0, 0.0, 0.0, 1.6635894695196064E9, 0.0, 2022-09-19 17:11:09.519
134.0, -12584.613273693714, -26576.492378293562, -33546.839183192154, -16062.678821406225, -12036.548499649585, 187500.0, -46177.51940220826, -10835.09753168792, 0.604, -0.706, 0.43, 192.0, 0.0, 0.0, 0.0, 0.0, 0.0, 0.0, 0.0, 0.0, 0.0, 1.6635894695225804E9, 0.0, 2022-09-19 17:11:09.522
135.0, -12611.033035639888, -26590.663384278225, -33539.95484589993, -16057.046181803487, -12038.314287461555, 187500.0, -46177.80997488618, -10827.453235084206, 0.604, -0.706, 0.43, 192.0, 0.0, 0.0, 0.0, 0.0, 0.0, 0.0, 0.0, 0.0, 0.0, 1.663589469526612E9, 0.0, 2022-09-19 17:11:09.526
136.0, -12642.392533110684, -26600.07346869391, -33542.793517445745, -16066.411562730262, -12044.259851486666, 187500.0, -46182.50384122179, -10844.082932958954, 0.604, -0.706, 0.43, 192.0, 0.0, 0.0, 0.0, 0.0, 0.0, 0.0, 0.0, 0.0, 0.0, 1.663589469530612E9, 0.0, 2022-09-19 17:11:09.530
137.0, -12662.263233931451, -26604.253244907053, -33538.524334254784, -16067.193873786196, -12037.442569427798, 187500.0, -46175.060710318176, -10847.726267305168, 0.604, -0.706, 0.43, 192.0, 0.0, 0.0, 0.0, 0.0, 0.0, 0.0, 0.0, 0.0, 0.0, 1.663589469534582E9, 0.0, 2022-09-19 17:11:09.534
138.0, -12662.620861842735, -26599.514675082526, -33536.69149120945, -16066.65743191927, -12026.803139067071, 187500.0, -46165.71768113586, -10846.72043880468, 0.604, -0.706, 0.43, 192.0, 0.0, 0.0, 0.0, 0.0, 0.0, 0.0, 0.0, 0.0, 0.0, 1.6635894695396628E9, 0.0, 2022-09-19 17:11:09.539
139.0, -12683.206818486075, -26611.1822856882, -33540.17836334448, -16072.111257566365, -12032.23461296971, 187500.0, -46172.57966668364, -10857.225758698674, 0.604, -0.704, 0.43, 192.0, 18.0, 224.0, 234.0, 0.0, 13.0, 112.0, 0.0, 0.0, 0.0, 1.6635894695436015E9, 0.0, 2022-09-19 17:11:09.543
140.0, -12743.37771455976, -26630.851820808868, -33530.634168462064, -16058.65550740427, -12035.00622928217, 187500.0, -46174.25604751779, -10866.837008814457, 0.604, -0.704, 0.43, 192.0, 0.0, 0.0, 0.0, 0.0, 0.0, 0.0, 0.0, 0.0, 0.0, 1.6635894695475757E9, 0.0, 2022-09-19 17:11:09.547
141.0, -12796.239590196561, -26633.13169874331, -33529.42717426147, -16052.285260234506, -12034.693304859795, 187500.0, -46171.93146609444, -10868.759258837612, 0.604, -0.704, 0.43, 192.0, 0.0, 0.0, 0.0, 0.0, 0.0, 0.0, 0.0, 0.0, 0.0, 1.6635894695506258E9, 0.0, 2022-09-19 17:11:09.550
142.0, -12829.051951056952, -26631.611780120347, -33537.29498830974, -16064.466960962649, -12037.733142105717, 187500.0, -46170.18803002692, -10881.34329096595, 0.604, -0.704, 0.43, 192.0, 0.0, 0.0, 0.0, 0.0, 0.0, 0.0, 0.0, 0.0, 0.0, 1.6635894695546267E9, 0.0, 2022-09-19 17:11:09.554
143.0, -12836.517433705025, -26622.93930327169, -33540.893619167044, -16071.70892616617, -12032.212261225255, 187500.0, -46164.53303867973, -10890.038119559065, 0.604, -0.704, 0.43, 192.0, 0.0, 0.0, 0.0, 0.0, 0.0, 0.0, 0.0, 0.0, 0.0, 1.663589469558627E9, 0.0, 2022-09-19 17:11:09.558
144.0, -12852.6330414573, -26625.219181206132, -33534.5680754862, -16056.666202147748, -12027.71956058974, 187500.0, -46165.71768113586, -10852.688354574246, 0.604, -0.704, 0.43, 192.0, 0.0, 0.0, 0.0, 0.0, 0.0, 0.0, 0.0, 0.0, 0.0, 1.6635894695626805E9, 0.0, 2022-09-19 17:11:09.562
145.0, -12909.138251440318, -26647.95090531718, -33529.44952600593, -16058.543748681994, -12034.559194393063, 187500.0, -46168.01991081476, -10864.177151224274, 0.604, -0.704, 0.43, 192.0, 0.0, 0.0, 0.0, 0.0, 0.0, 0.0, 0.0, 0.0, 0.0, 1.6635894695666823E9, 0.0, 2022-09-19 17:11:09.566
146.0, -12953.841740350932, -26652.533012930515, -33530.701223695425, -16062.9917458286, -12034.894470559891, 187500.0, -46165.74003288031, -10871.329709449972, 0.604, -0.704, 0.43, 192.0, 0.0, 0.0, 0.0, 0.0, 0.0, 0.0, 0.0, 0.0, 0.0, 1.6635894695716848E9, 0.0, 2022-09-19 17:11:09.571
147.0, -12972.728964415666, -26643.569963403937, -33535.14922084203, -16065.293975507497, -12027.496043145185, 187500.0, -46166.879971847535, -10869.832142571468, 0.604, -0.704, 0.43, 192.0, 0.0, 0.0, 0.0, 0.0, 0.0, 0.0, 0.0, 0.0, 0.0, 1.6635894695756962E9, 0.0, 2022-09-19 17:11:09.575
148.0, -12963.162417788795, -26624.861553294846, -33533.13756384105, -16062.56706268395, -12010.799290037072, 187500.0, -46163.9965968128, -10853.24714818563, 0.604, -0.704, 0.43, 192.0, 0.0, 0.0, 0.0, 0.0, 0.0, 0.0, 0.0, 0.0, 0.0, 1.663589469578746E9, 0.0, 2022-09-19 17:11:09.578
149.0, -12977.266368540093, -26636.484460411604, -33536.69149120945, -16067.059763319465, -12016.52133661763, 187500.0, -46177.161774296976, -10863.707764590712, 0.602, -0.708, 0.428, 192.0, 18.0, 208.0, 233.0, 224.0, 13.0, 96.0, 0.0, 0.0, 0.0, 1.6635894695827315E9, 0.0, 2022-09-19 17:11:09.582
150.0, -13034.173909923305, -26664.42414098074, -33533.78576443026, -16064.913995851755, -12031.00526702467, 187500.0, -46184.04611158921, -10866.009994269609, 0.602, -0.708, 0.428, 192.0, 0.0, 0.0, 0.0, 0.0, 0.0, 0.0, 0.0, 0.0, 0.0, 1.663589469586614E9, 0.0, 2022-09-19 17:11:09.586
151.0, -13073.267110975637, -26665.60878343687, -33533.18226732997, -16062.56706268395, -12023.606839609962, 187500.0, -46178.88285862003, -10861.561997123003, 0.602, -0.708, 0.428, 192.0, 0.0, 0.0, 0.0, 0.0, 0.0, 0.0, 0.0, 0.0, 0.0, 1.663589469590752E9, 0.0, 2022-09-19 17:11:09.590
152.0, -13080.77729711262, -26658.456225211172, -33532.39995627403, -16061.158902783263, -12010.016978981135, 187500.0, -46170.97034108286, -10854.610604597403, 0.602, -0.708, 0.428, 192.0, 0.0, 0.0, 0.0, 0.0, 0.0, 0.0, 0.0, 0.0, 0.0, 1.6635894695947473E9, 0.0, 2022-09-19 17:11:09.594
153.0, -13068.461485917745, -26648.219126250642, -33539.440755777454, -16061.181254527719, -11998.215257908734, 187500.0, -46169.49512594881, -10843.993525981132, 0.602, -0.708, 0.428, 192.0, 0.0, 0.0, 0.0, 0.0, 0.0, 0.0, 0.0, 0.0, 0.0, 1.6635894695997276E9, 0.0, 2022-09-19 17:11:09.599
154.0, -13069.981404540707, -26658.83620486691, -33539.999549388835, -16066.612728430358, -12003.713787044739, 187500.0, -46174.88189636253, -10865.093572746942, 0.602, -0.708, 0.428, 192.0, 0.0, 0.0, 0.0, 0.0, 0.0, 0.0, 0.0, 0.0, 0.0, 1.6635894696037002E9, 0.0, 2022-09-19 17:11:09.603
155.0, -13109.812213160065, -26676.47173124215, -33534.29985455273, -16064.064629562454, -12019.292952930087, 187500.0, -46174.39015798452, -10870.346232693939, 0.602, -0.708, 0.428, 192.0, 0.0, 0.0, 0.0, 0.0, 0.0, 0.0, 0.0, 0.0, 0.0, 1.6635894696067257E9, 0.0, 2022-09-19 17:11:09.606
156.0, -13144.971507188262, -26678.081056842933, -33538.479630765876, -16063.572891184438, -12026.736083833704, 187500.0, -46174.72543415135, -10862.14314247884, 0.602, -0.708, 0.428, 192.0, 0.0, 0.0, 0.0, 0.0, 0.0, 0.0, 0.0, 0.0, 0.0, 1.6635894696107252E9, 0.0, 2022-09-19 17:11:09.610
157.0, -13151.74408575822, -26673.387190507317, -33545.654540736025, -16067.059763319465, -12019.494118630186, 187500.0, -46175.21717252937, -10854.43179064176, 0.602, -0.708, 0.428, 192.0, 0.0, 0.0, 0.0, 0.0, 0.0, 0.0, 0.0, 0.0, 0.0, 1.6635894696147256E9, 0.0, 2022-09-19 17:11:09.614
158.0, -13134.600297761, -26661.07137931244, -33533.80811617471, -16057.51556843705, -12001.344502132477, 187500.0, -46163.393099712506, -10835.991601466132, 0.602, -0.708, 0.428, 192.0, 0.0, 0.0, 0.0, 0.0, 0.0, 0.0, 0.0, 0.0, 0.0, 1.663589469618736E9, 0.0, 2022-09-19 17:11:09.618
159.0, -13137.5507280291, -26663.55242294698, -33527.61668296059, -16052.8887573348, -12005.099595200969, 187500.0, -46165.80708811368, -10830.135444418842, 0.606, -0.704, 0.432, 192.0, 18.0, 240.0, 234.0, 0.0, 13.0, 128.0, 0.0, 0.0, 0.0, 1.6635894696227703E9, 0.0, 2022-09-19 17:11:09.622
160.0, -13182.164809961892, -26682.08201910043, -33525.739136426346, -16050.65358288927, -12021.706941331262, 187500.0, -46171.93146609444, -10841.356020135407, 0.606, -0.704, 0.432, 192.0, 0.0, 0.0, 0.0, 0.0, 0.0, 0.0, 0.0, 0.0, 0.0, 1.6635894696277468E9, 0.0, 2022-09-19 17:11:09.627
161.0, -13214.038397555161, -26684.31719354596, -33526.722613182385, -16053.358143968362, -12019.851746541472, 187500.0, -46166.388233469515, -10852.822465040977, 0.606, -0.704, 0.432, 192.0, 0.0, 0.0, 0.0, 0.0, 0.0, 0.0, 0.0, 0.0, 0.0, 1.6635894696317449E9, 0.0, 2022-09-19 17:11:09.631
162.0, -13221.749749392242, -26678.975126621142, -33528.466049249895, -16055.861539347356, -12012.56507784904, 187500.0, -46161.292035733706, -10852.9118720188, 0.606, -0.704, 0.432, 192.0, 0.0, 0.0, 0.0, 0.0, 0.0, 0.0, 0.0, 0.0, 0.0, 1.663589469634853E9, 0.0, 2022-09-19 17:11:09.634
163.0, -13204.94123756185, -26664.826472380933, -33529.7624504283, -16057.537920181505, -12002.95382773326, 187500.0, -46156.665224631455, -10854.454142386216, 0.606, -0.704, 0.432, 192.0, 0.0, 0.0, 0.0, 0.0, 0.0, 0.0, 0.0, 0.0, 0.0, 1.6635894696387675E9, 0.0, 2022-09-19 17:11:09.638
164.0, -13204.717720117298, -26670.459111983673, -33529.67304345048, -16056.17446376973, -12009.547592347573, 187500.0, -46163.884838090526, -10849.782627795057, 0.606, -0.704, 0.432, 192.0, 0.0, 0.0, 0.0, 0.0, 0.0, 0.0, 0.0, 0.0, 0.0, 1.6635894696427245E9, 0.0, 2022-09-19 17:11:09.642
165.0, -13247.230738071292, -26695.917748918266, -33528.10842133861, -16055.74978062508, -12020.142319219389, 187500.0, -46170.433899215925, -10851.414305140293, 0.606, -0.704, 0.432, 192.0, 0.0, 0.0, 0.0, 0.0, 0.0, 0.0, 0.0, 0.0, 0.0, 1.6635894696468308E9, 0.0, 2022-09-19 17:11:09.646
166.0, -13280.736003009797, -26704.456115300192, -33524.129810825565, -16050.184196255708, -12009.972275492226, 187500.0, -46168.44459395941, -10854.878825530866, 0.606, -0.704, 0.432, 192.0, 0.0, 0.0, 0.0, 0.0, 0.0, 0.0, 0.0, 0.0, 0.0, 1.6635894696508417E9, 0.0, 2022-09-19 17:11:09.650
167.0, -13286.279235634713, -26694.062554128475, -33528.175476571974, -16043.143396752286, -11996.56122881904, 187500.0, -46168.913980592966, -10844.038229470043, 0.606, -0.704, 0.432, 192.0, 0.0, 0.0, 0.0, 0.0, 0.0, 0.0, 0.0, 0.0, 0.0, 1.6635894696557636E9, 0.0, 2022-09-19 17:11:09.655
168.0, -13269.604834271055, -26678.75160917659, -33527.63903470505, -16039.634172872804, -11989.140449659879, 187500.0, -46166.96937882536, -10833.421150853772, 0.606, -0.704, 0.432, 192.0, 0.0, 0.0, 0.0, 0.0, 0.0, 0.0, 0.0, 0.0, 0.0, 1.6635894696589055E9, 0.0, 2022-09-19 17:11:09.658
169.0, -13275.192770384881, -26692.162655849774, -33524.196866058934, -16044.283335719507, -12000.47278409872, 187500.0, -46167.572875925645, -10844.462912614694, 0.598, -0.706, 0.428, 192.0, 18.0, 176.0, 233.0, 240.0, 13.0, 96.0, 0.0, 0.0, 0.0, 1.6635894696627939E9, 0.0, 2022-09-19 17:11:09.662
170.0, -13312.520183625244, -26712.011004926087, -33519.34653751213, -16047.524338665527, -12013.19092669379, 187500.0, -46167.371710225554, -10864.154799479818, 0.598, -0.706, 0.428, 192.0, 0.0, 0.0, 0.0, 0.0, 0.0, 0.0, 0.0, 0.0, 0.0, 1.6635894696668189E9, 0.0, 2022-09-19 17:11:09.666
171.0, -13331.742683856808, -26709.082926402443, -33515.56909269918, -16044.79742584198, -12011.80511853756, 187500.0, -46161.426146200436, -10856.82342729848, 0.598, -0.706, 0.428, 192.0, 0.0, 0.0, 0.0, 0.0, 0.0, 0.0, 0.0, 0.0, 0.0, 1.6635894696708844E9, 0.0, 2022-09-19 17:11:09.670
172.0, -13328.836957077618, -26700.43280129824, -33517.60310144462, -16042.159919996253, -12006.373644634921, 187500.0, -46158.90039907699, -10841.333668390951, 0.598, -0.706, 0.428, 192.0, 0.0, 0.0, 0.0, 0.0, 0.0, 0.0, 0.0, 0.0, 0.0, 1.6635894696748729E9, 0.0, 2022-09-19 17:11:09.674
173.0, -13311.179078957926, -26696.074211129453, -33526.05206084872, -16046.809082842958, -11998.997568964669, 187500.0, -46162.32021597865, -10836.326877632962, 0.598, -0.706, 0.428, 192.0, 0.0, 0.0, 0.0, 0.0, 0.0, 0.0, 0.0, 0.0, 0.0, 1.6635894696788247E9, 0.0, 2022-09-19 17:11:09.678
174.0, -13317.616381361055, -26712.43568807074, -33533.45048826343, -16052.240556745597, -12006.843031268481, 187500.0, -46172.13263179453, -10845.155816692808, 0.598, -0.706, 0.428, 192.0, 0.0, 0.0, 0.0, 0.0, 0.0, 0.0, 0.0, 0.0, 0.0, 1.6635894696838655E9, 0.0, 2022-09-19 17:11:09.683
175.0, -13351.5016259553, -26731.881705746855, -33530.67887195097, -16055.973298069634, -12015.895487772881, 187500.0, -46174.65837891798, -10870.636805371858, 0.598, -0.706, 0.428, 192.0, 0.0, 0.0, 0.0, 0.0, 0.0, 0.0, 0.0, 0.0, 0.0, 1.663589469686916E9, 0.0, 2022-09-19 17:11:09.686
176.0, -13364.443285994923, -26729.825345256966, -33524.196866058934, -16046.22793748712, -12006.485403357197, 187500.0, -46167.28230324773, -10868.893369304344, 0.598, -0.706, 0.428, 192.0, 0.0, 0.0, 0.0, 0.0, 0.0, 0.0, 0.0, 0.0, 0.0, 1.66358946968985E9, 0.0, 2022-09-19 17:11:09.689
177.0, -13352.060419566682, -26713.776792738056, -33522.051098591226, -16037.466053660639, -11992.202638650257, 187500.0, -46159.57095141065, -10836.885671244345, 0.598, -0.706, 0.428, 192.0, 0.0, 0.0, 0.0, 0.0, 0.0, 0.0, 0.0, 0.0, 0.0, 1.6635894696948678E9, 0.0, 2022-09-19 17:11:09.694
178.0, -13328.345218699602, -26705.23842635613, -33529.69539519494, -16045.89266132029, -11984.93832170228, 187500.0, -46161.53790492271, -10828.57082230697, 0.598, -0.706, 0.428, 192.0, 0.0, 0.0, 0.0, 0.0, 0.0, 0.0, 0.0, 0.0, 0.0, 1.6635894696988828E9, 0.0, 2022-09-19 17:11:09.698
179.0, -13323.427834919434, -26714.849676471913, -33532.511714996304, -16051.301783478473, -11992.403804350353, 187500.0, -46169.47277420435, -10831.253031641607, 0.598, -0.706, 0.428, 192.0, 0.0, 0.0, 0.0, 0.0, 0.0, 0.0, 0.0, 0.0, 0.0, 1.6635894697028775E9, 0.0, 2022-09-19 17:11:09.702
180.0, -13351.680439910942, -26727.366653366884, -33525.806191659714, -16048.038428787999, -12001.031577710102, 187500.0, -46167.84109685911, -10842.987697480643, 0.604, -0.6980000000000001, 0.432, 192.0, 18.0, 224.0, 234.0, 48.0, 13.0, 128.0, 0.0, 0.0, 0.0, 1.6635894697069027E9, 0.0, 2022-09-19 17:11:09.706
181.0, -13364.823265650663, -26719.47648757416, -33523.48161023636, -16043.948059552678, -11996.695339285772, 187500.0, -46159.50389617728, -10846.72043880468, 0.604, -0.6980000000000001, 0.432, 192.0, 0.0, 0.0, 0.0, 0.0, 0.0, 0.0, 0.0, 0.0, 0.0, 1.6635894697108853E9, 0.0, 2022-09-19 17:11:09.710
182.0, -13353.647393423009, -26709.686423502735, -33524.129810825565, -16044.350390952874, -11986.301778114055, 187500.0, -46154.452401930386, -10836.885671244345, 0.604, -0.6980000000000001, 0.432, 192.0, 0.0, 0.0, 0.0, 0.0, 0.0, 0.0, 0.0, 0.0, 0.0, 1.6635894697149148E9, 0.0, 2022-09-19 17:11:09.714
183.0, -13329.64161987801, -26707.42889731275, -33531.058851606715, -16048.932498566212, -11982.2784641121, 187500.0, -46163.527210179236, -10827.52029031757, 0.604, -0.6980000000000001, 0.432, 192.0, 0.0, 0.0, 0.0, 0.0, 0.0, 0.0, 0.0, 0.0, 0.0, 1.6635894697179227E9, 0.0, 2022-09-19 17:11:09.717
184.0, -13328.054646021683, -26730.182973168252, -33540.51363951131, -16056.532091681016, -11991.979121205703, 187500.0, -46179.68752142043, -10840.171377679275, 0.604, -0.6980000000000001, 0.432, 192.0, 0.0, 0.0, 0.0, 0.0, 0.0, 0.0, 0.0, 0.0, 0.0, 1.6635894697229233E9, 0.0, 2022-09-19 17:11:09.722
185.0, -13358.542425458721, -26742.744653552134, -33530.12007833959, -16047.479635176616, -11998.952865475758, 187500.0, -46173.22786727284, -10857.00224125412, 0.604, -0.6980000000000001, 0.432, 192.0, 0.0, 0.0, 0.0, 0.0, 0.0, 0.0, 0.0, 0.0, 0.0, 1.6635894697269337E9, 0.0, 2022-09-19 17:11:09.726
186.0, -13377.407297779, -26733.71454879219, -33523.52631372527, -16046.071475275932, -11995.734214274195, 187500.0, -46158.45336418788, -10869.183941982263, 0.604, -0.6980000000000001, 0.432, 192.0, 0.0, 0.0, 0.0, 0.0, 0.0, 0.0, 0.0, 0.0, 0.0, 1.6635894697309458E9, 0.0, 2022-09-19 17:11:09.730
187.0, -13375.26153031129, -26724.95266496571, -33524.21921780339, -16041.757588596058, -11990.570961305018, 187500.0, -46157.22401824284, -10836.48333984415, 0.604, -0.6980000000000001, 0.432, 192.0, 0.0, 0.0, 0.0, 0.0, 0.0, 0.0, 0.0, 0.0, 0.0, 1.6635894697349503E9, 0.0, 2022-09-19 17:11:09.734
188.0, -13352.909785855984, -26717.308368361995, -33525.09093583714, -16043.255155474562, -11991.643845038872, 187500.0, -46154.69827111939, -10824.14517690482, 0.604, -0.6980000000000001, 0.432, 192.0, 0.0, 0.0, 0.0, 0.0, 0.0, 0.0, 0.0, 0.0, 0.0, 1.6635894697389135E9, 0.0, 2022-09-19 17:11:09.738
189.0, -13364.957376117394, -26731.63583655785, -33528.37664227207, -16045.758550853558, -12004.920781245326, 187500.0, -46162.02964330073, -10842.317145146984, 0.604, -0.6980000000000001, 0.432, 192.0, 0.0, 0.0, 0.0, 0.0, 0.0, 0.0, 0.0, 0.0, 0.0, 1.6635894697430344E9, 0.0, 2022-09-19 17:11:09.743
190.0, -13402.485955057855, -26740.710644806702, -33516.932549110956, -16033.88977454779, -12010.732234803705, 187500.0, -46156.77698335374, -10849.760276050602, 0.6, -0.6980000000000001, 0.432, 192.0, 18.0, 192.0, 234.0, 48.0, 13.0, 128.0, 0.0, 0.0, 0.0, 1.6635894697459512E9, 0.0, 2022-09-19 17:11:09.745
191.0, -13423.384836123567, -26732.61931331388, -33515.05500257671, -16030.648771601771, -12008.251191169167, 187500.0, -46155.12295426404, -10846.787494038046, 0.6, -0.6980000000000001, 0.432, 192.0, 0.0, 0.0, 0.0, 0.0, 0.0, 0.0, 0.0, 0.0, 0.0, 1.6635894697509964E9, 0.0, 2022-09-19 17:11:09.750
192.0, -13431.029132727283, -26728.260723145097, -33518.78774390075, -16031.475786146617, -12007.982970235702, 187500.0, -46156.106431020075, -10846.00518298211, 0.6, -0.6980000000000001, 0.432, 192.0, 0.0, 0.0, 0.0, 0.0, 0.0, 0.0, 0.0, 0.0, 0.0, 1.6635894697550166E9, 0.0, 2022-09-19 17:11:09.755
193.0, -13421.551993078232, -26720.929350963754, -33527.63903470505, -16037.577812382915, -12011.08986271499, 187500.0, -46162.14140202301, -10848.106246960908, 0.6, -0.6980000000000001, 0.432, 192.0, 0.0, 0.0, 0.0, 0.0, 0.0, 0.0, 0.0, 0.0, 0.0, 1.6635894697590191E9, 0.0, 2022-09-19 17:11:09.759
194.0, -13437.913470019517, -26735.748557537623, -33528.7119184389, -16042.249326974075, -12014.263810427645, 187500.0, -46169.00338757079, -10860.980851767166, 0.6, -0.6980000000000001, 0.432, 192.0, 0.0, 0.0, 0.0, 0.0, 0.0, 0.0, 0.0, 0.0, 0.0, 1.6635894697629998E9, 0.0, 2022-09-19 17:11:09.762
195.0, -13483.175752541514, -26754.6134298579, -33524.420383503486, -16040.237669973098, -12008.161784191345, 187500.0, -46169.02573931524, -10866.278215203074, 0.6, -0.6980000000000001, 0.432, 192.0, 0.0, 0.0, 0.0, 0.0, 0.0, 0.0, 0.0, 0.0, 0.0, 1.6635894697669995E9, 0.0, 2022-09-19 17:11:09.766
196.0, -13505.527496996821, -26748.779624555067, -33519.77122065678, -16030.805233812956, -11994.840144495982, 187500.0, -46161.67201538945, -10858.589215110447, 0.6, -0.6980000000000001, 0.432, 192.0, 0.0, 0.0, 0.0, 0.0, 0.0, 0.0, 0.0, 0.0, 0.0, 1.663589469771064E9, 0.0, 2022-09-19 17:11:09.771
197.0, -13506.019235374837, -26733.379272625363, -33522.520485224784, -16028.078320989409, -11979.551551288552, 187500.0, -46160.934407822424, -10854.38708715285, 0.6, -0.6980000000000001, 0.432, 192.0, 0.0, 0.0, 0.0, 0.0, 0.0, 0.0, 0.0, 0.0, 0.0, 1.6635894697740726E9, 0.0, 2022-09-19 17:11:09.774
198.0, -13496.363281770145, -26730.406490612804, -33529.650691706025, -16040.640001373293, -11974.522408786108, 187500.0, -46165.0471288022, -10869.34040419345, 0.6, -0.6980000000000001, 0.432, 192.0, 0.0, 0.0, 0.0, 0.0, 0.0, 0.0, 0.0, 0.0, 0.0, 1.6635894697780268E9, 0.0, 2022-09-19 17:11:09.778
199.0, -13516.010465146359, -26755.306333936016, -33531.50588649582, -16044.730370608613, -11989.27456012661, 187500.0, -46175.21717252937, -10858.00806975461, 0.6, -0.6980000000000001, 0.432, 192.0, 0.0, 0.0, 0.0, 0.0, 0.0, 0.0, 0.0, 0.0, 0.0, 1.6635894697830565E9, 0.0, 2022-09-19 17:11:09.783
200.0, -13555.30483189879, -26770.997258543644, -33518.96655785639, -16036.750797838069, -11992.694377028272, 187500.0, -46164.75655612428, -10859.10330523292, 0.602, -0.706, 0.43, 192.0, 18.0, 208.0, 233.0, 240.0, 13.0, 112.0, 0.0, 0.0, 0.0, 1.6635894697870147E9, 0.0, 2022-09-19 17:11:09.787
201.0, -13574.750849574906, -26755.641610102848, -33517.91602586699, -16030.581716368404, -11988.827525237504, 187500.0, -46156.32994846463, -10862.724287834679, 0.602, -0.706, 0.43, 192.0, 0.0, 0.0, 0.0, 0.0, 0.0, 0.0, 0.0, 0.0, 0.0, 1.6635894697910588E9, 0.0, 2022-09-19 17:11:09.791
202.0, -13580.517599644376, -26744.845717530934, -33528.30958703871, -16037.89073680529, -11996.672987541317, 187500.0, -46161.33673922262, -10866.121752991887, 0.602, -0.706, 0.43, 192.0, 0.0, 0.0, 0.0, 0.0, 0.0, 0.0, 0.0, 0.0, 0.0, 1.6635894697940352E9, 0.0, 2022-09-19 17:11:09.794
203.0, -13575.533160630843, -26741.49295586264, -33534.67983420847, -16049.491292177594, -12002.082109699502, 187500.0, -46166.05295730269, -10874.548360651537, 0.602, -0.706, 0.43, 192.0, 0.0, 0.0, 0.0, 0.0, 0.0, 0.0, 0.0, 0.0, 0.0, 1.663589469798058E9, 0.0, 2022-09-19 17:11:09.798
204.0, -13596.141469018636, -26754.43461590226, -33529.3154155392, -16049.60305089987, -12009.52524060312, 187500.0, -46172.71377715037, -10884.003148556132, 0.602, -0.706, 0.43, 192.0, 0.0, 0.0, 0.0, 0.0, 0.0, 0.0, 0.0, 0.0, 0.0, 1.6635894698021836E9, 0.0, 2022-09-19 17:11:09.802
205.0, -13638.050989872336, -26770.05848527652, -33524.66625269249, -16042.092864762888, -12015.336694161499, 187500.0, -46172.646721917, -10883.086727033464, 0.602, -0.706, 0.43, 192.0, 0.0, 0.0, 0.0, 0.0, 0.0, 0.0, 0.0, 0.0, 0.0, 1.6635894698060515E9, 0.0, 2022-09-19 17:11:09.806
206.0, -13661.98970818397, -26764.694066607248, -33522.654595691514, -16037.533108894004, -12015.493156372686, 187500.0, -46163.66132064597, -10877.878770575378, 0.602, -0.706, 0.43, 192.0, 0.0, 0.0, 0.0, 0.0, 0.0, 0.0, 0.0, 0.0, 0.0, 1.663589469811077E9, 0.0, 2022-09-19 17:11:09.811
207.0, -13669.455190832043, -26757.92148803729, -33526.02970910427, -16036.571983882426, -12013.794423794083, 187500.0, -46163.035471801224, -10869.988604782655, 0.602, -0.706, 0.43, 192.0, 0.0, 0.0, 0.0, 0.0, 0.0, 0.0, 0.0, 0.0, 0.0, 1.6635894698151116E9, 0.0, 2022-09-19 17:11:09.815
208.0, -13661.587376783775, -26754.18874671325, -33526.47674399337, -16042.271678718529, -12001.143336432378, 187500.0, -46160.867352589055, -10867.507561148115, 0.602, -0.706, 0.43, 192.0, 0.0, 0.0, 0.0, 0.0, 0.0, 0.0, 0.0, 0.0, 0.0, 1.6635894698191478E9, 0.0, 2022-09-19 17:11:09.819
209.0, -13678.686461292084, -26768.359752697917, -33525.13563932606, -16042.472844418628, -12009.18996443629, 187500.0, -46168.489297448315, -10881.030366543577, 0.602, -0.706, 0.43, 192.0, 0.0, 0.0, 0.0, 0.0, 0.0, 0.0, 0.0, 0.0, 0.0, 1.6635894698221493E9, 0.0, 2022-09-19 17:11:09.822
210.0, -13721.19947924608, -26779.893252836857, -33507.54481643973, -16025.97725701061, -12009.391130136388, 187500.0, -46161.202628755884, -10859.416229655293, 0.61, -0.706, 0.43, 192.0, 19.0, 16.0, 233.0, 240.0, 13.0, 112.0, 0.0, 0.0, 0.0, 1.6635894698261347E9, 0.0, 2022-09-19 17:11:09.826
211.0, -13746.591060947307, -26774.864110334413, -33506.49428445033, -16029.486480890095, -12008.854688269459, 187500.0, -46153.178352496434, -10861.807866312012, 0.61, -0.706, 0.43, 192.0, 0.0, 0.0, 0.0, 0.0, 0.0, 0.0, 0.0, 0.0, 0.0, 1.6635894698301256E9, 0.0, 2022-09-19 17:11:09.830
212.0, -13749.317973770854, -26762.6153543729, -33514.272691520775, -16033.17451872522, -12002.059757955047, 187500.0, -46154.0947740191, -10862.85839830141, 0.61, -0.706, 0.43, 192.0, 0.0, 0.0, 0.0, 0.0, 0.0, 0.0, 0.0, 0.0, 0.0, 1.6635894698340957E9, 0.0, 2022-09-19 17:11:09.834
213.0, -13738.879709110226, -26755.06046474701, -33518.25130203382, -16036.571983882426, -11993.722557273217, 187500.0, -46155.27941647523, -10862.724287834679, 0.61, -0.706, 0.43, 192.0, 0.0, 0.0, 0.0, 0.0, 0.0, 0.0, 0.0, 0.0, 0.0, 1.6635894698391228E9, 0.0, 2022-09-19 17:11:09.839
214.0, -13766.171189090157, -26777.81454060251, -33521.604063702114, -16040.282373462007, -12002.976179477713, 187500.0, -46166.0976607916, -10880.53862816556, 0.61, -0.706, 0.43, 192.0, 0.0, 0.0, 0.0, 0.0, 0.0, 0.0, 0.0, 0.0, 0.0, 1.6635894698431528E9, 0.0, 2022-09-19 17:11:09.843
215.0, -13814.518012346985, -26791.896139609355, -33514.138581054045, -16030.045274501477, -12006.172478934823, 187500.0, -46162.051995045185, -10887.668834646802, 0.61, -0.706, 0.43, 192.0, 0.0, 0.0, 0.0, 0.0, 0.0, 0.0, 0.0, 0.0, 0.0, 1.6635894698472812E9, 0.0, 2022-09-19 17:11:09.847
216.0, -13842.524748149484, -26787.15756978483, -33510.67406066347, -16028.972390767622, -12001.031577710102, 187500.0, -46153.670090874446, -10887.11004103542, 0.61, -0.706, 0.43, 192.0, 0.0, 0.0, 0.0, 0.0, 0.0, 0.0, 0.0, 0.0, 0.0, 1.6635894698501804E9, 0.0, 2022-09-19 17:11:09.850
217.0, -13849.766713353005, -26780.67556389279, -33506.784857128245, -16021.752777308559, -11992.627321794907, 187500.0, -46147.925692549434, -10880.53862816556, 0.61, -0.706, 0.43, 192.0, 0.0, 0.0, 0.0, 0.0, 0.0, 0.0, 0.0, 0.0, 0.0, 1.66358946985425E9, 0.0, 2022-09-19 17:11:09.854
218.0, -13845.721047606594, -26779.423866203295, -33506.53898793924, -16020.814004041435, -11983.37369959041, 187500.0, -46146.606939626574, -10886.372433468394, 0.61, -0.706, 0.43, 192.0, 0.0, 0.0, 0.0, 0.0, 0.0, 0.0, 0.0, 0.0, 0.0, 1.6635894698581545E9, 0.0, 2022-09-19 17:11:09.858
219.0, -13882.355556768842, -26802.69203218127, -33505.42140071648, -16024.010303498544, -11996.13654567439, 187500.0, -46151.39021294001, -10903.315055765517, 0.61, -0.706, 0.43, 192.0, 0.0, 0.0, 0.0, 0.0, 0.0, 0.0, 0.0, 0.0, 0.0, 1.6635894698621526E9, 0.0, 2022-09-19 17:11:09.862
220.0, -13949.1425692013, -26823.792078947077, -33502.26980474828, -16018.556477851449, -12007.290066157588, 187500.0, -46156.821686842646, -10885.657177645824, 0.608, -0.7020000000000001, 0.434, 192.0, 19.0, 0.0, 234.0, 16.0, 13.0, 144.0, 0.0, 0.0, 0.0, 1.6635894698662248E9, 0.0, 2022-09-19 17:11:09.866
221.0, -13997.064709313478, -26821.892180668376, -33499.74405762483, -16019.629361585303, -12005.747795790172, 187500.0, -46151.72548910684, -10893.39088122736, 0.608, -0.7020000000000001, 0.434, 192.0, 0.0, 0.0, 0.0, 0.0, 0.0, 0.0, 0.0, 0.0, 0.0, 1.6635894698711493E9, 0.0, 2022-09-19 17:11:09.871
222.0, -14025.317314304986, -26806.961215372234, -33496.41364770099, -16016.567172594927, -12004.719615545227, 187500.0, -46142.56127388016, -10896.67658766229, 0.608, -0.7020000000000001, 0.434, 192.0, 0.0, 0.0, 0.0, 0.0, 0.0, 0.0, 0.0, 0.0, 0.0, 1.663589469875208E9, 0.0, 2022-09-19 17:11:09.875
223.0, -14039.220099356187, -26794.846569877456, -33497.57593841266, -16012.83443127089, -11999.645769553874, 187500.0, -46138.87323604504, -10889.076994547486, 0.608, -0.7020000000000001, 0.434, 192.0, 0.0, 0.0, 0.0, 0.0, 0.0, 0.0, 0.0, 0.0, 0.0, 1.6635894698782048E9, 0.0, 2022-09-19 17:11:09.878
224.0, -14089.399765658352, -26811.34215728547, -33492.50209242131, -16013.035596970987, -12010.396958636877, 187500.0, -46138.44855290039, -10907.606590700936, 0.608, -0.7020000000000001, 0.434, 192.0, 0.0, 0.0, 0.0, 0.0, 0.0, 0.0, 0.0, 0.0, 0.0, 1.6635894698821876E9, 0.0, 2022-09-19 17:11:09.882
225.0, -14168.010850907667, -26831.70459648426, -33490.31162146469, -16012.208582426141, -12019.292952930087, 187500.0, -46141.778962824224, -10922.78342518609, 0.608, -0.7020000000000001, 0.434, 192.0, 0.0, 0.0, 0.0, 0.0, 0.0, 0.0, 0.0, 0.0, 0.0, 1.6635894698861537E9, 0.0, 2022-09-19 17:11:09.886
226.0, -14225.655999857903, -26832.844535451477, -33495.13959826703, -16013.54968709346, -12018.577697107517, 187500.0, -46143.544750636196, -10921.934058896788, 0.608, -0.7020000000000001, 0.434, 192.0, 0.0, 0.0, 0.0, 0.0, 0.0, 0.0, 0.0, 0.0, 0.0, 1.663589469890299E9, 0.0, 2022-09-19 17:11:09.890
227.0, -14259.58594794106, -26828.01655864913, -33499.83346460265, -16023.831489542901, -12013.481499371708, 187500.0, -46139.677898845424, -10924.01277113113, 0.608, -0.7020000000000001, 0.434, 192.0, 0.0, 0.0, 0.0, 0.0, 0.0, 0.0, 0.0, 0.0, 0.0, 1.6635894698941767E9, 0.0, 2022-09-19 17:11:09.894
228.0, -14273.175808569886, -26815.566636987525, -33497.86651109058, -16019.472899374117, -12010.195792936778, 187500.0, -46134.42523889843, -10915.273239049106, 0.608, -0.7020000000000001, 0.434, 192.0, 0.0, 0.0, 0.0, 0.0, 0.0, 0.0, 0.0, 0.0, 0.0, 1.663589469899203E9, 0.0, 2022-09-19 17:11:09.899
229.0, -14324.584820817092, -26828.105965626954, -33500.10168553611, -16017.17066969522, -12026.33375243351, 187500.0, -46145.0423175147, -10921.151747840851, 0.608, -0.7020000000000001, 0.434, 192.0, 0.0, 0.0, 0.0, 0.0, 0.0, 0.0, 0.0, 0.0, 0.0, 1.6635894699032357E9, 0.0, 2022-09-19 17:11:09.903
230.0, -14395.685719929425, -26839.997093677175, -33493.12794126606, -16018.757643551548, -12028.94890653478, 187500.0, -46144.3941169255, -10947.25858536465, 0.602, -0.706, 0.432, 192.0, 18.0, 208.0, 233.0, 240.0, 13.0, 128.0, 0.0, 0.0, 0.0, 1.66358946990625E9, 0.0, 2022-09-19 17:11:09.906
231.0, -14435.583583782147, -26830.609361005947, -33491.04922903171, -16015.494288861071, -12014.822604039027, 187500.0, -46140.90724479047, -10938.630812004902, 0.602, -0.706, 0.432, 192.0, 0.0, 0.0, 0.0, 0.0, 0.0, 0.0, 0.0, 0.0, 0.0, 1.6635894699102273E9, 0.0, 2022-09-19 17:11:09.910
232.0, -14451.989764212343, -26824.015596391633, -33500.839293103134, -16019.584658096393, -12007.1336039464, 187500.0, -46145.84698031509, -10912.658084947836, 0.602, -0.706, 0.432, 192.0, 0.0, 0.0, 0.0, 0.0, 0.0, 0.0, 0.0, 0.0, 0.0, 1.6635894699142854E9, 0.0, 2022-09-19 17:11:09.914
233.0, -14450.402790356016, -26818.181791088795, -33503.923833837966, -16025.440815143684, -11998.908161986848, 187500.0, -46144.21530296985, -10905.550230211047, 0.602, -0.706, 0.432, 192.0, 0.0, 0.0, 0.0, 0.0, 0.0, 0.0, 0.0, 0.0, 0.0, 1.663589469918226E9, 0.0, 2022-09-19 17:11:09.918
234.0, -14475.794372057246, -26826.250770837163, -33499.54289192473, -16019.092919718376, -11995.778917763106, 187500.0, -46146.875160560034, -10906.891334878366, 0.602, -0.706, 0.432, 192.0, 0.0, 0.0, 0.0, 0.0, 0.0, 0.0, 0.0, 0.0, 0.0, 1.663589469922196E9, 0.0, 2022-09-19 17:11:09.922
235.0, -14524.856451136644, -26839.32654134352, -33506.31547049469, -16024.50204187656, -12008.005321980158, 187500.0, -46155.9946722978, -10918.536593739582, 0.602, -0.706, 0.432, 192.0, 0.0, 0.0, 0.0, 0.0, 0.0, 0.0, 0.0, 0.0, 0.0, 1.6635894699272811E9, 0.0, 2022-09-19 17:11:09.927
236.0, -14548.057561881253, -26833.828012207512, -33512.88688336455, -16028.905335534257, -12010.866345270437, 187500.0, -46154.430050185925, -10919.788291429079, 0.602, -0.706, 0.432, 192.0, 0.0, 0.0, 0.0, 0.0, 0.0, 0.0, 0.0, 0.0, 0.0, 1.6635894699302347E9, 0.0, 2022-09-19 17:11:09.930
237.0, -14544.637744979591, -26814.538456742583, -33521.44760149093, -16034.26975420353, -12008.698226058272, 187500.0, -46154.87708507504, -10913.038064603576, 0.602, -0.706, 0.432, 192.0, 0.0, 0.0, 0.0, 0.0, 0.0, 0.0, 0.0, 0.0, 0.0, 1.6635894699343011E9, 0.0, 2022-09-19 17:11:09.934
238.0, -14531.807843662244, -26806.424773505303, -33530.20948531741, -16037.957792038655, -12006.105423701458, 187500.0, -46157.581646154125, -10896.49777370665, 0.602, -0.706, 0.432, 192.0, 0.0, 0.0, 0.0, 0.0, 0.0, 0.0, 0.0, 0.0, 0.0, 1.663589469938304E9, 0.0, 2022-09-19 17:11:09.938
239.0, -14550.806826449256, -26817.55594224405, -33528.48840099435, -16041.60112638487, -12011.648656326373, 187500.0, -46166.90232359199, -10903.940904610266, 0.602, -0.706, 0.432, 192.0, 0.0, 0.0, 0.0, 0.0, 0.0, 0.0, 0.0, 0.0, 0.0, 1.663589469942269E9, 0.0, 2022-09-19 17:11:09.942
240.0, -14583.619187309647, -26828.485945282693, -33523.05692709171, -16039.812986828447, -12011.514545859642, 187500.0, -46164.60009391309, -10902.711558665223, 0.61, -0.706, 0.432, 192.0, 19.0, 16.0, 233.0, 240.0, 13.0, 128.0, 0.0, 0.0, 0.0, 1.6635894699462504E9, 0.0, 2022-09-19 17:11:09.946
241.0, -14588.737736789912, -26822.160401601843, -33522.788706158244, -16038.069550760933, -11998.014092208636, 187500.0, -46158.967454310354, -10896.96716034021, 0.61, -0.706, 0.432, 192.0, 0.0, 0.0, 0.0, 0.0, 0.0, 0.0, 0.0, 0.0, 0.0, 1.6635894699502764E9, 0.0, 2022-09-19 17:11:09.950
242.0, -14575.12552441663, -26814.583160231494, -33522.90046488053, -16036.750797838069, -11991.174458405312, 187500.0, -46158.40866069897, -10889.68049164778, 0.61, -0.706, 0.432, 192.0, 0.0, 0.0, 0.0, 0.0, 0.0, 0.0, 0.0, 0.0, 0.0, 1.6635894699552972E9, 0.0, 2022-09-19 17:11:09.955
243.0, -14546.045904880275, -26805.418945004818, -33525.314453281695, -16033.040408258488, -11987.821696737015, 187500.0, -46160.75559386678, -10856.219930198185, 0.61, -0.706, 0.432, 192.0, 0.0, 0.0, 0.0, 0.0, 0.0, 0.0, 0.0, 0.0, 0.0, 1.6635894699582834E9, 0.0, 2022-09-19 17:11:09.958
244.0, -14547.007029891853, -26808.369375272916, -33517.37958400006, -16032.325152435918, -11993.163763661834, 187500.0, -46156.75463160928, -10865.093572746942, 0.61, -0.706, 0.432, 192.0, 0.0, 0.0, 0.0, 0.0, 0.0, 0.0, 0.0, 0.0, 0.0, 1.6635894699623115E9, 0.0, 2022-09-19 17:11:09.962
245.0, -14575.661966283556, -26821.713366712735, -33518.69833692293, -16031.051103001966, -11999.84693525397, 187500.0, -46160.174448510945, -10877.968177553199, 0.61, -0.706, 0.432, 192.0, 0.0, 0.0, 0.0, 0.0, 0.0, 0.0, 0.0, 0.0, 0.0, 1.6635894699663885E9, 0.0, 2022-09-19 17:11:09.966
246.0, -14577.763030262357, -26821.35573880145, -33522.56518871369, -16033.59920186987, -11995.331882874, 187500.0, -46160.50972467777, -10870.8156193275, 0.61, -0.706, 0.432, 192.0, 0.0, 0.0, 0.0, 0.0, 0.0, 0.0, 0.0, 0.0, 0.0, 1.6635894699703891E9, 0.0, 2022-09-19 17:11:09.970
247.0, -14556.439466051992, -26812.325634041506, -33525.40386025952, -16038.784806583502, -11986.771164747617, 187500.0, -46161.649663644996, -10866.367622180895, 0.61, -0.706, 0.432, 192.0, 0.0, 0.0, 0.0, 0.0, 0.0, 0.0, 0.0, 0.0, 0.0, 1.6635894699745574E9, 0.0, 2022-09-19 17:11:09.974
248.0, -14525.325837770206, -26805.84362814947, -33531.125906840076, -16046.071475275932, -11985.519467058119, 187500.0, -46166.16471602496, -10863.931282035266, 0.61, -0.706, 0.432, 192.0, 0.0, 0.0, 0.0, 0.0, 0.0, 0.0, 0.0, 0.0, 0.0, 1.6635894699784634E9, 0.0, 2022-09-19 17:11:09.978
249.0, -14528.96917211642, -26823.814430691535, -33528.98013937237, -16042.718713607635, -11991.621493294419, 187500.0, -46168.93633233742, -10863.551302379527, 0.61, -0.706, 0.432, 192.0, 0.0, 0.0, 0.0, 0.0, 0.0, 0.0, 0.0, 0.0, 0.0, 1.6635894699824564E9, 0.0, 2022-09-19 17:11:09.982
250.0, -14547.58817524769, -26835.862020952944, -33530.8129824177, -16038.65069611677, -11990.548609560563, 187500.0, -46170.56800968266, -10865.451200658226, 0.606, -0.7020000000000001, 0.432, 192.0, 18.0, 240.0, 234.0, 16.0, 13.0, 128.0, 0.0, 0.0, 0.0, 1.66358946998643E9, 0.0, 2022-09-19 17:11:09.986
251.0, -14544.749503701867, -26832.039872651087, -33534.25515106382, -16038.717751350136, -11981.965539689725, 187500.0, -46167.21524801436, -10866.38997392535, 0.606, -0.7020000000000001, 0.432, 192.0, 0.0, 0.0, 0.0, 0.0, 0.0, 0.0, 0.0, 0.0, 0.0, 1.6635894699894576E9, 0.0, 2022-09-19 17:11:09.989
252.0, -14521.190765045974, -26820.84164867898, -33540.625398233584, -16041.064684517944, -11978.478667554697, 187500.0, -46166.49999219179, -10861.807866312012, 0.606, -0.7020000000000001, 0.432, 192.0, 0.0, 0.0, 0.0, 0.0, 0.0, 0.0, 0.0, 0.0, 0.0, 1.663589469994392E9, 0.0, 2022-09-19 17:11:09.994
253.0, -14489.272473963794, -26817.041852121576, -33547.15210761453, -16044.55155665297, -11982.881961212393, 187500.0, -46170.76917538276, -10867.999299526133, 0.606, -0.7020000000000001, 0.432, 192.0, 0.0, 0.0, 0.0, 0.0, 0.0, 0.0, 0.0, 0.0, 0.0, 1.6635894699983633E9, 0.0, 2022-09-19 17:11:09.998
254.0, -14487.976072785386, -26830.005863905655, -33541.36300580061, -16035.40969317075, -11995.823621252015, 187500.0, -46171.12680329404, -10857.00224125412, 0.606, -0.7020000000000001, 0.432, 192.0, 0.0, 0.0, 0.0, 0.0, 0.0, 0.0, 0.0, 0.0, 0.0, 1.6635894700024164E9, 0.0, 2022-09-19 17:11:10.002
255.0, -14507.310331739227, -26846.70261701377, -33544.98398840237, -16034.739140837091, -12005.792499279083, 187500.0, -46177.27353301925, -10853.023630741076, 0.606, -0.7020000000000001, 0.432, 192.0, 0.0, 0.0, 0.0, 0.0, 0.0, 0.0, 0.0, 0.0, 0.0, 1.663589470006405E9, 0.0, 2022-09-19 17:11:10.006
0.0, -14502.102375281142, -26849.004846692664, -33549.521392526796, -16035.990838526588, -12001.456260854753, 187500.0, -46178.7487481533, -10855.839950542444, 0.606, -0.7020000000000001, 0.432, 192.0, 0.0, 0.0, 0.0, 0.0, 0.0, 0.0, 0.0, 0.0, 0.0, 1.6635894700113912E9, 0.0, 2022-09-19 17:11:10.011
1.0, -14466.38428764156, -26833.090404640487, -33546.88388668107, -16028.100672733864, -11988.04521418157, 187500.0, -46170.7468236383, -10842.250089913618, 0.606, -0.7020000000000001, 0.432, 192.0, 0.0, 0.0, 0.0, 0.0, 0.0, 0.0, 0.0, 0.0, 0.0, 1.6635894700143802E9, 0.0, 2022-09-19 17:11:10.014
2.0, -14419.467976029871, -26819.83582017849, -33544.760470957815, -16027.139547722287, -11983.977196690703, 187500.0, -46165.538867180214, -10832.14710141982, 0.606, -0.7020000000000001, 0.432, 192.0, 0.0, 0.0, 0.0, 0.0, 0.0, 0.0, 0.0, 0.0, 0.0, 1.663589470017398E9, 0.0, 2022-09-19 17:11:10.017
3.0, -14406.99570262381, -26829.424718549817, -33536.73619469836, -16025.46316688814, -11992.180286905801, 187500.0, -46162.99076831231, -10843.14415969183, 0.606, -0.7020000000000001, 0.432, 192.0, 0.0, 0.0, 0.0, 0.0, 0.0, 0.0, 0.0, 0.0, 0.0, 1.663589470022395E9, 0.0, 2022-09-19 17:11:10.022
4.0, -14407.845068913111, -26837.113718642442, -33529.7624504283, -16022.669198831225, -11989.006339193147, 187500.0, -46159.3474339661, -10851.235491184652, 0.606, -0.6980000000000001, 0.434, 192.0, 18.0, 240.0, 234.0, 48.0, 13.0, 144.0, 0.0, 0.0, 0.0, 1.6635894700264957E9, 0.0, 2022-09-19 17:11:10.026
5.0, -14384.040461068209, -26833.805660463055, -33536.24445632034, -16023.295047675974, -11976.869341953916, 187500.0, -46165.337701480115, -10842.652421313813, 0.606, -0.6980000000000001, 0.434, 192.0, 0.0, 0.0, 0.0, 0.0, 0.0, 0.0, 0.0, 0.0, 0.0, 1.663589470030426E9, 0.0, 2022-09-19 17:11:10.030
6.0, -14340.186338446896, -26821.802773690557, -33537.94318889895, -16027.810100055945, -11966.855760437938, 187500.0, -46160.95675956688, -10836.95272647771, 0.606, -0.6980000000000001, 0.434, 192.0, 0.0, 0.0, 0.0, 0.0, 0.0, 0.0, 0.0, 0.0, 0.0, 1.6635894700344625E9, 0.0, 2022-09-19 17:11:10.034
7.0, -14285.379861042484, -26819.433488778293, -33546.1686308585, -16042.003457785066, -11965.916987170815, 187500.0, -46168.24342825931, -10839.500825345616, 0.606, -0.6980000000000001, 0.434, 192.0, 0.0, 0.0, 0.0, 0.0, 0.0, 0.0, 0.0, 0.0, 0.0, 1.6635894700384233E9, 0.0, 2022-09-19 17:11:10.038
8.0, -14260.502369463728, -26837.046663409077, -33541.92179941199, -16044.395094441785, -11972.197827362756, 187500.0, -46172.15498353899, -10852.464837129693, 0.606, -0.6980000000000001, 0.434, 192.0, 0.0, 0.0, 0.0, 0.0, 0.0, 0.0, 0.0, 0.0, 0.0, 1.6635894700424123E9, 0.0, 2022-09-19 17:11:10.042
9.0, -14253.14864553793, -26844.869773968432, -33542.34648255664, -16036.169652482231, -11972.153123873846, 187500.0, -46172.24439051681, -10838.562052078492, 0.606, -0.6980000000000001, 0.434, 192.0, 0.0, 0.0, 0.0, 0.0, 0.0, 0.0, 0.0, 0.0, 0.0, 1.6635894700455744E9, 0.0, 2022-09-19 17:11:10.045
10.0, -14227.824119070068, -26838.812451221045, -33543.30760756822, -16038.851861816867, -11970.387336061876, 187500.0, -46168.33283523713, -10834.00229620961, 0.606, -0.6980000000000001, 0.434, 192.0, 0.0, 0.0, 0.0, 0.0, 0.0, 0.0, 0.0, 0.0, 0.0, 1.6635894700504684E9, 0.0, 2022-09-19 17:11:10.050
11.0, -14183.835885982024, -26833.93977092979, -33555.2210873629, -16041.042332773488, -11971.37081281791, 187500.0, -46172.31144575017, -10824.301639116007, 0.606, -0.6980000000000001, 0.434, 192.0, 0.0, 0.0, 0.0, 0.0, 0.0, 0.0, 0.0, 0.0, 0.0, 1.6635894700544689E9, 0.0, 2022-09-19 17:11:10.054
12.0, -14125.520184698127, -26831.50343078416, -33562.999494433345, -16044.618611886337, -11972.533103529586, 187500.0, -46178.838155131125, -10820.837118725434, 0.606, -0.6980000000000001, 0.434, 192.0, 0.0, 0.0, 0.0, 0.0, 0.0, 0.0, 0.0, 0.0, 0.0, 1.663589470058438E9, 0.0, 2022-09-19 17:11:10.058
13.0, -14104.509544910139, -26845.294457113083, -33558.663256009015, -16046.69732412068, -11984.826562980004, 187500.0, -46178.01114058628, -10828.324953117963, 0.606, -0.6980000000000001, 0.434, 192.0, 0.0, 0.0, 0.0, 0.0, 0.0, 0.0, 0.0, 0.0, 0.0, 1.6635894700625093E9, 0.0, 2022-09-19 17:11:10.062
14.0, -14102.430832675796, -26859.331352631016, -33555.82458446319, -16044.573908397426, -11985.94415020277, 187500.0, -46177.74291965281, -10829.24137464063, 0.604, -0.708, 0.436, 192.0, 18.0, 224.0, 233.0, 224.0, 13.0, 160.0, 0.0, 0.0, 0.0, 1.6635894700665092E9, 0.0, 2022-09-19 17:11:10.066
15.0, -14082.40366964384, -26860.0913119425, -33561.30076185474, -16046.719675865135, -11993.409632850842, 187500.0, -46180.022797587255, -10824.748674005114, 0.604, -0.708, 0.436, 192.0, 0.0, 0.0, 0.0, 0.0, 0.0, 0.0, 0.0, 0.0, 0.0, 1.6635894700704825E9, 0.0, 2022-09-19 17:11:10.070
16.0, -14039.68948598975, -26847.55198330307, -33566.441663079466, -16052.352315467873, -11994.415461351331, 187500.0, -46182.43678598843, -10824.413397838283, 0.604, -0.708, 0.436, 192.0, 0.0, 0.0, 0.0, 0.0, 0.0, 0.0, 0.0, 0.0, 0.0, 1.663589470073472E9, 0.0, 2022-09-19 17:11:10.073
17.0, -13985.285339985532, -26842.433433822804, -33563.848860722646, -16055.682725391714, -11979.685661755284, 187500.0, -46183.57672495565, -10834.203461909707, 0.604, -0.708, 0.436, 192.0, 0.0, 0.0, 0.0, 0.0, 0.0, 0.0, 0.0, 0.0, 0.0, 1.6635894700785148E9, 0.0, 2022-09-19 17:11:10.078
18.0, -13976.925787559247, -26866.327448645527, -33559.62438102059, -16053.9392893242, -11981.585560033986, 187500.0, -46186.34834126811, -10837.243299155629, 0.604, -0.708, 0.436, 192.0, 0.0, 0.0, 0.0, 0.0, 0.0, 0.0, 0.0, 0.0, 0.0, 1.663589470082597E9, 0.0, 2022-09-19 17:11:10.082
19.0, -13981.10556377239, -26875.804588294577, -33559.0208839203, -16049.535995666505, -11978.679833254795, 187500.0, -46182.30267552169, -10833.085874686942, 0.604, -0.708, 0.436, 192.0, 0.0, 0.0, 0.0, 0.0, 0.0, 0.0, 0.0, 0.0, 0.0, 1.6635894700864866E9, 0.0, 2022-09-19 17:11:10.086
20.0, -13964.945252531203, -26865.433378867314, -33561.658389766024, -16046.384399698307, -11972.108420384935, 187500.0, -46179.21813478686, -10833.823482253967, 0.604, -0.708, 0.436, 192.0, 0.0, 0.0, 0.0, 0.0, 0.0, 0.0, 0.0, 0.0, 0.0, 1.66358947009055E9, 0.0, 2022-09-19 17:11:10.090
21.0, -13930.188289903199, -26851.731759516213, -33561.27841011029, -16041.109388006853, -11969.60502500594, 187500.0, -46175.395986485004, -10822.692313515225, 0.604, -0.708, 0.436, 192.0, 0.0, 0.0, 0.0, 0.0, 0.0, 0.0, 0.0, 0.0, 0.0, 1.6635894700935326E9, 0.0, 2022-09-19 17:11:10.093
22.0, -13888.345824282864, -26845.093291412984, -33562.798328733246, -16042.003457785066, -11969.493266283664, 187500.0, -46178.52523070875, -10819.965400691677, 0.604, -0.708, 0.436, 192.0, 0.0, 0.0, 0.0, 0.0, 0.0, 0.0, 0.0, 0.0, 0.0, 1.6635894700976307E9, 0.0, 2022-09-19 17:11:10.097
23.0, -13881.50619047954, -26860.65010555388, -33548.962598915416, -16039.544765894982, -11976.243493109167, 187500.0, -46175.127765551544, -10829.464892085183, 0.604, -0.708, 0.436, 192.0, 0.0, 0.0, 0.0, 0.0, 0.0, 0.0, 0.0, 0.0, 0.0, 1.6635894701015751E9, 0.0, 2022-09-19 17:11:10.101
24.0, -13891.005681873046, -26876.162216205863, -33542.815869190206, -16039.701228106169, -11982.904312956849, 187500.0, -46168.33283523713, -10845.66990681528, 0.604, -0.708, 0.436, 192.0, 0.0, 0.0, 0.0, 0.0, 0.0, 0.0, 0.0, 0.0, 0.0, 1.663589470105606E9, 0.0, 2022-09-19 17:11:10.105
25.0, -13877.50522822204, -26871.535405103616, -33542.92762791248, -16038.27071646103, -11982.747850745662, 187500.0, -46161.85082934509, -10841.244261413129, 0.608, -0.71, 0.432, 192.0, 19.0, 0.0, 233.0, 208.0, 13.0, 128.0, 0.0, 0.0, 0.0, 1.6635894701105652E9, 0.0, 2022-09-19 17:11:10.110
26.0, -13838.45673065862, -26861.231250909717, -33547.30856982572, -16037.846033316378, -11976.198789620255, 187500.0, -46157.6934048764, -10826.447406583717, 0.608, -0.71, 0.432, 192.0, 0.0, 0.0, 0.0, 0.0, 0.0, 0.0, 0.0, 0.0, 0.0, 1.6635894701145816E9, 0.0, 2022-09-19 17:11:10.114
27.0, -13795.16140164869, -26856.336218874007, -33551.35423557213, -16045.065646775443, -11975.572940775508, 187500.0, -46161.18027701143, -10834.225813654162, 0.608, -0.71, 0.432, 192.0, 0.0, 0.0, 0.0, 0.0, 0.0, 0.0, 0.0, 0.0, 0.0, 1.663589470118631E9, 0.0, 2022-09-19 17:11:10.118
28.0, -13787.405346322697, -26870.149596947387, -33553.47765129538, -16044.730370608613, -11990.727423516206, 187500.0, -46171.30561724969, -10855.258805186606, 0.608, -0.71, 0.432, 192.0, 0.0, 0.0, 0.0, 0.0, 0.0, 0.0, 0.0, 0.0, 0.0, 1.6635894701215951E9, 0.0, 2022-09-19 17:11:10.121
29.0, -13791.562770791385, -26879.13499821842, -33550.68368323847, -16028.435948900695, -11996.427118352309, 187500.0, -46171.7973556277, -10826.782682750545, 0.608, -0.71, 0.432, 192.0, 0.0, 0.0, 0.0, 0.0, 0.0, 0.0, 0.0, 0.0, 0.0, 1.6635894701256614E9, 0.0, 2022-09-19 17:11:10.125
30.0, -13770.775648447949, -26873.100027215485, -33552.672988495, -16033.085111747398, -11988.402842092853, 187500.0, -46168.89162884851, -10827.8555664844, 0.608, -0.71, 0.432, 192.0, 0.0, 0.0, 0.0, 0.0, 0.0, 0.0, 0.0, 0.0, 0.0, 1.6635894701295784E9, 0.0, 2022-09-19 17:11:10.129
31.0, -13730.318990983844, -26862.75116953268, -33554.63994200706, -16031.587544868893, -11980.51267630013, 187500.0, -46165.58357066913, -10823.228755382152, 0.608, -0.71, 0.432, 192.0, 0.0, 0.0, 0.0, 0.0, 0.0, 0.0, 0.0, 0.0, 0.0, 1.6635894701336358E9, 0.0, 2022-09-19 17:11:10.133
32.0, -13685.66020556214, -26854.346913617483, -33550.92955242748, -16032.191041969187, -11979.015109421625, 187500.0, -46163.862486346065, -10814.779795978046, 0.608, -0.71, 0.432, 192.0, 0.0, 0.0, 0.0, 0.0, 0.0, 0.0, 0.0, 0.0, 0.0, 1.663589470138705E9, 0.0, 2022-09-19 17:11:10.138
33.0, -13685.839019517784, -26876.095160972498, -33552.851802450634, -16033.621553614326, -11992.716728772728, 187500.0, -46174.144288795505, -10827.274421128563, 0.608, -0.71, 0.432, 192.0, 0.0, 0.0, 0.0, 0.0, 0.0, 0.0, 0.0, 0.0, 0.0, 1.6635894701426797E9, 0.0, 2022-09-19 17:11:10.142
34.0, -13697.976016757015, -26889.90853904588, -33551.890677439056, -16033.867422803334, -11994.974254962714, 187500.0, -46171.909114349975, -10838.33853463394, 0.608, -0.71, 0.432, 192.0, 0.0, 0.0, 0.0, 0.0, 0.0, 0.0, 0.0, 0.0, 0.0, 1.6635894701467028E9, 0.0, 2022-09-19 17:11:10.146
35.0, -13681.122801437712, -26884.544120376602, -33548.62732274858, -16036.057893759955, -11980.713842000228, 187500.0, -46161.202628755884, -10840.372543379372, 0.608, -0.704, 0.432, 192.0, 19.0, 0.0, 234.0, 0.0, 13.0, 128.0, 0.0, 0.0, 0.0, 1.6635894701496832E9, 0.0, 2022-09-19 17:11:10.149
36.0, -13643.102484119236, -26870.820149281044, -33555.243439107355, -16037.957792038655, -11970.521446528608, 187500.0, -46158.699233376894, -10829.57665080746, 0.608, -0.704, 0.432, 192.0, 0.0, 0.0, 0.0, 0.0, 0.0, 0.0, 0.0, 0.0, 0.0, 1.6635894701536217E9, 0.0, 2022-09-19 17:11:10.153
37.0, -13602.98110282196, -26865.20986142276, -33559.579677531685, -16036.348466437874, -11971.303757584545, 187500.0, -46164.488335190814, -10815.38329307834, 0.608, -0.704, 0.432, 192.0, 0.0, 0.0, 0.0, 0.0, 0.0, 0.0, 0.0, 0.0, 0.0, 1.6635894701576998E9, 0.0, 2022-09-19 17:11:10.157
38.0, -13603.361082477699, -26873.21178593776, -33550.907200683025, -16028.0336175005, -11977.271673354111, 187500.0, -46169.71864339336, -10821.686485014736, 0.608, -0.704, 0.432, 192.0, 0.0, 0.0, 0.0, 0.0, 0.0, 0.0, 0.0, 0.0, 0.0, 1.6635894701616333E9, 0.0, 2022-09-19 17:11:10.161
39.0, -13620.594277452741, -26883.381829664926, -33551.30953208322, -16033.532146636504, -11985.89944671386, 187500.0, -46173.65255041749, -10855.303508675517, 0.608, -0.704, 0.432, 192.0, 0.0, 0.0, 0.0, 0.0, 0.0, 0.0, 0.0, 0.0, 0.0, 1.6635894701657653E9, 0.0, 2022-09-19 17:11:10.165
40.0, -13614.581658194264, -26884.32060293205, -33553.94703792895, -16028.815928556434, -11985.318301358022, 187500.0, -46174.25604751779, -10840.260784657095, 0.608, -0.704, 0.432, 192.0, 0.0, 0.0, 0.0, 0.0, 0.0, 0.0, 0.0, 0.0, 0.0, 1.663589470170745E9, 0.0, 2022-09-19 17:11:10.170
41.0, -13579.69058509953, -26871.580108592527, -33549.00730240432, -16024.233820943096, -11976.690527998273, 187500.0, -46167.21524801436, -10815.42799656725, 0.608, -0.704, 0.432, 192.0, 0.0, 0.0, 0.0, 0.0, 0.0, 0.0, 0.0, 0.0, 0.0, 1.6635894701747344E9, 0.0, 2022-09-19 17:11:10.174
42.0, -13537.043456678803, -26862.594707321492, -33547.93441867047, -16023.429158142706, -11968.50978952763, 187500.0, -46164.1977625129, -10812.790490721523, 0.608, -0.704, 0.432, 192.0, 0.0, 0.0, 0.0, 0.0, 0.0, 0.0, 0.0, 0.0, 0.0, 1.6635894701776934E9, 0.0, 2022-09-19 17:11:10.177
43.0, -13537.803415990284, -26875.13403596092, -33545.43102329147, -16022.333922664397, -11978.232798365689, 187500.0, -46169.13749803752, -10828.906098473799, 0.608, -0.704, 0.432, 192.0, 0.0, 0.0, 0.0, 0.0, 0.0, 0.0, 0.0, 0.0, 0.0, 1.6635894701817577E9, 0.0, 2022-09-19 17:11:10.181
44.0, -13554.96955573196, -26892.7472105917, -33551.15306987203, -16028.301838433963, -11981.049118167057, 187500.0, -46176.29005626322, -10847.748619049624, 0.608, -0.704, 0.432, 192.0, 0.0, 0.0, 0.0, 0.0, 0.0, 0.0, 0.0, 0.0, 0.0, 1.6635894701857347E9, 0.0, 2022-09-19 17:11:10.185
45.0, -13550.20863416298, -26893.93185304783, -33552.4718227949, -16035.633210615304, -11976.89169369837, 187500.0, -46170.90328584949, -10856.62226159838, 0.598, -0.71, 0.432, 192.0, 18.0, 176.0, 233.0, 208.0, 13.0, 128.0, 0.0, 0.0, 0.0, 1.6635894701897044E9, 0.0, 2022-09-19 17:11:10.189
46.0, -13518.603267503175, -26882.197187208796, -33563.133604900075, -16044.976239797621, -11974.209484363733, 187500.0, -46173.67490216195, -10864.19950296873, 0.598, -0.71, 0.432, 192.0, 0.0, 0.0, 0.0, 0.0, 0.0, 0.0, 0.0, 0.0, 0.0, 1.6635894701937184E9, 0.0, 2022-09-19 17:11:10.193
47.0, -13482.86282811914, -26882.197187208796, -33564.0723781672, -16042.003457785066, -11969.85089419495, 187500.0, -46173.51843995076, -10848.016839983087, 0.598, -0.71, 0.432, 192.0, 0.0, 0.0, 0.0, 0.0, 0.0, 0.0, 0.0, 0.0, 0.0, 1.6635894701988268E9, 0.0, 2022-09-19 17:11:10.198
48.0, -13488.137839810592, -26899.631547883935, -33550.571924516196, -16027.899507033768, -11970.74496397316, 187500.0, -46165.87414334704, -10844.082932958954, 0.598, -0.71, 0.432, 192.0, 0.0, 0.0, 0.0, 0.0, 0.0, 0.0, 0.0, 0.0, 0.0, 1.6635894702027261E9, 0.0, 2022-09-19 17:11:10.202
49.0, -13497.190296314991, -26904.437172941827, -33546.74977621434, -16020.523431363516, -11973.807152963538, 187500.0, -46163.66132064597, -10849.402648139316, 0.598, -0.71, 0.432, 192.0, 0.0, 0.0, 0.0, 0.0, 0.0, 0.0, 0.0, 0.0, 0.0, 1.6635894702057853E9, 0.0, 2022-09-19 17:11:10.205
50.0, -13483.779249641806, -26899.31862346156, -33552.36006407262, -16024.45733838765, -11975.818809964516, 187500.0, -46161.09087003361, -10858.522159877082, 0.598, -0.71, 0.432, 192.0, 0.0, 0.0, 0.0, 0.0, 0.0, 0.0, 0.0, 0.0, 0.0, 1.6635894702097461E9, 0.0, 2022-09-19 17:11:10.209
51.0, -13449.84930155865, -26890.400277423894, -33561.30076185474, -16029.419425656728, -11973.360118074432, 187500.0, -46161.09087003361, -10833.28704038704, 0.598, -0.71, 0.432, 192.0, 0.0, 0.0, 0.0, 0.0, 0.0, 0.0, 0.0, 0.0, 0.0, 1.6635894702138083E9, 0.0, 2022-09-19 17:11:10.213
52.0, -13415.539373819754, -26889.46150415677, -33561.14429964356, -16036.750797838069, -11979.439792566276, 187500.0, -46166.49999219179, -10835.76808402158, 0.598, -0.71, 0.432, 192.0, 0.0, 0.0, 0.0, 0.0, 0.0, 0.0, 0.0, 0.0, 0.0, 1.6635894702178016E9, 0.0, 2022-09-19 17:11:10.217
53.0, -13423.27307740129, -26905.778277609144, -33551.28718033876, -16032.816890813934, -11987.106440914446, 187500.0, -46167.88580034802, -10857.471627887682, 0.598, -0.71, 0.432, 192.0, 0.0, 0.0, 0.0, 0.0, 0.0, 0.0, 0.0, 0.0, 0.0, 1.6635894702218544E9, 0.0, 2022-09-19 17:11:10.221
54.0, -13434.828929284684, -26910.762716622678, -33550.773090216295, -16031.811062313445, -11988.84987698196, 187500.0, -46163.75072762379, -10862.210197712207, 0.598, -0.71, 0.432, 192.0, 0.0, 0.0, 0.0, 0.0, 0.0, 0.0, 0.0, 0.0, 0.0, 1.663589470226802E9, 0.0, 2022-09-19 17:11:10.226
55.0, -13421.306123889224, -26904.772449108656, -33545.60983724712, -16028.74887332307, -11983.284292612589, 187500.0, -46153.804201341176, -10847.279232416062, 0.604, -0.71, 0.43, 192.0, 18.0, 224.0, 233.0, 208.0, 13.0, 112.0, 0.0, 0.0, 0.0, 1.6635894702308648E9, 0.0, 2022-09-19 17:11:10.230
56.0, -13386.12447811657, -26892.881321058434, -33541.944151156444, -16025.597277354871, -11974.857684952938, 187500.0, -46150.160866994964, -10833.37644736486, 0.604, -0.71, 0.43, 192.0, 0.0, 0.0, 0.0, 0.0, 0.0, 0.0, 0.0, 0.0, 0.0, 1.663589470233845E9, 0.0, 2022-09-19 17:11:10.233
57.0, -13355.882567868539, -26897.84340832751, -33548.7167297264, -16032.481614647106, -11982.65844376784, 187500.0, -46159.190971754906, -10839.903156745811, 0.604, -0.71, 0.43, 192.0, 0.0, 0.0, 0.0, 0.0, 0.0, 0.0, 0.0, 0.0, 0.0, 1.66358947023796E9, 0.0, 2022-09-19 17:11:10.237
58.0, -13361.6046144491, -26918.8540481155, -33548.82848844868, -16038.404826927761, -11991.532086316596, 187500.0, -46164.62244565755, -10858.656270343814, 0.604, -0.71, 0.43, 192.0, 0.0, 0.0, 0.0, 0.0, 0.0, 0.0, 0.0, 0.0, 0.0, 1.6635894702417872E9, 0.0, 2022-09-19 17:11:10.241
59.0, -13364.420934250467, -26920.37396673846, -33546.74977621434, -16035.677914104213, -11993.700205528761, 187500.0, -46163.32604447914, -10872.20142748373, 0.604, -0.71, 0.43, 192.0, 0.0, 0.0, 0.0, 0.0, 0.0, 0.0, 0.0, 0.0, 0.0, 1.6635894702458632E9, 0.0, 2022-09-19 17:11:10.245
60.0, -13340.951602572395, -26907.56641716557, -33542.793517445745, -16031.207565213153, -11989.56513280453, 187500.0, -46155.10060251959, -10876.828238585978, 0.604, -0.71, 0.43, 192.0, 0.0, 0.0, 0.0, 0.0, 0.0, 0.0, 0.0, 0.0, 0.0, 1.663589470249833E9, 0.0, 2022-09-19 17:11:10.249
61.0, -13296.359872384057, -26897.150504249395, -33548.64967449304, -16030.201736712665, -11985.318301358022, 187500.0, -46154.96649205285, -10844.306450403506, 0.604, -0.71, 0.43, 192.0, 0.0, 0.0, 0.0, 0.0, 0.0, 0.0, 0.0, 0.0, 0.0, 1.66358947025485E9, 0.0, 2022-09-19 17:11:10.254
62.0, -13250.941127650873, -26895.317661204062, -33554.08114839568, -16031.654600102258, -11984.670100768817, 187500.0, -46158.27455023224, -10832.035342697543, 0.604, -0.71, 0.43, 192.0, 0.0, 0.0, 0.0, 0.0, 0.0, 0.0, 0.0, 0.0, 0.0, 1.663589470257841E9, 0.0, 2022-09-19 17:11:10.257
63.0, -13248.415380527424, -26911.165048022875, -33557.59037227516, -16031.766358824536, -11995.04131019608, 187500.0, -46163.1472305235, -10847.346287649429, 0.604, -0.71, 0.43, 192.0, 0.0, 0.0, 0.0, 0.0, 0.0, 0.0, 0.0, 0.0, 0.0, 1.663589470261872E9, 0.0, 2022-09-19 17:11:10.261
64.0, -13247.52131074921, -26913.176705023852, -33550.12488962709, -16027.810100055945, -11995.08601368499, 187500.0, -46154.07242227464, -10847.659212071803, 0.604, -0.71, 0.43, 192.0, 0.0, 0.0, 0.0, 0.0, 0.0, 0.0, 0.0, 0.0, 0.0, 1.6635894702658567E9, 0.0, 2022-09-19 17:11:10.265
65.0, -13222.75557789273, -26899.028050783643, -33550.05783439372, -16033.107463491853, -11989.788650249082, 187500.0, -46152.01606178476, -10853.71653481919, 0.598, -0.706, 0.432, 192.0, 18.0, 176.0, 233.0, 240.0, 13.0, 128.0, 0.0, 0.0, 0.0, 1.6635894702698276E9, 0.0, 2022-09-19 17:11:10.269
66.0, -13175.503990114212, -26885.661707599367, -33558.64090426456, -16035.901431548768, -11985.117135657923, 187500.0, -46155.03354728622, -10853.694183074735, 0.598, -0.706, 0.432, 192.0, 0.0, 0.0, 0.0, 0.0, 0.0, 0.0, 0.0, 0.0, 0.0, 1.66358947027401E9, 0.0, 2022-09-19 17:11:10.274
67.0, -13129.727617469744, -26889.41680066786, -33562.239535121866, -16036.192004226687, -11983.194885634766, 187500.0, -46160.62148340005, -10847.256880671606, 0.598, -0.706, 0.432, 192.0, 0.0, 0.0, 0.0, 0.0, 0.0, 0.0, 0.0, 0.0, 0.0, 1.663589470277904E9, 0.0, 2022-09-19 17:11:10.277
68.0, -13123.782053444631, -26910.583902667036, -33551.68951173896, -16036.415521671239, -11988.492249070674, 187500.0, -46164.60009391309, -10852.375430151873, 0.598, -0.706, 0.432, 192.0, 0.0, 0.0, 0.0, 0.0, 0.0, 0.0, 0.0, 0.0, 0.0, 1.6635894702829514E9, 0.0, 2022-09-19 17:11:10.282
69.0, -13108.158184070371, -26909.62277765546, -33534.411613275006, -16025.284352932496, -11984.804211235549, 187500.0, -46152.261930973764, -10844.887595759345, 0.598, -0.706, 0.432, 192.0, 0.0, 0.0, 0.0, 0.0, 0.0, 0.0, 0.0, 0.0, 0.0, 1.6635894702858558E9, 0.0, 2022-09-19 17:11:10.285
70.0, -13073.334166209002, -26898.983347294732, -33538.41257553251, -16027.184251211198, -11985.787687991582, 187500.0, -46150.250273972786, -10847.212177182697, 0.598, -0.706, 0.432, 192.0, 0.0, 0.0, 0.0, 0.0, 0.0, 0.0, 0.0, 0.0, 0.0, 1.6635894702889397E9, 0.0, 2022-09-19 17:11:10.288
71.0, -13019.935848705274, -26888.27686170064, -33548.56026751522, -16035.74496933758, -11992.627321794907, 187500.0, -46155.815858342154, -10855.929357520266, 0.598, -0.706, 0.432, 192.0, 0.0, 0.0, 0.0, 0.0, 0.0, 0.0, 0.0, 0.0, 0.0, 1.6635894702939637E9, 0.0, 2022-09-19 17:11:10.293
72.0, -12969.689127169744, -26890.735553590723, -33554.50583154033, -16028.0336175005, -11987.195847892268, 187500.0, -46157.916922320954, -10829.017857196077, 0.598, -0.706, 0.432, 192.0, 0.0, 0.0, 0.0, 0.0, 0.0, 0.0, 0.0, 0.0, 0.0, 1.6635894702978983E9, 0.0, 2022-09-19 17:11:10.297
73.0, -12963.721211400178, -26913.08729804603, -33547.82265994819, -16025.843146543879, -11984.200714135255, 187500.0, -46156.687576375916, -10839.232604412151, 0.598, -0.706, 0.432, 192.0, 0.0, 0.0, 0.0, 0.0, 0.0, 0.0, 0.0, 0.0, 0.0, 1.6635894703019242E9, 0.0, 2022-09-19 17:11:10.301
74.0, -12961.79896137702, -26922.542085950627, -33550.54957277174, -16027.40776865575, -11981.56320828953, 187500.0, -46160.68853863341, -10847.882729516356, 0.598, -0.706, 0.432, 192.0, 0.0, 0.0, 0.0, 0.0, 0.0, 0.0, 0.0, 0.0, 0.0, 1.6635894703059976E9, 0.0, 2022-09-19 17:11:10.305
75.0, -12940.22952797765, -26918.18349578184, -33554.684645495974, -16030.715826835136, -11977.584597776486, 187500.0, -46159.101564777084, -10849.559110350503, 0.604, -0.704, 0.43, 192.0, 18.0, 224.0, 234.0, 0.0, 13.0, 112.0, 0.0, 0.0, 0.0, 1.6635894703109424E9, 0.0, 2022-09-19 17:11:10.310
76.0, -12903.75148102659, -26909.354556721995, -33560.58550603217, -16031.922821035723, -11971.46021979573, 187500.0, -46153.245407729795, -10846.943956249233, 0.604, -0.704, 0.43, 192.0, 0.0, 0.0, 0.0, 0.0, 0.0, 0.0, 0.0, 0.0, 0.0, 1.6635894703139966E9, 0.0, 2022-09-19 17:11:10.313
77.0, -12877.376422569327, -26911.52267593416, -33561.390168832564, -16033.576850125415, -11969.292100583567, 187500.0, -46157.35812870957, -10844.932299248256, 0.604, -0.704, 0.43, 192.0, 0.0, 0.0, 0.0, 0.0, 0.0, 0.0, 0.0, 0.0, 0.0, 1.6635894703169909E9, 0.0, 2022-09-19 17:11:10.316
78.0, -12892.530905310025, -26927.95120810881, -33554.63994200706, -16031.967524524633, -11977.003452420648, 187500.0, -46163.68367239043, -10861.092610489442, 0.604, -0.704, 0.43, 192.0, 0.0, 0.0, 0.0, 0.0, 0.0, 0.0, 0.0, 0.0, 0.0, 1.6635894703220139E9, 0.0, 2022-09-19 17:11:10.322
79.0, -12909.652341562789, -26937.18247856885, -33553.36589257311, -16028.234783200596, -11974.768277975116, 187500.0, -46159.63800664402, -10867.686375103758, 0.604, -0.704, 0.43, 192.0, 0.0, 0.0, 0.0, 0.0, 0.0, 0.0, 0.0, 0.0, 0.0, 1.6635894703259943E9, 0.0, 2022-09-19 17:11:10.325
80.0, -12903.863239748865, -26934.500269234213, -33555.422253063, -16030.581716368404, -11967.481609282686, 187500.0, -46158.45336418788, -10863.39484016834, 0.604, -0.704, 0.43, 192.0, 0.0, 0.0, 0.0, 0.0, 0.0, 0.0, 0.0, 0.0, 0.0, 1.6635894703300183E9, 0.0, 2022-09-19 17:11:10.330
81.0, -12875.07419289043, -26921.08922256103, -33553.50000303984, -16027.005437255555, -11960.217292334712, 187500.0, -46153.78184959672, -10849.961441750698, 0.604, -0.704, 0.43, 192.0, 0.0, 0.0, 0.0, 0.0, 0.0, 0.0, 0.0, 0.0, 0.0, 1.6635894703340025E9, 0.0, 2022-09-19 17:11:10.334
82.0, -12853.191835068685, -26917.915274848376, -33549.25317159333, -16023.160937209243, -11964.911158670326, 187500.0, -46149.08798326111, -10845.893424259833, 0.604, -0.704, 0.43, 192.0, 0.0, 0.0, 0.0, 0.0, 0.0, 0.0, 0.0, 0.0, 0.0, 1.6635894703379903E9, 0.0, 2022-09-19 17:11:10.337
83.0, -12871.87789343332, -26932.62272269997, -33541.20654358942, -16024.300876176463, -11976.779934976094, 187500.0, -46149.91499780596, -10874.034270529064, 0.604, -0.704, 0.43, 192.0, 0.0, 0.0, 0.0, 0.0, 0.0, 0.0, 0.0, 0.0, 0.0, 1.663589470341998E9, 0.0, 2022-09-19 17:11:10.341
84.0, -12891.16744889825, -26939.28354254765, -33537.94318889895, -16027.228954700107, -11979.350385588454, 187500.0, -46149.78088733922, -10890.708671892724, 0.604, -0.704, 0.43, 192.0, 0.0, 0.0, 0.0, 0.0, 0.0, 0.0, 0.0, 0.0, 0.0, 1.6635894703450549E9, 0.0, 2022-09-19 17:11:10.345
85.0, -12886.942969196198, -26933.829716900556, -33539.12783135508, -16025.150242465765, -11972.533103529586, 187500.0, -46148.1939134829, -10868.580444881969, 0.606, -0.704, 0.428, 192.0, 18.0, 240.0, 234.0, 0.0, 13.0, 96.0, 0.0, 0.0, 0.0, 1.6635894703490412E9, 0.0, 2022-09-19 17:11:10.349
86.0, -12862.154884595262, -26927.750042408712, -33547.82265994819, -16032.883946047301, -11971.884902940381, 187500.0, -46150.54084665071, -10872.894331561844, 0.606, -0.704, 0.428, 192.0, 0.0, 0.0, 0.0, 0.0, 0.0, 0.0, 0.0, 0.0, 0.0, 1.663589470354046E9, 0.0, 2022-09-19 17:11:10.354
87.0, -12845.614593698336, -26933.38268201145, -33543.911104668514, -16031.721655335625, -11980.08799315548, 187500.0, -46149.35620419457, -10876.291796719051, 0.606, -0.704, 0.428, 192.0, 0.0, 0.0, 0.0, 0.0, 0.0, 0.0, 0.0, 0.0, 0.0, 1.663589470358042E9, 0.0, 2022-09-19 17:11:10.358
88.0, -12864.010079385052, -26945.720844950778, -33534.92570339748, -16023.898544776268, -11989.60983629344, 187500.0, -46148.61859662755, -10880.426869443283, 0.606, -0.704, 0.428, 192.0, 0.0, 0.0, 0.0, 0.0, 0.0, 0.0, 0.0, 0.0, 0.0, 1.6635894703620107E9, 0.0, 2022-09-19 17:11:10.362
89.0, -12878.002271414074, -26942.815118171588, -33527.92960738297, -16014.331998149395, -11983.932493201792, 187500.0, -46140.34845117908, -10881.812677599512, 0.606, -0.704, 0.428, 192.0, 0.0, 0.0, 0.0, 0.0, 0.0, 0.0, 0.0, 0.0, 0.0, 1.6635894703650718E9, 0.0, 2022-09-19 17:11:10.365
90.0, -12874.984785912608, -26934.43321400085, -33532.57877022967, -16014.756681294046, -11971.571978518008, 187500.0, -46140.01317501225, -10877.163514752809, 0.606, -0.704, 0.428, 192.0, 0.0, 0.0, 0.0, 0.0, 0.0, 0.0, 0.0, 0.0, 0.0, 1.663589470369036E9, 0.0, 2022-09-19 17:11:10.369
91.0, -12846.821587898921, -26926.408937741395, -33536.13269759806, -16020.45637613015, -11961.759562702127, 187500.0, -46138.917939533945, -10868.53574139306, 0.606, -0.704, 0.428, 192.0, 0.0, 0.0, 0.0, 0.0, 0.0, 0.0, 0.0, 0.0, 0.0, 1.6635894703730493E9, 0.0, 2022-09-19 17:11:10.373
92.0, -12833.030561569996, -26932.19803955532, -33539.083127866164, -16026.133719221798, -11962.810094691527, 187500.0, -46146.98691928231, -10879.331633964972, 0.606, -0.704, 0.428, 192.0, 0.0, 0.0, 0.0, 0.0, 0.0, 0.0, 0.0, 0.0, 0.0, 1.6635894703770764E9, 0.0, 2022-09-19 17:11:10.377
93.0, -12857.25985255955, -26950.213545586295, -33537.138526098555, -16021.663370330736, -11969.783838961583, 187500.0, -46154.60886414157, -10870.122715249387, 0.606, -0.704, 0.428, 192.0, 0.0, 0.0, 0.0, 0.0, 0.0, 0.0, 0.0, 0.0, 0.0, 1.663589470382092E9, 0.0, 2022-09-19 17:11:10.382
94.0, -12876.281187091015, -26950.884097919956, -33535.596255731136, -16023.831489542901, -11971.840199451472, 187500.0, -46148.1939134829, -10875.375375196383, 0.606, -0.704, 0.428, 192.0, 0.0, 0.0, 0.0, 0.0, 0.0, 0.0, 0.0, 0.0, 0.0, 1.6635894703860438E9, 0.0, 2022-09-19 17:11:10.386
95.0, -12872.190817855695, -26940.021150114677, -33540.78186044477, -16028.592411111882, -11972.354289573943, 187500.0, -46149.199741983386, -10881.075070032486, 0.604, -0.7020000000000001, 0.43, 192.0, 18.0, 224.0, 234.0, 16.0, 13.0, 112.0, 0.0, 0.0, 0.0, 1.6635894703901083E9, 0.0, 2022-09-19 17:11:10.390
96.0, -12849.392038511281, -26932.220391299772, -33548.56026751522, -16026.893678533279, -11969.716783728218, 187500.0, -46150.98788153981, -10872.939035050755, 0.604, -0.7020000000000001, 0.43, 192.0, 0.0, 0.0, 0.0, 0.0, 0.0, 0.0, 0.0, 0.0, 0.0, 1.6635894703930993E9, 0.0, 2022-09-19 17:11:10.393
97.0, -12838.30557326145, -26936.53427797965, -33549.856668693625, -16028.726521578614, -11974.254187852644, 187500.0, -46150.026756528234, -10871.48617166116, 0.604, -0.7020000000000001, 0.43, 192.0, 0.0, 0.0, 0.0, 0.0, 0.0, 0.0, 0.0, 0.0, 0.0, 1.6635894703971238E9, 0.0, 2022-09-19 17:11:10.397
98.0, -12869.620367243335, -26956.874365433978, -33542.21237208991, -16032.727483836114, -11987.106440914446, 187500.0, -46152.93248330742, -10888.294683491551, 0.604, -0.7020000000000001, 0.43, 192.0, 0.0, 0.0, 0.0, 0.0, 0.0, 0.0, 0.0, 0.0, 0.0, 1.6635894704011343E9, 0.0, 2022-09-19 17:11:10.401
99.0, -12897.001254201086, -26961.545880025136, -33540.40188078903, -16026.446643644173, -11984.290121113077, 187500.0, -46153.401869940986, -10884.15961076732, 0.604, -0.7020000000000001, 0.43, 192.0, 0.0, 0.0, 0.0, 0.0, 0.0, 0.0, 0.0, 0.0, 0.0, 1.6635894704051068E9, 0.0, 2022-09-19 17:11:10.405
100.0, -12898.767042013054, -26952.359313054003, -33540.290122066755, -16021.261038930541, -11970.32028082851, 187500.0, -46146.00344252628, -10878.795192098045, 0.604, -0.7020000000000001, 0.43, 192.0, 0.0, 0.0, 0.0, 0.0, 0.0, 0.0, 0.0, 0.0, 0.0, 1.6635894704101264E9, 0.0, 2022-09-19 17:11:10.410
101.0, -12882.673786005234, -26937.294237291128, -33542.41353779001, -16019.137623207287, -11962.184245846778, 187500.0, -46143.29888144718, -10868.647500115336, 0.604, -0.7020000000000001, 0.43, 192.0, 0.0, 0.0, 0.0, 0.0, 0.0, 0.0, 0.0, 0.0, 0.0, 1.6635894704141374E9, 0.0, 2022-09-19 17:11:10.414
102.0, -12879.298672592482, -26937.249533802216, -33535.97623538688, -16021.663370330736, -11966.095801126457, 187500.0, -46141.42133491294, -10867.015822770098, 0.604, -0.7020000000000001, 0.43, 192.0, 0.0, 0.0, 0.0, 0.0, 0.0, 0.0, 0.0, 0.0, 0.0, 1.663589470418156E9, 0.0, 2022-09-19 17:11:10.418
103.0, -12916.290809666016, -26954.594487499537, -33533.80811617471, -16021.775129053012, -11977.003452420648, 187500.0, -46143.745916336295, -10894.262599261117, 0.604, -0.7020000000000001, 0.43, 192.0, 0.0, 0.0, 0.0, 0.0, 0.0, 0.0, 0.0, 0.0, 0.0, 1.66358947042115E9, 0.0, 2022-09-19 17:11:10.421
104.0, -12945.057504779996, -26957.90254567892, -33533.38343303006, -16016.723634806114, -11982.323167601011, 187500.0, -46139.7896575677, -10876.180037996774, 0.604, -0.7020000000000001, 0.43, 192.0, 0.0, 0.0, 0.0, 0.0, 0.0, 0.0, 0.0, 0.0, 0.0, 1.6635894704251368E9, 0.0, 2022-09-19 17:11:10.425
105.0, -12952.74650487262, -26959.176595112873, -33543.844049435145, -16026.044312243977, -11981.47380131171, 187500.0, -46144.03648901421, -10867.395802425839, 0.602, -0.706, 0.426, 192.0, 18.0, 208.0, 233.0, 240.0, 13.0, 80.0, 0.0, 0.0, 0.0, 1.6635894704291184E9, 0.0, 2022-09-19 17:11:10.429
106.0, -12938.03905702103, -26944.670312961378, -33547.44268029245, -16029.687646590191, -11968.822713950005, 187500.0, -46141.82366631313, -10871.285005961063, 0.602, -0.706, 0.426, 192.0, 0.0, 0.0, 0.0, 0.0, 0.0, 0.0, 0.0, 0.0, 0.0, 1.6635894704331045E9, 0.0, 2022-09-19 17:11:10.433
107.0, -12931.780568573544, -26941.09403384853, -33541.83239243417, -16022.423329642217, -11967.70512672724, 187500.0, -46142.494218646796, -10871.888503061355, 0.602, -0.706, 0.426, 192.0, 0.0, 0.0, 0.0, 0.0, 0.0, 0.0, 0.0, 0.0, 0.0, 1.663589470438177E9, 0.0, 2022-09-19 17:11:10.438
108.0, -12962.313051499494, -26955.332095066562, -33535.75271794233, -16015.06960571642, -11978.009280921136, 187500.0, -46142.628329113526, -10878.214046742207, 0.602, -0.706, 0.426, 192.0, 0.0, 0.0, 0.0, 0.0, 0.0, 0.0, 0.0, 0.0, 0.0, 1.6635894704421384E9, 0.0, 2022-09-19 17:11:10.442
109.0, -12984.28481629906, -26955.756778211213, -33537.98789238786, -16014.577867338405, -11975.818809964516, 187500.0, -46140.48256164582, -10884.003148556132, 0.602, -0.706, 0.426, 192.0, 0.0, 0.0, 0.0, 0.0, 0.0, 0.0, 0.0, 0.0, 0.0, 1.663589470446289E9, 0.0, 2022-09-19 17:11:10.446
110.0, -12981.267330797593, -26949.52064150818, -33542.234723834365, -16014.711977805136, -11963.145370858356, 187500.0, -46138.96264302285, -10879.555151409526, 0.602, -0.706, 0.426, 192.0, 0.0, 0.0, 0.0, 0.0, 0.0, 0.0, 0.0, 0.0, 0.0, 1.6635894704492393E9, 0.0, 2022-09-19 17:11:10.449
111.0, -12958.51325494209, -26942.770414682676, -33543.82169769069, -16018.578829595905, -11957.557434744529, 187500.0, -46140.57196862364, -10865.317090191495, 0.602, -0.706, 0.426, 192.0, 0.0, 0.0, 0.0, 0.0, 0.0, 0.0, 0.0, 0.0, 0.0, 1.6635894704531748E9, 0.0, 2022-09-19 17:11:10.453
112.0, -12945.437484435735, -26949.364179296994, -33547.37562505909, -16024.50204187656, -11965.648766237351, 187500.0, -46149.57972163913, -10869.407459426817, 0.602, -0.706, 0.426, 192.0, 0.0, 0.0, 0.0, 0.0, 0.0, 0.0, 0.0, 0.0, 0.0, 1.6635894704572184E9, 0.0, 2022-09-19 17:11:10.457
113.0, -12968.728002158166, -26964.406903315416, -33545.54278201375, -16022.311570919941, -11973.918911685814, 187500.0, -46151.39021294001, -10892.273294004595, 0.602, -0.706, 0.426, 192.0, 0.0, 0.0, 0.0, 0.0, 0.0, 0.0, 0.0, 0.0, 0.0, 1.663589470461322E9, 0.0, 2022-09-19 17:11:10.461
114.0, -12980.239150552648, -26959.444816046336, -33548.76143321532, -16028.346541922874, -11977.517542543119, 187500.0, -46149.0432797722, -10913.328637281495, 0.602, -0.706, 0.426, 192.0, 0.0, 0.0, 0.0, 0.0, 0.0, 0.0, 0.0, 0.0, 0.0, 1.6635894704652631E9, 0.0, 2022-09-19 17:11:10.465
115.0, -12963.788266633543, -26950.48176651976, -33555.26579085181, -16028.927687278712, -11977.405783820843, 187500.0, -46147.456305915875, -10881.544456666048, 0.606, -0.7020000000000001, 0.43, 192.0, 18.0, 240.0, 234.0, 16.0, 13.0, 112.0, 0.0, 0.0, 0.0, 1.6635894704702308E9, 0.0, 2022-09-19 17:11:10.470
116.0, -12920.917620768265, -26943.552725738613, -33557.54566878625, -16024.680855832203, -11974.857684952938, 187500.0, -46145.17642798143, -10852.53189236306, 0.606, -0.7020000000000001, 0.43, 192.0, 0.0, 0.0, 0.0, 0.0, 0.0, 0.0, 0.0, 0.0, 0.0, 1.6635894704742446E9, 0.0, 2022-09-19 17:11:10.474
117.0, -12886.317120351448, -26947.9113159074, -33546.52625876979, -16023.898544776268, -11976.198789620255, 187500.0, -46139.16380872295, -10858.05277324352, 0.606, -0.7020000000000001, 0.43, 192.0, 0.0, 0.0, 0.0, 0.0, 0.0, 0.0, 0.0, 0.0, 0.0, 1.6635894704772408E9, 0.0, 2022-09-19 17:11:10.477
118.0, -12886.831210473922, -26962.28348759216, -33536.915008654, -16017.84122202888, -11973.427173307799, 187500.0, -46138.3367941781, -10870.010956527109, 0.606, -0.7020000000000001, 0.43, 192.0, 0.0, 0.0, 0.0, 0.0, 0.0, 0.0, 0.0, 0.0, 0.0, 1.6635894704812503E9, 0.0, 2022-09-19 17:11:10.481
119.0, -12878.203437114173, -26960.38358931346, -33541.56417150071, -16018.556477851449, -11971.527275029097, 187500.0, -46139.23086395632, -10875.509485663115, 0.606, -0.7020000000000001, 0.43, 192.0, 0.0, 0.0, 0.0, 0.0, 0.0, 0.0, 0.0, 0.0, 0.0, 1.6635894704852664E9, 0.0, 2022-09-19 17:11:10.485
120.0, -12846.463959987637, -26949.073606619073, -33547.330921570174, -16022.423329642217, -11969.537969772575, 187500.0, -46138.5379598782, -10874.10132576243, 0.606, -0.7020000000000001, 0.43, 192.0, 0.0, 0.0, 0.0, 0.0, 0.0, 0.0, 0.0, 0.0, 0.0, 1.6635894704892712E9, 0.0, 2022-09-19 17:11:10.489
121.0, -12801.760471077023, -26934.27675178966, -33549.856668693625, -16017.505945862049, -11966.36402205992, 187500.0, -46138.22503545583, -10855.8623022869, 0.606, -0.7020000000000001, 0.43, 192.0, 0.0, 0.0, 0.0, 0.0, 0.0, 0.0, 0.0, 0.0, 0.0, 1.663589470493226E9, 0.0, 2022-09-19 17:11:10.493
122.0, -12776.614758564801, -26940.7587576817, -33550.95190417193, -16016.544820850471, -11971.951958173748, 187500.0, -46141.913073290954, -10849.424999883771, 0.606, -0.7020000000000001, 0.43, 192.0, 0.0, 0.0, 0.0, 0.0, 0.0, 0.0, 0.0, 0.0, 0.0, 1.6635894704982584E9, 0.0, 2022-09-19 17:11:10.498
123.0, -12786.67304356969, -26962.61876375899, -33553.34354082865, -16019.025864485011, -11982.211408878733, 187500.0, -46152.46309667386, -10863.730116335168, 0.606, -0.7020000000000001, 0.43, 192.0, 0.0, 0.0, 0.0, 0.0, 0.0, 0.0, 0.0, 0.0, 0.0, 1.6635894705022986E9, 0.0, 2022-09-19 17:11:10.502
124.0, -12784.571979590892, -26970.53128129617, -33552.091843139155, -16024.92672502121, -11971.527275029097, 187500.0, -46153.871256574545, -10882.751450866634, 0.606, -0.7020000000000001, 0.43, 192.0, 0.0, 0.0, 0.0, 0.0, 0.0, 0.0, 0.0, 0.0, 0.0, 1.6635894705053258E9, 0.0, 2022-09-19 17:11:10.505
125.0, -12760.14152290124, -26967.446740561336, -33552.851802450634, -16023.943248265177, -11954.674059709796, 187500.0, -46152.8430763296, -10857.046944743031, 0.606, -0.7020000000000001, 0.43, 192.0, 0.0, 0.0, 0.0, 0.0, 0.0, 0.0, 0.0, 0.0, 0.0, 1.6635894705093007E9, 0.0, 2022-09-19 17:11:10.509
126.0, -12718.61198170328, -26964.04927540413, -33563.133604900075, -16030.827585557412, -11948.12499858439, 187500.0, -46161.31438747816, -10841.445427113227, 0.604, -0.7000000000000001, 0.438, 192.0, 18.0, 224.0, 234.0, 32.0, 13.0, 176.0, 0.0, 0.0, 0.0, 1.6635894705133388E9, 0.0, 2022-09-19 17:11:10.513
127.0, -12693.46626919106, -26976.298031365637, -33557.903296697536, -16035.677914104213, -11952.684754453274, 187500.0, -46164.10835553508, -10843.010049225099, 0.604, -0.7000000000000001, 0.438, 192.0, 0.0, 0.0, 0.0, 0.0, 0.0, 0.0, 0.0, 0.0, 0.0, 1.663589470517332E9, 0.0, 2022-09-19 17:11:10.517
128.0, -12702.742243140012, -26989.507912338726, -33553.61176176211, -16033.040408258488, -11967.235740093678, 187500.0, -46164.443631701906, -10844.328802147962, 0.604, -0.7000000000000001, 0.438, 192.0, 0.0, 0.0, 0.0, 0.0, 0.0, 0.0, 0.0, 0.0, 0.0, 1.66358947052133E9, 0.0, 2022-09-19 17:11:10.521
129.0, -12693.13099302423, -26983.852920991532, -33549.096709382145, -16028.41359715624, -11966.185208104278, 187500.0, -46156.77698335374, -10841.981868980154, 0.604, -0.7000000000000001, 0.438, 192.0, 0.0, 0.0, 0.0, 0.0, 0.0, 0.0, 0.0, 0.0, 0.0, 1.6635894705263648E9, 0.0, 2022-09-19 17:11:10.526
130.0, -12654.529530349915, -26964.33984808205, -33552.2706570948, -16027.228954700107, -11951.343649785955, 187500.0, -46152.59720714059, -10829.844871740923, 0.604, -0.7000000000000001, 0.438, 192.0, 0.0, 0.0, 0.0, 0.0, 0.0, 0.0, 0.0, 0.0, 0.0, 1.6635894705294347E9, 0.0, 2022-09-19 17:11:10.529
131.0, -12593.330454031284, -26946.726673451267, -33567.045160179754, -16034.359161181352, -11947.767370673106, 187500.0, -46154.586512397116, -10810.085929642431, 0.604, -0.7000000000000001, 0.438, 192.0, 0.0, 0.0, 0.0, 0.0, 0.0, 0.0, 0.0, 0.0, 0.0, 1.663589470533317E9, 0.0, 2022-09-19 17:11:10.533
132.0, -12558.797008847834, -26959.243650346238, -33566.24049737937, -16038.516585650039, -11961.334879557477, 187500.0, -46158.632178143525, -10820.457139069693, 0.604, -0.7000000000000001, 0.438, 192.0, 0.0, 0.0, 0.0, 0.0, 0.0, 0.0, 0.0, 0.0, 0.0, 1.6635894705374131E9, 0.0, 2022-09-19 17:11:10.537
133.0, -12571.693965398546, -26986.53513032617, -33555.310494340716, -16036.594335626882, -11977.182266376289, 187500.0, -46160.71089037787, -10838.942031734232, 0.604, -0.7000000000000001, 0.438, 192.0, 0.0, 0.0, 0.0, 0.0, 0.0, 0.0, 0.0, 0.0, 0.0, 1.6635894705414624E9, 0.0, 2022-09-19 17:11:10.541
134.0, -12573.124477043686, -26992.61480481801, -33557.612724019615, -16035.074417003922, -11976.243493109167, 187500.0, -46161.09087003361, -10835.611621810393, 0.604, -0.7000000000000001, 0.438, 192.0, 0.0, 0.0, 0.0, 0.0, 0.0, 0.0, 0.0, 0.0, 0.0, 1.6635894705454314E9, 0.0, 2022-09-19 17:11:10.545
135.0, -12541.697924339525, -26983.271775635694, -33566.3746078461, -16032.369855924828, -11961.60310049094, 187500.0, -46164.778907868735, -10819.943048947222, 0.604, -0.7000000000000001, 0.438, 192.0, 0.0, 0.0, 0.0, 0.0, 0.0, 0.0, 0.0, 0.0, 0.0, 1.6635894705494256E9, 0.0, 2022-09-19 17:11:10.549
136.0, -12482.912836422067, -26974.666354020403, -33571.35904685963, -16037.0860740049, -11948.482626495676, 187500.0, -46167.12584103654, -10813.773967477557, 0.602, -0.7020000000000001, 0.438, 192.0, 18.0, 208.0, 234.0, 16.0, 13.0, 176.0, 0.0, 0.0, 0.0, 1.6635894705544288E9, 0.0, 2022-09-19 17:11:10.554
137.0, -12437.896423089078, -26981.841263990555, -33571.180232903986, -16043.098693263377, -11952.215367819712, 187500.0, -46174.211344028874, -10819.71953150267, 0.602, -0.7020000000000001, 0.438, 192.0, 0.0, 0.0, 0.0, 0.0, 0.0, 0.0, 0.0, 0.0, 0.0, 1.6635894705574143E9, 0.0, 2022-09-19 17:11:10.557
138.0, -12426.206460738953, -26997.465133364814, -33568.878003225094, -16038.829510072412, -11958.540911500564, 187500.0, -46178.3017132642, -10805.257952840086, 0.602, -0.7020000000000001, 0.438, 192.0, 0.0, 0.0, 0.0, 0.0, 0.0, 0.0, 0.0, 0.0, 0.0, 1.6635894705604432E9, 0.0, 2022-09-19 17:11:10.560
139.0, -12405.195820950965, -27003.433049134383, -33568.76624450281, -16033.062760002944, -11947.722667184195, 187500.0, -46170.63506491602, -10792.80803117848, 0.602, -0.7020000000000001, 0.438, 192.0, 0.0, 0.0, 0.0, 0.0, 0.0, 0.0, 0.0, 0.0, 0.0, 1.663589470565356E9, 0.0, 2022-09-19 17:11:10.565
140.0, -12365.409715820519, -26997.688650809367, -33573.88479398308, -16031.006399513055, -11940.100722324934, 187500.0, -46169.49512594881, -10785.677824697235, 0.602, -0.7020000000000001, 0.438, 192.0, 0.0, 0.0, 0.0, 0.0, 0.0, 0.0, 0.0, 0.0, 0.0, 1.6635894705693924E9, 0.0, 2022-09-19 17:11:10.569
141.0, -12312.346674483619, -26999.58854908807, -33585.46299761093, -16044.395094441785, -11942.51471072611, 187500.0, -46174.434861473426, -10795.289074813018, 0.602, -0.7020000000000001, 0.438, 192.0, 0.0, 0.0, 0.0, 0.0, 0.0, 0.0, 0.0, 0.0, 0.0, 1.66358947057349E9, 0.0, 2022-09-19 17:11:10.573
142.0, -12282.842371802613, -27015.25712195124, -33589.39690463506, -16051.726466623124, -11952.975327131191, 187500.0, -46180.022797587255, -10809.214211608674, 0.602, -0.7020000000000001, 0.438, 192.0, 0.0, 0.0, 0.0, 0.0, 0.0, 0.0, 0.0, 0.0, 0.0, 1.6635894705773637E9, 0.0, 2022-09-19 17:11:10.577
143.0, -12289.279674205742, -27033.138517515483, -33578.04221845177, -16049.491292177594, -11960.999603390646, 187500.0, -46177.497050463804, -10826.782682750545, 0.602, -0.7020000000000001, 0.438, 192.0, 0.0, 0.0, 0.0, 0.0, 0.0, 0.0, 0.0, 0.0, 0.0, 1.6635894705824387E9, 0.0, 2022-09-19 17:11:10.582
144.0, -12281.456563646385, -27029.428127935902, -33581.68555279798, -16050.720638122635, -11954.741114943161, 187500.0, -46178.27936151974, -10826.76033100609, 0.602, -0.7020000000000001, 0.438, 192.0, 0.0, 0.0, 0.0, 0.0, 0.0, 0.0, 0.0, 0.0, 0.0, 1.6635894705854464E9, 0.0, 2022-09-19 17:11:10.585
145.0, -12248.532444063718, -27013.290168439173, -33581.64084930907, -16052.732295123613, -11946.359210772422, 187500.0, -46172.31144575017, -10817.61846752387, 0.602, -0.7020000000000001, 0.438, 192.0, 0.0, 0.0, 0.0, 0.0, 0.0, 0.0, 0.0, 0.0, 0.0, 1.6635894705884552E9, 0.0, 2022-09-19 17:11:10.588
146.0, -12206.712330187838, -27005.467057879814, -33577.751645773846, -16057.873196348333, -11941.218309547701, 187500.0, -46166.05295730269, -10820.85947046989, 0.604, -0.7000000000000001, 0.44, 192.0, 18.0, 224.0, 234.0, 32.0, 13.0, 192.0, 0.0, 0.0, 0.0, 1.6635894705934188E9, 0.0, 2022-09-19 17:11:10.593
147.0, -12199.22449579531, -27019.548656886658, -33571.33669511518, -16058.096713792887, -11952.394181775355, 187500.0, -46167.39406197001, -10834.829310754456, 0.604, -0.7000000000000001, 0.44, 192.0, 0.0, 0.0, 0.0, 0.0, 0.0, 0.0, 0.0, 0.0, 0.0, 1.6635894705975654E9, 0.0, 2022-09-19 17:11:10.597
148.0, -12224.37020830753, -27038.07825304011, -33559.222049620395, -16053.17933001272, -11963.525350514097, 187500.0, -46161.2473322448, -10864.355965179917, 0.604, -0.7000000000000001, 0.44, 192.0, 0.0, 0.0, 0.0, 0.0, 0.0, 0.0, 0.0, 0.0, 0.0, 1.6635894706014657E9, 0.0, 2022-09-19 17:11:10.601
149.0, -12241.13401664901, -27038.569991418124, -33556.47278505239, -16041.489367662594, -11961.960728402226, 187500.0, -46154.5418089082, -10842.38420038035, 0.604, -0.7000000000000001, 0.44, 192.0, 0.0, 0.0, 0.0, 0.0, 0.0, 0.0, 0.0, 0.0, 0.0, 1.6635894706054564E9, 0.0, 2022-09-19 17:11:10.605
150.0, -12245.023220184234, -27037.00536930625, -33561.50192755484, -16048.50781542156, -11961.670155724307, 187500.0, -46157.33577696512, -10853.448313885727, 0.604, -0.7000000000000001, 0.44, 192.0, 0.0, 0.0, 0.0, 0.0, 0.0, 0.0, 0.0, 0.0, 0.0, 1.6635894706095488E9, 0.0, 2022-09-19 17:11:10.609
151.0, -12235.099045646079, -27035.35134021656, -33564.2735438673, -16044.439797930694, -11959.993774890158, 187500.0, -46157.55929440967, -10852.53189236306, 0.604, -0.7000000000000001, 0.44, 192.0, 0.0, 0.0, 0.0, 0.0, 0.0, 0.0, 0.0, 0.0, 0.0, 1.663589470613516E9, 0.0, 2022-09-19 17:11:10.613
152.0, -12247.347801607586, -27048.293000256184, -33563.53593630027, -16042.294030462985, -11967.615719749418, 187500.0, -46162.543733423205, -10863.663061101803, 0.604, -0.7000000000000001, 0.44, 192.0, 0.0, 0.0, 0.0, 0.0, 0.0, 0.0, 0.0, 0.0, 0.0, 1.6635894706165118E9, 0.0, 2022-09-19 17:11:10.616
153.0, -12289.905523050491, -27066.710837687355, -33565.07820666769, -16043.903356063767, -11981.2279321227, 187500.0, -46168.556352681684, -10886.461840446216, 0.604, -0.7000000000000001, 0.44, 192.0, 0.0, 0.0, 0.0, 0.0, 0.0, 0.0, 0.0, 0.0, 0.0, 1.6635894706214683E9, 0.0, 2022-09-19 17:11:10.621
