%OpenBCI Raw EEG Data
%Number of channels = 8
%Sample Rate = 250 Hz
%Board = OpenBCI_GUI$BoardCytonSerial
Sample Index, EXG Channel 0, EXG Channel 1, EXG Channel 2, EXG Channel 3, EXG Channel 4, EXG Channel 5, EXG Channel 6, EXG Channel 7, Accel Channel 0, Accel Channel 1, Accel Channel 2, Other, Other, Other, Other, Other, Other, Other, Analog Channel 0, Analog Channel 1, Analog Channel 2, Timestamp, Other, Timestamp (Formatted)
224.0, 15583.546827262262, 34708.83932219021, -14402.480650243837, -8920.268287690675, -74509.584845255, -187500.02235174447, -29544.915800680617, -18433.908335436387, 0.0, 0.0, 0.0, 192.0, 0.0, 0.0, 0.0, 0.0, 0.0, 0.0, 0.0, 0.0, 0.0, 1.6635864104253511E9, 0.0, 2022-09-19 16:20:10.425
225.0, 15595.125030890113, 34771.46891015398, -14392.064737327664, -8912.33341840904, -74689.71755382033, -187500.02235174447, -29467.958744520995, -18418.038596873117, 0.0, 0.0, 0.0, 192.0, 0.0, 0.0, 0.0, 0.0, 0.0, 0.0, 0.0, 0.0, 0.0, 1.663586410425376E9, 0.0, 2022-09-19 16:20:10.425
226.0, 15610.257161886355, 34841.2734080879, -14380.642995911003, -8898.251819402198, -74855.27692500078, -187500.02235174447, -29351.997894286862, -18410.573114225044, 0.626, -0.72, 0.366, 192.0, 19.0, 144.0, 233.0, 128.0, 11.0, 112.0, 0.0, 0.0, 0.0, 1.6635864104253912E9, 0.0, 2022-09-19 16:20:10.425
0.0, 0.0, 0.0, 0.0, 0.0, 0.0, 0.0, 0.0, 0.0, 0.632, -0.71, 0.376, 192.0, 19.0, 192.0, 233.0, 208.0, 11.0, 192.0, 0.0, 0.0, 0.0, 1.6635864104974551E9, 0.0, 2022-09-19 16:20:10.497
1.0, 16185.993395566155, 41200.948202723055, -15770.943852775557, -9662.904997218251, -187500.02235174447, -187500.02235174447, -19183.60819621184, -18371.05523002806, 0.632, -0.71, 0.376, 192.0, 0.0, 0.0, 0.0, 0.0, 0.0, 0.0, 0.0, 0.0, 0.0, 1.6635864105145564E9, 0.0, 2022-09-19 16:20:10.514
2.0, 16188.094459544953, 41187.73832174997, -15765.825303295293, -9662.4803140736, -187500.02235174447, -187500.02235174447, -19277.91020606878, -18375.79379985259, 0.632, -0.71, 0.376, 192.0, 0.0, 0.0, 0.0, 0.0, 0.0, 0.0, 0.0, 0.0, 0.0, 1.6635864105175056E9, 0.0, 2022-09-19 16:20:10.517
3.0, 16197.035157327076, 41185.61490602671, -15761.690230571061, -9662.77088675152, -187500.02235174447, -187500.02235174447, -19330.48150902766, -18376.620814397433, 0.632, -0.71, 0.376, 192.0, 0.0, 0.0, 0.0, 0.0, 0.0, 0.0, 0.0, 0.0, 0.0, 1.663586410520497E9, 0.0, 2022-09-19 16:20:10.520
4.0, 16207.227552798697, 41191.89574621865, -15765.847655039748, -9665.564854808434, -187500.02235174447, -187500.02235174447, -19356.320125617996, -18377.44782894228, 0.632, -0.71, 0.376, 192.0, 0.0, 0.0, 0.0, 0.0, 0.0, 0.0, 0.0, 0.0, 0.0, 1.663586410524518E9, 0.0, 2022-09-19 16:20:10.524
5.0, 16196.811639882522, 41175.288400088364, -15777.403506923141, -9666.4812763311, -187500.02235174447, -187500.02235174447, -19432.204298043765, -18378.185436509306, 0.632, -0.71, 0.376, 192.0, 0.0, 0.0, 0.0, 0.0, 0.0, 0.0, 0.0, 0.0, 0.0, 1.6635864105275335E9, 0.0, 2022-09-19 16:20:10.527
6.0, 16184.24995949864, 41151.14851607663, -15778.69990810155, -9666.43657284219, -187500.02235174447, -187500.02235174447, -19560.413904239405, -18380.6888318883, 0.632, -0.71, 0.376, 192.0, 0.0, 0.0, 0.0, 0.0, 0.0, 0.0, 0.0, 0.0, 0.0, 1.6635864105315323E9, 0.0, 2022-09-19 16:20:10.531
7.0, 16175.599834394436, 41131.14370478913, -15775.302442944343, -9664.067287929927, -187500.02235174447, -187500.02235174447, -19667.568167158148, -18378.610119653957, 0.632, -0.71, 0.376, 192.0, 0.0, 0.0, 0.0, 0.0, 0.0, 0.0, 0.0, 0.0, 0.0, 1.663586410535557E9, 0.0, 2022-09-19 16:20:10.535
8.0, 16183.937035076266, 41121.13012327315, -15771.860274298226, -9661.273319873015, -187500.02235174447, -187500.02235174447, -19736.67976101396, -18373.558625407055, 0.64, -0.712, 0.382, 192.0, 20.0, 0.0, 233.0, 192.0, 11.0, 240.0, 0.0, 0.0, 0.0, 1.663586410539568E9, 0.0, 2022-09-19 16:20:10.539
9.0, 16195.492886959659, 41123.43235295205, -15766.965242262513, -9663.48614257409, -187500.02235174447, -187500.02235174447, -19769.58152885217, -18382.946358078287, 0.64, -0.712, 0.382, 192.0, 0.0, 0.0, 0.0, 0.0, 0.0, 0.0, 0.0, 0.0, 0.0, 1.6635864105435405E9, 0.0, 2022-09-19 16:20:10.543
10.0, 16187.982700822677, 41111.585928390734, -15778.007004023435, -9670.169314166227, -187500.02235174447, -187500.02235174447, -19847.8349861902, -18396.089183818007, 0.64, -0.712, 0.382, 192.0, 0.0, 0.0, 0.0, 0.0, 0.0, 0.0, 0.0, 0.0, 0.0, 1.663586410547554E9, 0.0, 2022-09-19 16:20:10.547
11.0, 16175.421020438795, 41086.350808900694, -15784.26549247092, -9661.653299528754, -187500.02235174447, -187500.02235174447, -19983.37596456718, -18384.44392495679, 0.64, -0.712, 0.382, 192.0, 0.0, 0.0, 0.0, 0.0, 0.0, 0.0, 0.0, 0.0, 0.0, 1.663586410552565E9, 0.0, 2022-09-19 16:20:10.552
12.0, 16179.10905827392, 41071.86687849365, -15777.515265645417, -9655.640680270277, -187500.02235174447, -187500.02235174447, -20085.814009405854, -18373.938605062798, 0.64, -0.712, 0.382, 192.0, 0.0, 0.0, 0.0, 0.0, 0.0, 0.0, 0.0, 0.0, 0.0, 1.663586410556554E9, 0.0, 2022-09-19 16:20:10.556
13.0, 16184.696994387747, 41066.21188714646, -15778.543445890362, -9658.4793518161, -187500.02235174447, -187500.02235174447, -20143.07917870035, -18374.698564374277, 0.64, -0.712, 0.382, 192.0, 0.0, 0.0, 0.0, 0.0, 0.0, 0.0, 0.0, 0.0, 0.0, 1.6635864105605829E9, 0.0, 2022-09-19 16:20:10.560
14.0, 16195.470535215205, 41074.057349450275, -15776.688251100572, -9662.949700707162, -187500.02235174447, -187500.02235174447, -20159.172434708173, -18381.247625499684, 0.64, -0.712, 0.382, 192.0, 0.0, 0.0, 0.0, 0.0, 0.0, 0.0, 0.0, 0.0, 0.0, 1.6635864105646229E9, 0.0, 2022-09-19 16:20:10.564
15.0, 16194.151782292342, 41070.3916633596, -15776.867065056214, -9664.223750141115, -187500.02235174447, -187500.02235174447, -20213.308359778926, -18383.818076112042, 0.64, -0.712, 0.382, 192.0, 0.0, 0.0, 0.0, 0.0, 0.0, 0.0, 0.0, 0.0, 0.0, 1.6635864105686245E9, 0.0, 2022-09-19 16:20:10.568
16.0, 16184.428773454283, 41051.39268057259, -15775.727126088994, -9668.001194954062, -187500.02235174447, -187500.02235174447, -20329.291561757513, -18383.125172033928, 0.64, -0.712, 0.382, 192.0, 0.0, 0.0, 0.0, 0.0, 0.0, 0.0, 0.0, 0.0, 0.0, 1.6635864105736065E9, 0.0, 2022-09-19 16:20:10.573
17.0, 16179.511389674115, 41037.64635773258, -15769.781562063881, -9670.035203699494, -187500.02235174447, -187500.02235174447, -20419.011464001116, -18385.87443660193, 0.64, -0.712, 0.382, 192.0, 0.0, 0.0, 0.0, 0.0, 0.0, 0.0, 0.0, 0.0, 0.0, 1.6635864105776765E9, 0.0, 2022-09-19 16:20:10.577
18.0, 16182.417116453305, 41033.48893326389, -15762.316079415808, -9670.05755544395, -187500.02235174447, -187500.02235174447, -20462.48560696669, -18379.705355132264, 0.646, -0.708, 0.386, 192.0, 20.0, 48.0, 233.0, 224.0, 12.0, 16.0, 0.0, 0.0, 0.0, 1.6635864105816753E9, 0.0, 2022-09-19 16:20:10.581
19.0, 16189.100288045442, 41043.12253512413, -15759.902091014636, -9676.226636913614, -187500.02235174447, -187500.02235174447, -20463.737304656184, -18386.746154635686, 0.646, -0.708, 0.386, 192.0, 0.0, 0.0, 0.0, 0.0, 0.0, 0.0, 0.0, 0.0, 0.0, 1.6635864105846217E9, 0.0, 2022-09-19 16:20:10.584
20.0, 16193.794154381056, 41046.25177934788, -15761.332602659775, -9673.544427578978, -187500.02235174447, -187500.02235174447, -20501.399994063377, -18388.26607325865, 0.646, -0.708, 0.386, 192.0, 0.0, 0.0, 0.0, 0.0, 0.0, 0.0, 0.0, 0.0, 0.0, 1.6635864105886128E9, 0.0, 2022-09-19 16:20:10.588
21.0, 16186.842761855456, 41030.225578573416, -15764.283032927875, -9667.397697853768, -187500.02235174447, -187500.02235174447, -20610.118879093992, -18377.134904519906, 0.646, -0.708, 0.386, 192.0, 0.0, 0.0, 0.0, 0.0, 0.0, 0.0, 0.0, 0.0, 0.0, 1.6635864105915644E9, 0.0, 2022-09-19 16:20:10.591
22.0, 16177.9691193067, 41014.35584001015, -15766.45115214004, -9669.163485665738, -187500.02235174447, -187500.02235174447, -20698.654138881462, -18374.564453907544, 0.646, -0.708, 0.386, 192.0, 0.0, 0.0, 0.0, 0.0, 0.0, 0.0, 0.0, 0.0, 0.0, 1.663586410595739E9, 0.0, 2022-09-19 16:20:10.595
23.0, 16182.081840286475, 41012.72416266491, -15763.83599803877, -9668.537636820989, -187500.02235174447, -187500.02235174447, -20739.78134867923, -18379.07950628752, 0.646, -0.708, 0.386, 192.0, 0.0, 0.0, 0.0, 0.0, 0.0, 0.0, 0.0, 0.0, 0.0, 1.66358641059967E9, 0.0, 2022-09-19 16:20:10.599
24.0, 16191.20135202424, 41018.3791540121, -15766.78642830687, -9670.169314166227, -187500.02235174447, -187500.02235174447, -20744.96695339286, -18401.543009465102, 0.646, -0.708, 0.386, 192.0, 0.0, 0.0, 0.0, 0.0, 0.0, 0.0, 0.0, 0.0, 0.0, 1.663586410603597E9, 0.0, 2022-09-19 16:20:10.603
25.0, 16191.357814235427, 41020.05553484625, -15771.524998131395, -9669.76698276603, -187500.02235174447, -187500.02235174447, -20779.992136954326, -18376.73257311971, 0.646, -0.708, 0.386, 192.0, 0.0, 0.0, 0.0, 0.0, 0.0, 0.0, 0.0, 0.0, 0.0, 1.6635864106087265E9, 0.0, 2022-09-19 16:20:10.608
26.0, 16184.853456598934, 41006.1303980506, -15770.340355675264, -9660.111029161339, -187500.02235174447, -187500.02235174447, -20879.479751524897, -18363.00860202415, 0.646, -0.708, 0.386, 192.0, 0.0, 0.0, 0.0, 0.0, 0.0, 0.0, 0.0, 0.0, 0.0, 1.6635864106116412E9, 0.0, 2022-09-19 16:20:10.611
27.0, 16186.06045079952, 41000.20718576994, -15769.69215508606, -9663.128514662805, -187500.02235174447, -187500.02235174447, -20953.687543116517, -18373.625680640424, 0.646, -0.708, 0.386, 192.0, 0.0, 0.0, 0.0, 0.0, 0.0, 0.0, 0.0, 0.0, 0.0, 1.6635864106156893E9, 0.0, 2022-09-19 16:20:10.615
28.0, 16196.185791037775, 41004.76694163882, -15769.446285897051, -9665.38604085279, -187500.02235174447, -187500.02235174447, -20984.309433020288, -18378.92304407633, 0.652, -0.7000000000000001, 0.382, 192.0, 20.0, 96.0, 234.0, 32.0, 11.0, 240.0, 0.0, 0.0, 0.0, 1.6635864106196764E9, 0.0, 2022-09-19 16:20:10.619
29.0, 16199.069166072508, 41012.56770045373, -15778.007004023435, -9687.06723297444, -187500.02235174447, -187500.02235174447, -20980.219063784967, -18394.971596595242, 0.652, -0.7000000000000001, 0.382, 192.0, 0.0, 0.0, 0.0, 0.0, 0.0, 0.0, 0.0, 0.0, 0.0, 1.6635864106236708E9, 0.0, 2022-09-19 16:20:10.623
30.0, 16194.509410203626, 41013.39471499857, -15789.249931484454, -9687.357805652358, -187500.02235174447, -187500.02235174447, -21001.989662884436, -18395.865666373455, 0.652, -0.7000000000000001, 0.382, 192.0, 0.0, 0.0, 0.0, 0.0, 0.0, 0.0, 0.0, 0.0, 0.0, 1.6635864106276631E9, 0.0, 2022-09-19 16:20:10.627
31.0, 16186.149857777342, 40997.41321771303, -15790.0769460293, -9673.522075834522, -187500.02235174447, -187500.02235174447, -21093.8776843402, -18381.694660388788, 0.652, -0.7000000000000001, 0.382, 192.0, 0.0, 0.0, 0.0, 0.0, 0.0, 0.0, 0.0, 0.0, 0.0, 1.6635864106316912E9, 0.0, 2022-09-19 16:20:10.631
32.0, 16185.412250210316, 40990.19360425396, -15788.691137873071, -9681.188724182693, -187500.02235174447, -187500.02235174447, -21165.962060208567, -18388.511942447658, 0.652, -0.7000000000000001, 0.382, 192.0, 0.0, 0.0, 0.0, 0.0, 0.0, 0.0, 0.0, 0.0, 0.0, 1.6635864106357872E9, 0.0, 2022-09-19 16:20:10.635
33.0, 16186.77570662209, 40992.27231648831, -15794.659053642637, -9686.217866685136, -187500.02235174447, -187500.02235174447, -21193.924092522157, -18398.21259954126, 0.652, -0.7000000000000001, 0.382, 192.0, 0.0, 0.0, 0.0, 0.0, 0.0, 0.0, 0.0, 0.0, 0.0, 1.6635864106406615E9, 0.0, 2022-09-19 16:20:10.640
34.0, 16195.381128237383, 41005.63865967258, -15793.876742586703, -9689.525924864522, -187500.02235174447, -187500.02235174447, -21178.881368503735, -18401.766526909654, 0.652, -0.7000000000000001, 0.382, 192.0, 0.0, 0.0, 0.0, 0.0, 0.0, 0.0, 0.0, 0.0, 0.0, 1.66358641064475E9, 0.0, 2022-09-19 16:20:10.644
35.0, 16198.197448038753, 41015.36166851064, -15797.587132166283, -9694.935047022707, -187500.02235174447, -187500.02235174447, -21188.179694197144, -18404.91812287785, 0.652, -0.7000000000000001, 0.382, 192.0, 0.0, 0.0, 0.0, 0.0, 0.0, 0.0, 0.0, 0.0, 0.0, 1.663586410647795E9, 0.0, 2022-09-19 16:20:10.647
36.0, 16189.502619445637, 41010.93602310849, -15801.655149657148, -9691.336416165403, -187500.02235174447, -187500.02235174447, -21266.16493060171, -18397.296178018594, 0.652, -0.7000000000000001, 0.382, 192.0, 0.0, 0.0, 0.0, 0.0, 0.0, 0.0, 0.0, 0.0, 0.0, 1.6635864106517344E9, 0.0, 2022-09-19 16:20:10.651
37.0, 16188.429735711783, 41011.38305799759, -15794.12261177571, -9679.624102070822, -187500.02235174447, -187500.02235174447, -21326.9840272646, -18382.7898958671, 0.652, -0.7000000000000001, 0.382, 192.0, 0.0, 0.0, 0.0, 0.0, 0.0, 0.0, 0.0, 0.0, 0.0, 1.6635864106576917E9, 0.0, 2022-09-19 16:20:10.657
38.0, 16191.693090402257, 41023.229482558905, -15791.50745767444, -9681.456945116157, -187500.02235174447, -187500.02235174447, -21340.59623963788, -18375.614985896944, 0.65, -0.6980000000000001, 0.384, 192.0, 20.0, 80.0, 234.0, 48.0, 12.0, 0.0, 0.0, 0.0, 0.0, 1.663586410660771E9, 0.0, 2022-09-19 16:20:10.660
39.0, 16207.093442331963, 41048.50930553786, -15786.12068726071, -9686.82136378543, -187500.02235174447, -187500.02235174447, -21304.878151998302, -18389.87539885943, 0.65, -0.6980000000000001, 0.384, 192.0, 0.0, 0.0, 0.0, 0.0, 0.0, 0.0, 0.0, 0.0, 0.0, 1.6635864106638231E9, 0.0, 2022-09-19 16:20:10.663
40.0, 16205.417061497816, 41056.868857964146, -15792.55798966384, -9686.82136378543, -187500.02235174447, -187500.02235174447, -21298.39614610626, -18391.484724460213, 0.65, -0.6980000000000001, 0.384, 192.0, 0.0, 0.0, 0.0, 0.0, 0.0, 0.0, 0.0, 0.0, 0.0, 1.6635864106666963E9, 0.0, 2022-09-19 16:20:10.666
41.0, 16194.688224159268, 41048.44225030449, -15793.60852165324, -9684.452078873168, -187500.02235174447, -187500.02235174447, -21357.98589682411, -18389.29425350359, 0.65, -0.6980000000000001, 0.384, 192.0, 0.0, 0.0, 0.0, 0.0, 0.0, 0.0, 0.0, 0.0, 0.0, 1.663586410670758E9, 0.0, 2022-09-19 16:20:10.670
42.0, 16193.704747403235, 41045.51417178085, -15789.138172762177, -9687.760137052554, -187500.02235174447, -187500.02235174447, -21401.504743278594, -18391.954111093775, 0.65, -0.6980000000000001, 0.384, 192.0, 0.0, 0.0, 0.0, 0.0, 0.0, 0.0, 0.0, 0.0, 0.0, 1.6635864106758244E9, 0.0, 2022-09-19 16:20:10.675
43.0, 16200.276160273095, 41058.45583182047, -15788.914655317623, -9690.487049876101, -187500.02235174447, -187500.02235174447, -21399.04605138851, -18391.685890160312, 0.65, -0.6980000000000001, 0.384, 192.0, 0.0, 0.0, 0.0, 0.0, 0.0, 0.0, 0.0, 0.0, 0.0, 1.6635864106797988E9, 0.0, 2022-09-19 16:20:10.679
44.0, 16207.54047722107, 41079.287657652814, -15792.35682396374, -9695.180916211715, -187500.02235174447, -187500.02235174447, -21356.957716579167, -18403.889942632908, 0.65, -0.6980000000000001, 0.384, 192.0, 0.0, 0.0, 0.0, 0.0, 0.0, 0.0, 0.0, 0.0, 0.0, 1.6635864106838222E9, 0.0, 2022-09-19 16:20:10.683
45.0, 16210.177983066797, 41099.292468940315, -15794.971978065012, -9694.86799178934, -187500.02235174447, -187500.02235174447, -21326.22406795312, -18401.721823420743, 0.65, -0.6980000000000001, 0.384, 192.0, 0.0, 0.0, 0.0, 0.0, 0.0, 0.0, 0.0, 0.0, 0.0, 1.6635864106877923E9, 0.0, 2022-09-19 16:20:10.687
46.0, 16199.49384921716, 41098.398399162106, -15802.437460713085, -9693.325721421925, -187500.02235174447, -187500.02235174447, -21368.80414114048, -18396.40210824038, 0.65, -0.6980000000000001, 0.384, 192.0, 0.0, 0.0, 0.0, 0.0, 0.0, 0.0, 0.0, 0.0, 0.0, 1.6635864106917524E9, 0.0, 2022-09-19 16:20:10.691
47.0, 16204.657102186335, 41104.27690795385, -15799.039995555879, -9690.419994642734, -187500.02235174447, -187500.02235174447, -21398.599016499404, -18396.6926809183, 0.65, -0.6980000000000001, 0.384, 192.0, 0.0, 0.0, 0.0, 0.0, 0.0, 0.0, 0.0, 0.0, 0.0, 1.66358641069486E9, 0.0, 2022-09-19 16:20:10.694
48.0, 16217.911686648333, 41123.342945974226, -15792.468582686019, -9687.268398674536, -187500.02235174447, -187500.02235174447, -21382.371650024852, -18392.892884360896, 0.642, -0.6920000000000001, 0.39, 192.0, 20.0, 16.0, 234.0, 96.0, 12.0, 48.0, 0.0, 0.0, 0.0, 1.663586410698842E9, 0.0, 2022-09-19 16:20:10.698
49.0, 16229.825166443012, 41148.84628639773, -15791.596864652262, -9694.197439455682, -187500.02235174447, -187500.02235174447, -21329.46507089914, -18401.45360248728, 0.642, -0.6920000000000001, 0.39, 192.0, 0.0, 0.0, 0.0, 0.0, 0.0, 0.0, 0.0, 0.0, 0.0, 1.6635864107039025E9, 0.0, 2022-09-19 16:20:10.703
50.0, 16231.903878677354, 41171.220382597494, -15794.882571087192, -9699.941837780696, -187500.02235174447, -187500.02235174447, -21289.298986112954, -18423.134794608926, 0.642, -0.6920000000000001, 0.39, 192.0, 0.0, 0.0, 0.0, 0.0, 0.0, 0.0, 0.0, 0.0, 0.0, 1.6635864107078247E9, 0.0, 2022-09-19 16:20:10.707
51.0, 16220.146861093863, 41176.02600765539, -15796.804821110347, -9691.425823143223, -187500.02235174447, -187500.02235174447, -21318.7809370495, -18401.654768187378, 0.642, -0.6920000000000001, 0.39, 192.0, 0.0, 0.0, 0.0, 0.0, 0.0, 0.0, 0.0, 0.0, 0.0, 1.6635864107118008E9, 0.0, 2022-09-19 16:20:10.711
52.0, 16219.722177949212, 41181.09985364674, -15802.616274668728, -9695.67265458973, -187500.02235174447, -187500.02235174447, -21345.89360307379, -18395.6421489289, 0.642, -0.6920000000000001, 0.39, 192.0, 0.0, 0.0, 0.0, 0.0, 0.0, 0.0, 0.0, 0.0, 0.0, 1.663586410715858E9, 0.0, 2022-09-19 16:20:10.715
53.0, 16220.191564582774, 41192.43218808558, -15806.12549854821, -9706.379140183824, -187500.02235174447, -187500.02235174447, -21332.08022500041, -18406.21452405626, 0.642, -0.6920000000000001, 0.39, 192.0, 0.0, 0.0, 0.0, 0.0, 0.0, 0.0, 0.0, 0.0, 0.0, 1.663586410720827E9, 0.0, 2022-09-19 16:20:10.720
54.0, 16230.205146098751, 41212.77227553991, -15800.135231034188, -9698.220753457637, -187500.02235174447, -187500.02235174447, -21273.608061505325, -18404.91812287785, 0.642, -0.6920000000000001, 0.39, 192.0, 0.0, 0.0, 0.0, 0.0, 0.0, 0.0, 0.0, 0.0, 0.0, 1.6635864107238488E9, 0.0, 2022-09-19 16:20:10.723
55.0, 16235.167233367829, 41232.21829321603, -15804.426765969607, -9693.191610955193, -187500.02235174447, -187500.02235174447, -21221.95318006911, -18406.88507638992, 0.642, -0.6920000000000001, 0.39, 192.0, 0.0, 0.0, 0.0, 0.0, 0.0, 0.0, 0.0, 0.0, 0.0, 1.6635864107289393E9, 0.0, 2022-09-19 16:20:10.728
56.0, 16226.561811752537, 41222.67409833361, -15808.807707882848, -9695.359730167358, -187500.02235174447, -187500.02235174447, -21257.11247409731, -18408.8967333909, 0.642, -0.6920000000000001, 0.39, 192.0, 0.0, 0.0, 0.0, 0.0, 0.0, 0.0, 0.0, 0.0, 0.0, 1.663586410732886E9, 0.0, 2022-09-19 16:20:10.732
57.0, 16217.397596525861, 41209.620679571715, -15804.404414225151, -9696.097337734382, -187500.02235174447, -187500.02235174447, -21290.662442524725, -18402.235913543216, 0.642, -0.6920000000000001, 0.39, 192.0, 0.0, 0.0, 0.0, 0.0, 0.0, 0.0, 0.0, 0.0, 0.0, 1.6635864107369103E9, 0.0, 2022-09-19 16:20:10.736
58.0, 16221.510317505637, 41211.76644703942, -15800.448155456563, -9696.253799945569, -187500.02235174447, -187500.02235174447, -21277.787837718468, -18399.6431111864, 0.646, -0.6900000000000001, 0.394, 192.0, 20.0, 48.0, 234.0, 112.0, 12.0, 80.0, 0.0, 0.0, 0.0, 1.6635864107409296E9, 0.0, 2022-09-19 16:20:10.740
59.0, 16226.45005303026, 41215.342726152274, -15799.241161255975, -9697.125517979326, -187500.02235174447, -187500.02235174447, -21230.15627028421, -18411.534239236622, 0.646, -0.6900000000000001, 0.394, 192.0, 0.0, 0.0, 0.0, 0.0, 0.0, 0.0, 0.0, 0.0, 0.0, 1.6635864107460487E9, 0.0, 2022-09-19 16:20:10.746
60.0, 16228.193489097774, 41217.46614187553, -15798.592960666772, -9692.29754117698, -187500.02235174447, -187500.02235174447, -21187.933825008135, -18406.41568975636, 0.646, -0.6900000000000001, 0.394, 192.0, 0.0, 0.0, 0.0, 0.0, 0.0, 0.0, 0.0, 0.0, 0.0, 1.6635864107489707E9, 0.0, 2022-09-19 16:20:10.748
61.0, 16219.297494804561, 41201.149368423154, -15798.257684499942, -9685.703776562665, -187500.02235174447, -187500.02235174447, -21220.76853761298, -18395.239817528705, 0.646, -0.6900000000000001, 0.394, 192.0, 0.0, 0.0, 0.0, 0.0, 0.0, 0.0, 0.0, 0.0, 0.0, 1.663586410751942E9, 0.0, 2022-09-19 16:20:10.751
62.0, 16211.183811567285, 41184.85494671523, -15796.1789722656, -9684.005043984062, -187500.02235174447, -187500.02235174447, -21260.331125298875, -18395.01630008415, 0.646, -0.6900000000000001, 0.394, 192.0, 0.0, 0.0, 0.0, 0.0, 0.0, 0.0, 0.0, 0.0, 0.0, 1.6635864107559237E9, 0.0, 2022-09-19 16:20:10.755
63.0, 16207.451070243249, 41176.45069080004, -15792.1780100081, -9690.732919065109, -187500.02235174447, -187500.02235174447, -21255.838424663358, -18401.945340865295, 0.646, -0.6900000000000001, 0.394, 192.0, 0.0, 0.0, 0.0, 0.0, 0.0, 0.0, 0.0, 0.0, 0.0, 1.663586410758916E9, 0.0, 2022-09-19 16:20:10.758
64.0, 16213.664855201825, 41179.60228676823, -15791.21688499652, -9692.29754117698, -187500.02235174447, -187500.02235174447, -21209.659720618693, -18399.665462930854, 0.646, -0.6900000000000001, 0.394, 192.0, 0.0, 0.0, 0.0, 0.0, 0.0, 0.0, 0.0, 0.0, 0.0, 1.6635864107639358E9, 0.0, 2022-09-19 16:20:10.763
65.0, 16216.659988958836, 41178.23883035646, -15795.754289120949, -9690.978788254117, -187500.02235174447, -187500.02235174447, -21169.538339321418, -18394.949244850784, 0.646, -0.6900000000000001, 0.394, 192.0, 0.0, 0.0, 0.0, 0.0, 0.0, 0.0, 0.0, 0.0, 0.0, 1.6635864107679317E9, 0.0, 2022-09-19 16:20:10.767
66.0, 16208.836878399477, 41156.78115567937, -15797.296559488364, -9684.027395728517, -187500.02235174447, -187500.02235174447, -21208.25156071801, -18387.30494824707, 0.646, -0.6900000000000001, 0.394, 192.0, 0.0, 0.0, 0.0, 0.0, 0.0, 0.0, 0.0, 0.0, 0.0, 1.6635864107719893E9, 0.0, 2022-09-19 16:20:10.771
67.0, 16202.287817274073, 41138.25155952592, -15798.928236833603, -9683.066270716938, -187500.02235174447, -187500.02235174447, -21251.412779261205, -18389.58482618151, 0.646, -0.6900000000000001, 0.394, 192.0, 0.0, 0.0, 0.0, 0.0, 0.0, 0.0, 0.0, 0.0, 0.0, 1.6635864107750013E9, 0.0, 2022-09-19 16:20:10.775
68.0, 16202.623093440903, 41133.04360306783, -15800.157582778644, -9690.576456853922, -187500.02235174447, -187500.02235174447, -21250.831633905367, -18394.971596595242, 0.644, -0.6880000000000001, 0.39, 192.0, 20.0, 32.0, 234.0, 128.0, 12.0, 48.0, 0.0, 0.0, 0.0, 1.6635864107789264E9, 0.0, 2022-09-19 16:20:10.778
69.0, 16205.774689409101, 41137.91628335909, -15800.559914178839, -9697.550201123977, -187500.02235174447, -187500.02235174447, -21208.162153740188, -18397.07266057404, 0.644, -0.6880000000000001, 0.39, 192.0, 0.0, 0.0, 0.0, 0.0, 0.0, 0.0, 0.0, 0.0, 0.0, 1.6635864107829528E9, 0.0, 2022-09-19 16:20:10.782
70.0, 16207.54047722107, 41137.91628335909, -15800.716376390026, -9688.855372530863, -187500.02235174447, -187500.02235174447, -21168.53251082093, -18398.54787570809, 0.644, -0.6880000000000001, 0.39, 192.0, 0.0, 0.0, 0.0, 0.0, 0.0, 0.0, 0.0, 0.0, 0.0, 1.6635864107869852E9, 0.0, 2022-09-19 16:20:10.786
71.0, 16201.885485873878, 41121.957137818, -15799.487030444985, -9680.473468360124, -187500.02235174447, -187500.02235174447, -21205.97168278357, -18390.36713723745, 0.644, -0.6880000000000001, 0.39, 192.0, 0.0, 0.0, 0.0, 0.0, 0.0, 0.0, 0.0, 0.0, 0.0, 1.6635864107919903E9, 0.0, 2022-09-19 16:20:10.791
72.0, 16194.665872414813, 41099.69480034051, -15800.135231034188, -9684.429727128712, -187500.02235174447, -187500.02235174447, -21253.62560196228, -18398.704337919276, 0.644, -0.6880000000000001, 0.39, 192.0, 0.0, 0.0, 0.0, 0.0, 0.0, 0.0, 0.0, 0.0, 0.0, 1.6635864107959816E9, 0.0, 2022-09-19 16:20:10.795
73.0, 16194.822334626, 41093.57042235976, -15800.872838601214, -9690.35293940937, -187500.02235174447, -187500.02235174447, -21253.290325795453, -18410.282541547127, 0.644, -0.6880000000000001, 0.39, 192.0, 0.0, 0.0, 0.0, 0.0, 0.0, 0.0, 0.0, 0.0, 0.0, 1.6635864107999995E9, 0.0, 2022-09-19 16:20:10.799
74.0, 16210.468555744716, 41099.11365498468, -15794.167315264622, -9687.670730074731, -187500.02235174447, -187500.02235174447, -21209.14563049622, -18401.83358214302, 0.644, -0.6880000000000001, 0.39, 192.0, 0.0, 0.0, 0.0, 0.0, 0.0, 0.0, 0.0, 0.0, 0.0, 1.663586410802958E9, 0.0, 2022-09-19 16:20:10.802
75.0, 16215.318884291517, 41100.544166629814, -15789.138172762177, -9685.6367213293, -187500.02235174447, -187500.02235174447, -21168.04077244291, -18404.02405309964, 0.644, -0.6880000000000001, 0.39, 192.0, 0.0, 0.0, 0.0, 0.0, 0.0, 0.0, 0.0, 0.0, 0.0, 1.6635864108070514E9, 0.0, 2022-09-19 16:20:10.807
76.0, 16207.473421987705, 41093.03398049283, -15792.826210597303, -9687.648378330276, -187500.02235174447, -187500.02235174447, -21191.823028543356, -18405.655730444876, 0.644, -0.6880000000000001, 0.39, 192.0, 0.0, 0.0, 0.0, 0.0, 0.0, 0.0, 0.0, 0.0, 0.0, 1.6635864108110435E9, 0.0, 2022-09-19 16:20:10.811
77.0, 16204.612398697425, 41080.137023942116, -15789.36169020673, -9686.173163196227, -187500.02235174447, -187500.02235174447, -21231.00563657351, -18397.609102440965, 0.644, -0.6880000000000001, 0.39, 192.0, 0.0, 0.0, 0.0, 0.0, 0.0, 0.0, 0.0, 0.0, 0.0, 1.6635864108170576E9, 0.0, 2022-09-19 16:20:10.817
78.0, 16207.763994665624, 41073.85618375018, -15782.589111636773, -9681.367538138335, -187500.02235174447, -187500.02235174447, -21232.793776129936, -18399.866628630953, 0.644, -0.6880000000000001, 0.39, 192.0, 0.0, 0.0, 0.0, 0.0, 0.0, 0.0, 0.0, 0.0, 0.0, 1.6635864108211408E9, 0.0, 2022-09-19 16:20:10.821
79.0, 16214.670683702314, 41082.95334374349, -15775.548312133351, -9686.73195680761, -187500.02235174447, -187500.02235174447, -21185.58689184033, -18399.97838735323, 0.644, -0.6980000000000001, 0.388, 192.0, 20.0, 32.0, 234.0, 48.0, 12.0, 32.0, 0.0, 0.0, 0.0, 1.6635864108251047E9, 0.0, 2022-09-19 16:20:10.825
80.0, 16215.16242208033, 41091.17878570304, -15781.583283136284, -9693.549238866477, -187500.02235174447, -187500.02235174447, -21133.842603426292, -18408.673215946343, 0.644, -0.6980000000000001, 0.388, 192.0, 0.0, 0.0, 0.0, 0.0, 0.0, 0.0, 0.0, 0.0, 0.0, 1.6635864108280556E9, 0.0, 2022-09-19 16:20:10.828
81.0, 16199.471497472705, 41080.94168674251, -15790.03224254039, -9692.811631299452, -187500.02235174447, -187500.02235174447, -21155.344981592298, -18406.84037290101, 0.644, -0.6980000000000001, 0.388, 192.0, 0.0, 0.0, 0.0, 0.0, 0.0, 0.0, 0.0, 0.0, 0.0, 1.6635864108321E9, 0.0, 2022-09-19 16:20:10.832
82.0, 16192.274235758096, 41072.96211397197, -15781.650338369649, -9683.133325950304, -187500.02235174447, -187500.02235174447, -21190.437220387128, -18396.089183818007, 0.644, -0.6980000000000001, 0.388, 192.0, 0.0, 0.0, 0.0, 0.0, 0.0, 0.0, 0.0, 0.0, 0.0, 1.6635864108351648E9, 0.0, 2022-09-19 16:20:10.835
83.0, 16207.696939432257, 41069.162317414564, -15779.705736602038, -9684.20620968416, -187500.02235174447, -187500.02235174447, -21184.178731939643, -18401.341843765003, 0.644, -0.6980000000000001, 0.388, 192.0, 0.0, 0.0, 0.0, 0.0, 0.0, 0.0, 0.0, 0.0, 0.0, 1.6635864108390312E9, 0.0, 2022-09-19 16:20:10.839
84.0, 16208.076919087998, 41074.37027387265, -15788.422916939608, -9704.166317482748, -187500.02235174447, -187500.02235174447, -21134.960190649057, -18417.5468584951, 0.644, -0.6980000000000001, 0.388, 192.0, 0.0, 0.0, 0.0, 0.0, 0.0, 0.0, 0.0, 0.0, 0.0, 1.663586410843144E9, 0.0, 2022-09-19 16:20:10.843
85.0, 16211.720253434212, 41084.115634455164, -15792.446230941563, -9698.243105202093, -187500.02235174447, -187500.02235174447, -21071.414181162618, -18410.953093880784, 0.644, -0.6980000000000001, 0.388, 192.0, 0.0, 0.0, 0.0, 0.0, 0.0, 0.0, 0.0, 0.0, 0.0, 1.6635864108470576E9, 0.0, 2022-09-19 16:20:10.847
86.0, 16206.489945231671, 41080.74052104241, -15794.949626320556, -9681.613407327344, -187500.02235174447, -187500.02235174447, -21077.002117276446, -18396.87149487394, 0.644, -0.6980000000000001, 0.388, 192.0, 0.0, 0.0, 0.0, 0.0, 0.0, 0.0, 0.0, 0.0, 0.0, 1.663586410852095E9, 0.0, 2022-09-19 16:20:10.852
87.0, 16205.953503364743, 41069.56464881476, -15790.434573940585, -9684.943817251184, -187500.02235174447, -187500.02235174447, -21107.780469391404, -18401.967692609753, 0.644, -0.6980000000000001, 0.388, 192.0, 0.0, 0.0, 0.0, 0.0, 0.0, 0.0, 0.0, 0.0, 0.0, 1.6635864108560572E9, 0.0, 2022-09-19 16:20:10.856
88.0, 16212.077881345498, 41069.25172439239, -15781.292710458365, -9684.96616899564, -187500.02235174447, -187500.02235174447, -21096.22461750801, -18406.505096734178, 0.644, -0.6980000000000001, 0.388, 192.0, 0.0, 0.0, 0.0, 0.0, 0.0, 0.0, 0.0, 0.0, 0.0, 1.6635864108590596E9, 0.0, 2022-09-19 16:20:10.859
89.0, 16221.532669250093, 41081.79105303181, -15777.470562156506, -9685.659073073753, -187500.02235174447, -187500.02235174447, -21041.30638138132, -18412.473012503746, 0.646, -0.6960000000000001, 0.388, 192.0, 20.0, 48.0, 234.0, 64.0, 12.0, 32.0, 0.0, 0.0, 0.0, 1.6635864108641362E9, 0.0, 2022-09-19 16:20:10.864
90.0, 16228.618172242424, 41096.87848053914, -15777.761134834425, -9684.988520740095, -187500.02235174447, -187500.02235174447, -20968.976136323945, -18405.476916489235, 0.646, -0.6960000000000001, 0.388, 192.0, 0.0, 0.0, 0.0, 0.0, 0.0, 0.0, 0.0, 0.0, 0.0, 1.6635864108681E9, 0.0, 2022-09-19 16:20:10.868
91.0, 16219.789233182579, 41088.8989077686, -15787.774716350403, -9690.308235920458, -187500.02235174447, -187500.02235174447, -20971.971270080958, -18411.377777025435, 0.646, -0.6960000000000001, 0.388, 192.0, 0.0, 0.0, 0.0, 0.0, 0.0, 0.0, 0.0, 0.0, 0.0, 1.6635864108721223E9, 0.0, 2022-09-19 16:20:10.872
92.0, 16210.893238889366, 41073.923238983545, -15791.038071040879, -9687.044881229984, -187500.02235174447, -187500.02235174447, -21005.521238508372, -18407.68973919031, 0.646, -0.6960000000000001, 0.388, 192.0, 0.0, 0.0, 0.0, 0.0, 0.0, 0.0, 0.0, 0.0, 0.0, 1.6635864108761275E9, 0.0, 2022-09-19 16:20:10.876
93.0, 16211.809660412035, 41074.75025352839, -15790.814553596325, -9685.077927717915, -187500.02235174447, -187500.02235174447, -20994.2559593029, -18401.27478853164, 0.646, -0.6960000000000001, 0.388, 192.0, 0.0, 0.0, 0.0, 0.0, 0.0, 0.0, 0.0, 0.0, 0.0, 1.6635864108802063E9, 0.0, 2022-09-19 16:20:10.880
94.0, 16215.810622669534, 41080.87463150914, -15792.64739664166, -9696.857297045863, -187500.02235174447, -187500.02235174447, -20942.690484844505, -18417.233934072727, 0.646, -0.6960000000000001, 0.388, 192.0, 0.0, 0.0, 0.0, 0.0, 0.0, 0.0, 0.0, 0.0, 0.0, 1.6635864108851497E9, 0.0, 2022-09-19 16:20:10.885
95.0, 16224.997189640664, 41095.04563749381, -15792.714451875026, -9704.769814583042, -187500.02235174447, -187500.02235174447, -20865.80048391825, -18425.70524522129, 0.646, -0.6960000000000001, 0.388, 192.0, 0.0, 0.0, 0.0, 0.0, 0.0, 0.0, 0.0, 0.0, 0.0, 1.6635864108891764E9, 0.0, 2022-09-19 16:20:10.889
96.0, 16215.520049991615, 41084.24974492189, -15799.151754278155, -9699.539506380499, -187500.02235174447, -187500.02235174447, -20868.102713597145, -18412.11538459246, 0.646, -0.6960000000000001, 0.388, 192.0, 0.0, 0.0, 0.0, 0.0, 0.0, 0.0, 0.0, 0.0, 0.0, 1.6635864108932073E9, 0.0, 2022-09-19 16:20:10.893
97.0, 16207.78634641008, 41072.06804419375, -15800.537562434383, -9694.622122600333, -187500.02235174447, -187500.02235174447, -20898.679900012005, -18412.78593692612, 0.646, -0.6960000000000001, 0.388, 192.0, 0.0, 0.0, 0.0, 0.0, 0.0, 0.0, 0.0, 0.0, 0.0, 1.6635864108961585E9, 0.0, 2022-09-19 16:20:10.896
98.0, 16206.244076042662, 41070.41401510406, -15801.789260123882, -9696.231448201115, -187500.02235174447, -187500.02235174447, -20888.50985628484, -18414.618779971457, 0.646, -0.6960000000000001, 0.388, 192.0, 0.0, 0.0, 0.0, 0.0, 0.0, 0.0, 0.0, 0.0, 0.0, 1.6635864109001772E9, 0.0, 2022-09-19 16:20:10.900
99.0, 16214.246000557663, 41078.61710531916, -15798.45885020004, -9699.092471491394, -187500.02235174447, -187500.02235174447, -20836.60910565962, -18418.865611417965, 0.644, -0.6960000000000001, 0.378, 192.0, 20.0, 32.0, 234.0, 64.0, 11.0, 208.0, 0.0, 0.0, 0.0, 1.6635864109032872E9, 0.0, 2022-09-19 16:20:10.903
100.0, 16221.64442797237, 41089.569460102255, -15795.55312342085, -9697.550201123977, -187500.02235174447, -187500.02235174447, -20763.2506803573, -18411.78010842563, 0.644, -0.6960000000000001, 0.378, 192.0, 0.0, 0.0, 0.0, 0.0, 0.0, 0.0, 0.0, 0.0, 0.0, 1.66358641090719E9, 0.0, 2022-09-19 16:20:10.907
101.0, 16212.860192401433, 41085.389683889116, -15804.784393880893, -9694.957398767161, -187500.02235174447, -187500.02235174447, -20758.44505529941, -18411.333073536527, 0.644, -0.6960000000000001, 0.378, 192.0, 0.0, 0.0, 0.0, 0.0, 0.0, 0.0, 0.0, 0.0, 0.0, 1.6635864109111462E9, 0.0, 2022-09-19 16:20:10.911
102.0, 16203.427756241294, 41070.16814591505, -15807.623065426716, -9694.666826089242, -187500.02235174447, -187500.02235174447, -20791.413878370986, -18414.931704393828, 0.644, -0.6960000000000001, 0.378, 192.0, 0.0, 0.0, 0.0, 0.0, 0.0, 0.0, 0.0, 0.0, 0.0, 1.6635864109152448E9, 0.0, 2022-09-19 16:20:10.915
103.0, 16203.338349263473, 41068.51411682536, -15804.896152603169, -9703.652227360277, -187500.02235174447, -187500.02235174447, -20784.082506189647, -18423.850050431498, 0.644, -0.6960000000000001, 0.378, 192.0, 0.0, 0.0, 0.0, 0.0, 0.0, 0.0, 0.0, 0.0, 0.0, 1.6635864109201996E9, 0.0, 2022-09-19 16:20:10.920
104.0, 16212.748433679157, 41078.08066345223, -15804.873800858713, -9706.692064606199, -187500.02235174447, -187500.02235174447, -20732.78525266472, -18425.593486499012, 0.644, -0.6960000000000001, 0.378, 192.0, 0.0, 0.0, 0.0, 0.0, 0.0, 0.0, 0.0, 0.0, 0.0, 1.6635864109231856E9, 0.0, 2022-09-19 16:20:10.923
105.0, 16219.16338433783, 41087.46839612346, -15805.678463659104, -9703.182840726715, -187500.02235174447, -187500.02235174447, -20661.438484363378, -18428.11923362246, 0.644, -0.6960000000000001, 0.378, 192.0, 0.0, 0.0, 0.0, 0.0, 0.0, 0.0, 0.0, 0.0, 0.0, 1.6635864109262168E9, 0.0, 2022-09-19 16:20:10.926
106.0, 16210.87088714491, 41076.56074482927, -15813.099242818267, -9704.434538416212, -187500.02235174447, -187500.02235174447, -20658.95744072884, -18418.30681780658, 0.644, -0.6960000000000001, 0.378, 192.0, 0.0, 0.0, 0.0, 0.0, 0.0, 0.0, 0.0, 0.0, 0.0, 1.6635864109313393E9, 0.0, 2022-09-19 16:20:10.931
107.0, 16202.086651573974, 41065.31781736825, -15815.759100408448, -9704.412186671756, -187500.02235174447, -187500.02235174447, -20689.355813188056, -18428.946248167307, 0.644, -0.6960000000000001, 0.378, 192.0, 0.0, 0.0, 0.0, 0.0, 0.0, 0.0, 0.0, 0.0, 0.0, 1.6635864109352612E9, 0.0, 2022-09-19 16:20:10.935
108.0, 16203.405404496838, 41064.691968523504, -15808.338321249286, -9707.519079151045, -187500.02235174447, -187500.02235174447, -20678.13523747149, -18437.5516697826, 0.644, -0.6960000000000001, 0.378, 192.0, 0.0, 0.0, 0.0, 0.0, 0.0, 0.0, 0.0, 0.0, 0.0, 1.663586410939278E9, 0.0, 2022-09-19 16:20:10.939
109.0, 16211.653198200847, 41075.89019249561, -15799.151754278155, -9706.200326228181, -187500.02235174447, -187500.02235174447, -20623.954608911827, -18428.61097200048, 0.642, -0.6940000000000001, 0.382, 192.0, 20.0, 16.0, 234.0, 80.0, 11.0, 240.0, 0.0, 0.0, 0.0, 1.6635864109433613E9, 0.0, 2022-09-19 16:20:10.943
110.0, 16225.667741974325, 41095.49267238291, -15795.419012954118, -9705.999160528083, -187500.02235174447, -187500.02235174447, -20547.086959730026, -18422.061910875072, 0.642, -0.6940000000000001, 0.382, 192.0, 0.0, 0.0, 0.0, 0.0, 0.0, 0.0, 0.0, 0.0, 0.0, 1.663586410947343E9, 0.0, 2022-09-19 16:20:10.947
111.0, 16221.130337849896, 41095.49267238291, -15800.716376390026, -9697.907829035263, -187500.02235174447, -187500.02235174447, -20535.35229389099, -18424.520602765155, 0.642, -0.6940000000000001, 0.382, 192.0, 0.0, 0.0, 0.0, 0.0, 0.0, 0.0, 0.0, 0.0, 0.0, 1.6635864109522595E9, 0.0, 2022-09-19 16:20:10.952
112.0, 16208.25573304364, 41082.26043966537, -15800.26934150092, -9691.649340587777, -187500.02235174447, -187500.02235174447, -20570.109256518994, -18419.804384685085, 0.642, -0.6940000000000001, 0.382, 192.0, 0.0, 0.0, 0.0, 0.0, 0.0, 0.0, 0.0, 0.0, 0.0, 1.6635864109562507E9, 0.0, 2022-09-19 16:20:10.956
113.0, 16208.903933632844, 41082.372198387646, -15795.821344354314, -9691.515230121044, -187500.02235174447, -187500.02235174447, -20565.281279716644, -18420.229067829736, 0.642, -0.6940000000000001, 0.382, 192.0, 0.0, 0.0, 0.0, 0.0, 0.0, 0.0, 0.0, 0.0, 0.0, 1.663586410960317E9, 0.0, 2022-09-19 16:20:10.960
114.0, 16210.06622434452, 41084.205041432986, -15800.246989756464, -9695.940875523196, -187500.02235174447, -187500.02235174447, -20525.226953652735, -18426.532259766132, 0.642, -0.6940000000000001, 0.382, 192.0, 0.0, 0.0, 0.0, 0.0, 0.0, 0.0, 0.0, 0.0, 0.0, 1.6635864109642851E9, 0.0, 2022-09-19 16:20:10.964
115.0, 16218.403425026348, 41097.1019979837, -15798.816478111325, -9690.174125453726, -187500.02235174447, -187500.02235174447, -20453.43315046229, -18411.400128769892, 0.642, -0.6940000000000001, 0.382, 192.0, 0.0, 0.0, 0.0, 0.0, 0.0, 0.0, 0.0, 0.0, 0.0, 1.663586410968299E9, 0.0, 2022-09-19 16:20:10.968
116.0, 16213.195468568263, 41096.87848053914, -15801.431632212596, -9686.083756218404, -187500.02235174447, -187500.02235174447, -20442.369036956912, -18404.962826366762, 0.642, -0.6940000000000001, 0.382, 192.0, 0.0, 0.0, 0.0, 0.0, 0.0, 0.0, 0.0, 0.0, 0.0, 1.6635864109732585E9, 0.0, 2022-09-19 16:20:10.973
117.0, 16208.568657466014, 41083.489785610414, -15805.544353192372, -9693.772756311031, -187500.02235174447, -187500.02235174447, -20480.32229904202, -18412.338902037012, 0.642, -0.6940000000000001, 0.382, 192.0, 0.0, 0.0, 0.0, 0.0, 0.0, 0.0, 0.0, 0.0, 0.0, 1.6635864109773307E9, 0.0, 2022-09-19 16:20:10.977
118.0, 16210.513259233627, 41079.55587858628, -15801.096356045766, -9691.716395821142, -187500.02235174447, -187500.02235174447, -20482.44571476528, -18421.570172497057, 0.642, -0.6940000000000001, 0.382, 192.0, 0.0, 0.0, 0.0, 0.0, 0.0, 0.0, 0.0, 0.0, 0.0, 1.6635864109803123E9, 0.0, 2022-09-19 16:20:10.980
119.0, 16217.531706992593, 41082.238087920916, -15797.36361472173, -9693.4374801442, -187500.02235174447, -187500.02235174447, -20446.28059223659, -18433.68481799183, 0.648, -0.6900000000000001, 0.386, 192.0, 20.0, 64.0, 234.0, 112.0, 12.0, 16.0, 0.0, 0.0, 0.0, 1.663586410984322E9, 0.0, 2022-09-19 16:20:10.984
120.0, 16228.506413520148, 41091.49171012542, -15802.929199091102, -9696.074985989928, -187500.02235174447, -187500.02235174447, -20383.583949039454, -18424.006512642685, 0.648, -0.6900000000000001, 0.386, 192.0, 0.0, 0.0, 0.0, 0.0, 0.0, 0.0, 0.0, 0.0, 0.0, 1.6635864109874609E9, 0.0, 2022-09-19 16:20:10.987
121.0, 16223.92430590681, 41085.9484775005, -15808.204210782555, -9695.002102256072, -187500.02235174447, -187500.02235174447, -20376.386687324844, -18413.50119274869, 0.648, -0.6900000000000001, 0.386, 192.0, 0.0, 0.0, 0.0, 0.0, 0.0, 0.0, 0.0, 0.0, 0.0, 1.6635864109913473E9, 0.0, 2022-09-19 16:20:10.991
122.0, 16212.63667495688, 41070.65988429307, -15805.991388081478, -9700.254762203069, -187500.02235174447, -187500.02235174447, -20417.08921397796, -18427.068701633063, 0.648, -0.6900000000000001, 0.386, 192.0, 0.0, 0.0, 0.0, 0.0, 0.0, 0.0, 0.0, 0.0, 0.0, 1.6635864109954057E9, 0.0, 2022-09-19 16:20:10.995
123.0, 16206.53464872058, 41065.384872601615, -15805.678463659104, -9710.58126814142, -187500.02235174447, -187500.02235174447, -20421.716025080208, -18439.89860295041, 0.648, -0.6900000000000001, 0.386, 192.0, 0.0, 0.0, 0.0, 0.0, 0.0, 0.0, 0.0, 0.0, 0.0, 1.6635864109994037E9, 0.0, 2022-09-19 16:20:10.999
124.0, 16209.216858055219, 41069.69875928149, -15803.532696191394, -9698.846602302385, -187500.02235174447, -187500.02235174447, -20384.32155660648, -18424.27473357615, 0.648, -0.6900000000000001, 0.386, 192.0, 0.0, 0.0, 0.0, 0.0, 0.0, 0.0, 0.0, 0.0, 0.0, 1.6635864110034711E9, 0.0, 2022-09-19 16:20:11.003
125.0, 16213.150765079352, 41080.27113440885, -15807.153678793155, -9710.178936741226, -187500.02235174447, -187500.02235174447, -20314.584113905923, -18432.67898949134, 0.648, -0.6900000000000001, 0.386, 192.0, 0.0, 0.0, 0.0, 0.0, 0.0, 0.0, 0.0, 0.0, 0.0, 1.6635864110074081E9, 0.0, 2022-09-19 16:20:11.007
126.0, 16209.82035515551, 41077.5442215853, -15814.46269923004, -9708.502555907078, -187500.02235174447, -187500.02235174447, -20298.557913131466, -18438.490443049723, 0.648, -0.6900000000000001, 0.386, 192.0, 0.0, 0.0, 0.0, 0.0, 0.0, 0.0, 0.0, 0.0, 0.0, 1.663586411010416E9, 0.0, 2022-09-19 16:20:11.010
127.0, 16204.053605086043, 41067.8435644917, -15814.239181785488, -9703.965151782651, -187500.02235174447, -187500.02235174447, -20329.4480239687, -18432.164899368872, 0.648, -0.6900000000000001, 0.386, 192.0, 0.0, 0.0, 0.0, 0.0, 0.0, 0.0, 0.0, 0.0, 0.0, 1.663586411014371E9, 0.0, 2022-09-19 16:20:11.014
128.0, 16199.270331772606, 41060.13221265462, -15815.334417263797, -9701.528811637023, -187500.02235174447, -187500.02235174447, -20332.30904725898, -18434.712998236777, 0.648, -0.6900000000000001, 0.386, 192.0, 0.0, 0.0, 0.0, 0.0, 0.0, 0.0, 0.0, 0.0, 0.0, 1.6635864110194762E9, 0.0, 2022-09-19 16:20:11.019
129.0, 16205.752337664646, 41067.82121274724, -15809.210039283043, -9703.227544215626, -187500.02235174447, -187500.02235174447, -20286.957357759162, -18429.326227823047, 0.648, -0.6900000000000001, 0.388, 192.0, 20.0, 64.0, 234.0, 112.0, 12.0, 32.0, 0.0, 0.0, 0.0, 1.6635864110234337E9, 0.0, 2022-09-19 16:20:11.023
130.0, 16218.49283200417, 41085.56849784476, -15806.527829948405, -9697.907829035263, -187500.02235174447, -187500.02235174447, -20209.262694032514, -18422.128966108437, 0.648, -0.6900000000000001, 0.388, 192.0, 0.0, 0.0, 0.0, 0.0, 0.0, 0.0, 0.0, 0.0, 0.0, 1.6635864110274055E9, 0.0, 2022-09-19 16:20:11.027
131.0, 16215.92238139181, 41090.10590196918, -15812.875725373713, -9695.359730167358, -187500.02235174447, -187500.02235174447, -20184.340498964848, -18421.570172497057, 0.648, -0.6900000000000001, 0.388, 192.0, 0.0, 0.0, 0.0, 0.0, 0.0, 0.0, 0.0, 0.0, 0.0, 1.663586411031428E9, 0.0, 2022-09-19 16:20:11.031
132.0, 16207.272256287606, 41077.58892507421, -15814.730920163503, -9701.528811637023, -187500.02235174447, -187500.02235174447, -20217.398729014247, -18435.450605803802, 0.648, -0.6900000000000001, 0.388, 192.0, 0.0, 0.0, 0.0, 0.0, 0.0, 0.0, 0.0, 0.0, 0.0, 1.663586411035364E9, 0.0, 2022-09-19 16:20:11.035
133.0, 16206.44524174276, 41080.24878266439, -15810.618199183727, -9707.16145123976, -187500.02235174447, -187500.02235174447, -20214.917685379707, -18446.492367564722, 0.648, -0.6900000000000001, 0.388, 192.0, 0.0, 0.0, 0.0, 0.0, 0.0, 0.0, 0.0, 0.0, 0.0, 1.66358641104042E9, 0.0, 2022-09-19 16:20:11.040
134.0, 16214.268352302117, 41091.69287582551, -15804.94085609208, -9694.979750511617, -187500.02235174447, -187500.02235174447, -20168.783684823953, -18429.728559223244, 0.648, -0.6900000000000001, 0.388, 192.0, 0.0, 0.0, 0.0, 0.0, 0.0, 0.0, 0.0, 0.0, 0.0, 1.663586411044423E9, 0.0, 2022-09-19 16:20:11.044
135.0, 16225.421872785315, 41105.37214343216, -15805.276132258909, -9699.226581958126, -187500.02235174447, -187500.02235174447, -20093.12302984274, -18424.632361487435, 0.648, -0.6900000000000001, 0.388, 192.0, 0.0, 0.0, 0.0, 0.0, 0.0, 0.0, 0.0, 0.0, 0.0, 1.663586411048558E9, 0.0, 2022-09-19 16:20:11.048
136.0, 16221.9797041392, 41105.70741959899, -15813.881553874202, -9705.395663427791, -187500.02235174447, -187500.02235174447, -20066.747971385477, -18434.780053470142, 0.648, -0.6900000000000001, 0.388, 192.0, 0.0, 0.0, 0.0, 0.0, 0.0, 0.0, 0.0, 0.0, 0.0, 1.6635864110524747E9, 0.0, 2022-09-19 16:20:11.052
137.0, 16212.971951123709, 41094.46449213797, -15814.395643996675, -9693.236314444102, -187500.02235174447, -187500.02235174447, -20100.856733424276, -18424.185326598326, 0.648, -0.6900000000000001, 0.388, 192.0, 0.0, 0.0, 0.0, 0.0, 0.0, 0.0, 0.0, 0.0, 0.0, 1.66358641105743E9, 0.0, 2022-09-19 16:20:11.057
138.0, 16213.597799968458, 41096.565556116766, -15808.584190438294, -9686.463735874146, -187500.02235174447, -187500.02235174447, -20103.471887525546, -18417.16687883936, 0.648, -0.6900000000000001, 0.388, 192.0, 0.0, 0.0, 0.0, 0.0, 0.0, 0.0, 0.0, 0.0, 0.0, 1.6635864110604885E9, 0.0, 2022-09-19 16:20:11.060
139.0, 16216.771747681112, 41102.578175375245, -15808.27126601592, -9691.91756152124, -187500.02235174447, -187500.02235174447, -20069.296070253382, -18417.5468584951, 0.65, -0.6880000000000001, 0.39, 192.0, 20.0, 80.0, 234.0, 128.0, 12.0, 48.0, 0.0, 0.0, 0.0, 1.6635864110635211E9, 0.0, 2022-09-19 16:20:11.063
140.0, 16223.92430590681, 41115.11750401468, -15802.504515946452, -9689.950608009172, -187500.02235174447, -187500.02235174447, -20002.8219822433, -18417.50215500619, 0.65, -0.6880000000000001, 0.39, 192.0, 0.0, 0.0, 0.0, 0.0, 0.0, 0.0, 0.0, 0.0, 0.0, 1.6635864110664911E9, 0.0, 2022-09-19 16:20:11.066
141.0, 16214.089538346476, 41106.981469032944, -15807.08662355979, -9700.63474185881, -187500.02235174447, -187500.02235174447, -19984.940586679055, -18429.102710378495, 0.65, -0.6880000000000001, 0.39, 192.0, 0.0, 0.0, 0.0, 0.0, 0.0, 0.0, 0.0, 0.0, 0.0, 1.6635864110704448E9, 0.0, 2022-09-19 16:20:11.070
142.0, 16201.237285284673, 41088.317762412764, -15810.104109061254, -9695.136212722804, -187500.02235174447, -187500.02235174447, -20028.124156966707, -18429.437986545323, 0.65, -0.6880000000000001, 0.39, 192.0, 0.0, 0.0, 0.0, 0.0, 0.0, 0.0, 0.0, 0.0, 0.0, 1.6635864110754983E9, 0.0, 2022-09-19 16:20:11.075
143.0, 16204.321826019506, 41085.36733214466, -15799.062347300334, -9688.855372530863, -187500.02235174447, -187500.02235174447, -20040.90935479514, -18429.706207478786, 0.65, -0.6880000000000001, 0.39, 192.0, 0.0, 0.0, 0.0, 0.0, 0.0, 0.0, 0.0, 0.0, 0.0, 1.6635864110795164E9, 0.0, 2022-09-19 16:20:11.079
144.0, 16209.239209799673, 41090.10590196918, -15799.665844400626, -9699.450099402678, -187500.02235174447, -187500.02235174447, -20011.896790492152, -18446.64882977591, 0.65, -0.6880000000000001, 0.39, 192.0, 0.0, 0.0, 0.0, 0.0, 0.0, 0.0, 0.0, 0.0, 0.0, 1.6635864110834413E9, 0.0, 2022-09-19 16:20:11.083
145.0, 16217.375244781406, 41095.82794854975, -15805.946684592569, -9695.91852377874, -187500.02235174447, -187500.02235174447, -19953.625792697167, -18437.015227915672, 0.65, -0.6880000000000001, 0.39, 192.0, 0.0, 0.0, 0.0, 0.0, 0.0, 0.0, 0.0, 0.0, 0.0, 1.6635864110865521E9, 0.0, 2022-09-19 16:20:11.086
146.0, 16220.906820405344, 41098.19723346201, -15805.387890981185, -9681.769869538532, -187500.02235174447, -187500.02235174447, -19931.542269175323, -18419.826736429543, 0.65, -0.6880000000000001, 0.39, 192.0, 0.0, 0.0, 0.0, 0.0, 0.0, 0.0, 0.0, 0.0, 0.0, 1.6635864110905745E9, 0.0, 2022-09-19 16:20:11.090
147.0, 16213.173116823808, 41084.674428066544, -15807.131327048699, -9683.334491650403, -187500.02235174447, -187500.02235174447, -19976.80455169732, -18420.474937018746, 0.65, -0.6880000000000001, 0.39, 192.0, 0.0, 0.0, 0.0, 0.0, 0.0, 0.0, 0.0, 0.0, 0.0, 1.6635864110945396E9, 0.0, 2022-09-19 16:20:11.094
148.0, 16203.695977174757, 41079.93585824202, -15803.197420024566, -9679.288825903992, -187500.02235174447, -187500.02235174447, -19995.021223428397, -18417.613913728466, 0.65, -0.6880000000000001, 0.39, 192.0, 0.0, 0.0, 0.0, 0.0, 0.0, 0.0, 0.0, 0.0, 0.0, 1.6635864110984848E9, 0.0, 2022-09-19 16:20:11.098
149.0, 16215.765919180623, 41083.93682049952, -15791.283940229887, -9676.24898865807, -187500.02235174447, -187500.02235174447, -19970.56841499429, -18419.044425373606, 0.656, -0.6940000000000001, 0.394, 192.0, 20.0, 128.0, 234.0, 80.0, 12.0, 80.0, 0.0, 0.0, 0.0, 1.6635864111035292E9, 0.0, 2022-09-19 16:20:11.103
150.0, 16223.566677995525, 41089.7482740579, -15790.367518707219, -9680.562875337944, -187500.02235174447, -187500.02235174447, -19913.526763144346, -18422.26307657517, 0.656, -0.6940000000000001, 0.394, 192.0, 0.0, 0.0, 0.0, 0.0, 0.0, 0.0, 0.0, 0.0, 0.0, 1.6635864111075196E9, 0.0, 2022-09-19 16:20:11.107
151.0, 16214.246000557663, 41083.422730377046, -15801.923370590614, -9677.903017747763, -187500.02235174447, -187500.02235174447, -19894.483076868426, -18415.736367194222, 0.656, -0.6940000000000001, 0.394, 192.0, 0.0, 0.0, 0.0, 0.0, 0.0, 0.0, 0.0, 0.0, 0.0, 1.663586411111554E9, 0.0, 2022-09-19 16:20:11.111
152.0, 16202.623093440903, 41067.46358483596, -15804.203248525055, -9676.897189247275, -187500.02235174447, -187500.02235174447, -19934.447995954513, -18412.249495059194, 0.656, -0.6940000000000001, 0.394, 192.0, 0.0, 0.0, 0.0, 0.0, 0.0, 0.0, 0.0, 0.0, 0.0, 1.6635864111156404E9, 0.0, 2022-09-19 16:20:11.115
153.0, 16202.690148674268, 41057.96409344245, -15795.21784725402, -9672.292729889481, -187500.02235174447, -187500.02235174447, -19955.101007831217, -18413.747061937698, 0.656, -0.6940000000000001, 0.394, 192.0, 0.0, 0.0, 0.0, 0.0, 0.0, 0.0, 0.0, 0.0, 0.0, 1.663586411119599E9, 0.0, 2022-09-19 16:20:11.119
154.0, 16208.412195254827, 41056.33241609722, -15791.865085585725, -9674.90788399075, -187500.02235174447, -187500.02235174447, -19936.794929122323, -18416.473974761248, 0.656, -0.6940000000000001, 0.394, 192.0, 0.0, 0.0, 0.0, 0.0, 0.0, 0.0, 0.0, 0.0, 0.0, 1.6635864111235287E9, 0.0, 2022-09-19 16:20:11.123
155.0, 16218.135204092885, 41064.53550631231, -15794.83786759828, -9676.539561335989, -187500.02235174447, -187500.02235174447, -19879.395649361093, -18426.644018488412, 0.656, -0.6940000000000001, 0.394, 192.0, 0.0, 0.0, 0.0, 0.0, 0.0, 0.0, 0.0, 0.0, 0.0, 1.6635864111286268E9, 0.0, 2022-09-19 16:20:11.128
156.0, 16220.795061683068, 41070.07873893723, -15795.106088531744, -9677.120706691827, -187500.02235174447, -187500.02235174447, -19849.243146090885, -18425.437024287825, 0.656, -0.6940000000000001, 0.394, 192.0, 0.0, 0.0, 0.0, 0.0, 0.0, 0.0, 0.0, 0.0, 0.0, 1.6635864111325843E9, 0.0, 2022-09-19 16:20:11.132
157.0, 16213.329579034995, 41061.02628243283, -15789.764021606927, -9680.048785215473, -187500.02235174447, -187500.02235174447, -19882.323727884737, -18424.74412020971, 0.656, -0.6940000000000001, 0.394, 192.0, 0.0, 0.0, 0.0, 0.0, 0.0, 0.0, 0.0, 0.0, 0.0, 1.6635864111355753E9, 0.0, 2022-09-19 16:20:11.135
158.0, 16205.551171964547, 41049.04574740479, -15790.166353007122, -9667.44240134268, -187500.02235174447, -187500.02235174447, -19905.748356073902, -18419.893791662907, 0.656, -0.6940000000000001, 0.394, 192.0, 0.0, 0.0, 0.0, 0.0, 0.0, 0.0, 0.0, 0.0, 0.0, 1.6635864111406355E9, 0.0, 2022-09-19 16:20:11.140
159.0, 16206.333483020484, 41041.66967173453, -15791.730975118993, -9675.980767724606, -187500.02235174447, -187500.02235174447, -19887.486980853915, -18429.50504177869, 0.65, -0.6920000000000001, 0.39, 192.0, 20.0, 80.0, 234.0, 96.0, 12.0, 48.0, 0.0, 0.0, 0.0, 1.663586411144602E9, 0.0, 2022-09-19 16:20:11.144
160.0, 16216.145898836363, 41052.19734337299, -15788.713489617527, -9667.509456576045, -187500.02235174447, -187500.02235174447, -19825.192669056974, -18427.873364433453, 0.65, -0.6920000000000001, 0.39, 192.0, 0.0, 0.0, 0.0, 0.0, 0.0, 0.0, 0.0, 0.0, 0.0, 1.6635864111475935E9, 0.0, 2022-09-19 16:20:11.147
161.0, 16214.938904635777, 41051.59384627269, -15798.235332755487, -9671.510418833544, -187500.02235174447, -187500.02235174447, -19796.358918709626, -18430.376759812447, 0.65, -0.6920000000000001, 0.39, 192.0, 0.0, 0.0, 0.0, 0.0, 0.0, 0.0, 0.0, 0.0, 0.0, 1.6635864111506195E9, 0.0, 2022-09-19 16:20:11.150
162.0, 16201.460802729227, 41030.69496520698, -15802.213943268533, -9671.041032199983, -187500.02235174447, -187500.02235174447, -19838.514308752336, -18411.55659098108, 0.65, -0.6920000000000001, 0.39, 192.0, 0.0, 0.0, 0.0, 0.0, 0.0, 0.0, 0.0, 0.0, 0.0, 1.663586411154608E9, 0.0, 2022-09-19 16:20:11.154
163.0, 16195.984625337676, 41015.540482466284, -15801.31987349032, -9675.801953768963, -187500.02235174447, -187500.02235174447, -19863.525910797824, -18424.788823698622, 0.65, -0.6920000000000001, 0.39, 192.0, 0.0, 0.0, 0.0, 0.0, 0.0, 0.0, 0.0, 0.0, 0.0, 1.6635864111585996E9, 0.0, 2022-09-19 16:20:11.158
164.0, 16199.426793983794, 41014.579357454706, -15803.26447525793, -9674.304386890459, -187500.02235174447, -187500.02235174447, -19841.844718676177, -18421.83839343052, 0.65, -0.6920000000000001, 0.39, 192.0, 0.0, 0.0, 0.0, 0.0, 0.0, 0.0, 0.0, 0.0, 0.0, 1.6635864111635995E9, 0.0, 2022-09-19 16:20:11.163
165.0, 16207.920456876811, 41022.670688947524, -15799.375271722707, -9673.410317112246, -187500.02235174447, -187500.02235174447, -19779.751572579335, -18424.051216131596, 0.65, -0.6920000000000001, 0.39, 192.0, 0.0, 0.0, 0.0, 0.0, 0.0, 0.0, 0.0, 0.0, 0.0, 1.663586411167658E9, 0.0, 2022-09-19 16:20:11.167
166.0, 16205.238247542173, 41024.32471803722, -15803.063309557834, -9684.228561428614, -187500.02235174447, -187500.02235174447, -19740.971295949377, -18436.36702732647, 0.65, -0.6920000000000001, 0.39, 192.0, 0.0, 0.0, 0.0, 0.0, 0.0, 0.0, 0.0, 0.0, 0.0, 1.6635864111706424E9, 0.0, 2022-09-19 16:20:11.170
167.0, 16194.643520670357, 41010.33252600819, -15808.204210782555, -9686.262570174047, -187500.02235174447, -187500.02235174447, -19775.884720788566, -18426.822832444053, 0.65, -0.6920000000000001, 0.39, 192.0, 0.0, 0.0, 0.0, 0.0, 0.0, 0.0, 0.0, 0.0, 0.0, 1.6635864111746252E9, 0.0, 2022-09-19 16:20:11.174
168.0, 16193.34711949195, 41001.54829043726, -15804.158545036144, -9680.160543937749, -187500.02235174447, -187500.02235174447, -19796.649491387547, -18419.73732945172, 0.65, -0.6920000000000001, 0.39, 192.0, 0.0, 0.0, 0.0, 0.0, 0.0, 0.0, 0.0, 0.0, 0.0, 1.6635864111786432E9, 0.0, 2022-09-19 16:20:11.178
169.0, 16194.911741603823, 41004.34225849417, -15806.12549854821, -9674.371442123824, -187500.02235174447, -187500.02235174447, -19772.956642264922, -18420.519640507657, 0.648, -0.6940000000000001, 0.39, 192.0, 20.0, 64.0, 234.0, 80.0, 12.0, 48.0, 0.0, 0.0, 0.0, 1.6635864111826928E9, 0.0, 2022-09-19 16:20:11.182
170.0, 16200.499677717648, 41017.66389818954, -15807.399547982162, -9676.070174702427, -187500.02235174447, -187500.02235174447, -19708.427156022448, -18426.040521388117, 0.648, -0.6940000000000001, 0.39, 192.0, 0.0, 0.0, 0.0, 0.0, 0.0, 0.0, 0.0, 0.0, 0.0, 1.6635864111866827E9, 0.0, 2022-09-19 16:20:11.186
171.0, 16207.763994665624, 41031.007889629356, -15804.27030375842, -9674.617311312832, -187500.02235174447, -187500.02235174447, -19659.141559498497, -18417.144527094904, 0.648, -0.6940000000000001, 0.39, 192.0, 0.0, 0.0, 0.0, 0.0, 0.0, 0.0, 0.0, 0.0, 0.0, 1.6635864111920552E9, 0.0, 2022-09-19 16:20:11.192
172.0, 16199.627959683892, 41025.755229682356, -15807.198382282066, -9673.879703745808, -187500.02235174447, -187500.02235174447, -19684.533141199725, -18417.92683815084, 0.648, -0.6940000000000001, 0.39, 192.0, 0.0, 0.0, 0.0, 0.0, 0.0, 0.0, 0.0, 0.0, 0.0, 1.6635864111957006E9, 0.0, 2022-09-19 16:20:11.195
173.0, 16190.575503179492, 41016.54631096677, -15806.170202037121, -9669.34229962138, -187500.02235174447, -187500.02235174447, -19707.37662403305, -18414.55172473809, 0.648, -0.6940000000000001, 0.39, 192.0, 0.0, 0.0, 0.0, 0.0, 0.0, 0.0, 0.0, 0.0, 0.0, 1.6635864111996727E9, 0.0, 2022-09-19 16:20:11.199
174.0, 16202.868962629911, 41022.00013661387, -15793.563818164328, -9664.424915841213, -187500.02235174447, -187500.02235174447, -19686.164818544963, -18399.6431111864, 0.648, -0.6940000000000001, 0.39, 192.0, 0.0, 0.0, 0.0, 0.0, 0.0, 0.0, 0.0, 0.0, 0.0, 1.66358641120384E9, 0.0, 2022-09-19 16:20:11.203
175.0, 16215.810622669534, 41031.45492451846, -15790.702794874049, -9672.87387524532, -187500.02235174447, -187500.02235174447, -19627.446785860873, -18414.46231776027, 0.648, -0.6940000000000001, 0.39, 192.0, 0.0, 0.0, 0.0, 0.0, 0.0, 0.0, 0.0, 0.0, 0.0, 1.663586411207733E9, 0.0, 2022-09-19 16:20:11.207
176.0, 16215.140070335874, 41035.29942456477, -15801.252818256953, -9682.01573872754, -187500.02235174447, -187500.02235174447, -19583.123276606, -18421.145489352406, 0.648, -0.6940000000000001, 0.39, 192.0, 0.0, 0.0, 0.0, 0.0, 0.0, 0.0, 0.0, 0.0, 0.0, 1.6635864112117352E9, 0.0, 2022-09-19 16:20:11.211
177.0, 16203.763032408124, 41020.83784590219, -15809.679425916604, -9675.91371249124, -187500.02235174447, -187500.02235174447, -19618.193163656375, -18421.79368994161, 0.648, -0.6940000000000001, 0.39, 192.0, 0.0, 0.0, 0.0, 0.0, 0.0, 0.0, 0.0, 0.0, 0.0, 1.663586411216664E9, 0.0, 2022-09-19 16:20:11.216
178.0, 16201.885485873878, 41012.0312585868, -15803.55504793585, -9672.382136867302, -187500.02235174447, -187500.02235174447, -19647.94333552639, -18415.714015449765, 0.648, -0.6940000000000001, 0.39, 192.0, 0.0, 0.0, 0.0, 0.0, 0.0, 0.0, 0.0, 0.0, 0.0, 1.663586411220822E9, 0.0, 2022-09-19 16:20:11.220
179.0, 16205.148840564352, 41014.53465396579, -15800.470507201018, -9674.863180501841, -187500.02235174447, -187500.02235174447, -19634.018198730733, -18412.338902037012, 0.648, -0.6940000000000001, 0.39, 192.0, 0.0, 0.0, 0.0, 0.0, 0.0, 0.0, 0.0, 0.0, 0.0, 1.6635864112237628E9, 0.0, 2022-09-19 16:20:11.223
180.0, 16213.463689501727, 41025.934043638, -15798.257684499942, -9685.614369584844, -187500.02235174447, -187500.02235174447, -19577.15536083643, -18420.430233529834, 0.644, -0.6920000000000001, 0.39, 192.0, 20.0, 32.0, 234.0, 96.0, 12.0, 48.0, 0.0, 0.0, 0.0, 1.6635864112277231E9, 0.0, 2022-09-19 16:20:11.227
181.0, 16214.380111024395, 41029.957357639956, -15804.60557992525, -9696.186744712204, -187500.02235174447, -187500.02235174447, -19533.122424259476, -18423.47007077576, 0.644, -0.6920000000000001, 0.39, 192.0, 0.0, 0.0, 0.0, 0.0, 0.0, 0.0, 0.0, 0.0, 0.0, 1.6635864112307553E9, 0.0, 2022-09-19 16:20:11.230
182.0, 16204.098308574952, 41015.49577897737, -15815.692045175081, -9696.946704023685, -187500.02235174447, -187500.02235174447, -19563.67725892988, -18424.855878931987, 0.644, -0.6920000000000001, 0.39, 192.0, 0.0, 0.0, 0.0, 0.0, 0.0, 0.0, 0.0, 0.0, 0.0, 1.6635864112348268E9, 0.0, 2022-09-19 16:20:11.234
183.0, 16200.119698061908, 41007.47150271791, -15810.729957906004, -9695.20326795617, -187500.02235174447, -187500.02235174447, -19594.12033487801, -18427.582791755533, 0.644, -0.6920000000000001, 0.39, 192.0, 0.0, 0.0, 0.0, 0.0, 0.0, 0.0, 0.0, 0.0, 0.0, 1.6635864112387693E9, 0.0, 2022-09-19 16:20:11.238
184.0, 16203.45010798575, 41008.142055051576, -15805.633760170194, -9685.368500395834, -187500.02235174447, -187500.02235174447, -19580.217549826808, -18426.040521388117, 0.644, -0.6920000000000001, 0.39, 192.0, 0.0, 0.0, 0.0, 0.0, 0.0, 0.0, 0.0, 0.0, 0.0, 1.6635864112428021E9, 0.0, 2022-09-19 16:20:11.242
185.0, 16209.283913288584, 41019.00500285685, -15803.108013046744, -9689.213000442149, -187500.02235174447, -187500.02235174447, -19524.62876136646, -18431.136719123926, 0.644, -0.6920000000000001, 0.39, 192.0, 0.0, 0.0, 0.0, 0.0, 0.0, 0.0, 0.0, 0.0, 0.0, 1.6635864112477863E9, 0.0, 2022-09-19 16:20:11.247
186.0, 16216.816451170023, 41033.60069198617, -15806.281960759397, -9689.078889975417, -187500.02235174447, -187500.02235174447, -19470.202263617786, -18417.435099772825, 0.644, -0.6920000000000001, 0.39, 192.0, 0.0, 0.0, 0.0, 0.0, 0.0, 0.0, 0.0, 0.0, 0.0, 1.6635864112508025E9, 0.0, 2022-09-19 16:20:11.250
187.0, 16207.048738843054, 41026.53754073829, -15813.054539329356, -9692.5881138549, -187500.02235174447, -187500.02235174447, -19494.990348218722, -18426.93459116633, 0.644, -0.6920000000000001, 0.39, 192.0, 0.0, 0.0, 0.0, 0.0, 0.0, 0.0, 0.0, 0.0, 0.0, 1.6635864112538042E9, 0.0, 2022-09-19 16:20:11.253
188.0, 16196.990453838165, 41014.82522664371, -15814.574457952316, -9693.593942355388, -187500.02235174447, -187500.02235174447, -19526.685121856346, -18425.660541732377, 0.644, -0.6920000000000001, 0.39, 192.0, 0.0, 0.0, 0.0, 0.0, 0.0, 0.0, 0.0, 0.0, 0.0, 1.6635864112588453E9, 0.0, 2022-09-19 16:20:11.258
189.0, 16197.370433493905, 41012.92532836501, -15808.94181834958, -9691.470526632134, -187500.02235174447, -187500.02235174447, -19514.570476361572, -18412.696529948298, 0.644, -0.6920000000000001, 0.39, 192.0, 0.0, 0.0, 0.0, 0.0, 0.0, 0.0, 0.0, 0.0, 0.0, 1.6635864112628007E9, 0.0, 2022-09-19 16:20:11.262
190.0, 16213.530744735093, 41023.721220936925, -15805.946684592569, -9699.986541269605, -187500.02235174447, -187500.02235174447, -19461.03804839111, -18426.75577721069, 0.644, -0.6980000000000001, 0.388, 192.0, 20.0, 32.0, 234.0, 48.0, 12.0, 32.0, 0.0, 0.0, 0.0, 1.6635864112668252E9, 0.0, 2022-09-19 16:20:11.266
191.0, 16220.415082027326, 41033.48893326389, -15807.198382282066, -9699.517154636045, -187500.02235174447, -187500.02235174447, -19410.098422777464, -18429.058006889583, 0.644, -0.6980000000000001, 0.388, 192.0, 0.0, 0.0, 0.0, 0.0, 0.0, 0.0, 0.0, 0.0, 0.0, 1.663586411270827E9, 0.0, 2022-09-19 16:20:11.270
192.0, 16210.468555744716, 41021.97778486941, -15816.407300997651, -9704.591000627399, -187500.02235174447, -187500.02235174447, -19440.586202214505, -18430.332056323536, 0.644, -0.6980000000000001, 0.388, 192.0, 0.0, 0.0, 0.0, 0.0, 0.0, 0.0, 0.0, 0.0, 0.0, 1.6635864112749732E9, 0.0, 2022-09-19 16:20:11.274
193.0, 16198.331558505484, 41011.09248531968, -15822.732844678503, -9710.693026863699, -187500.02235174447, -187500.02235174447, -19475.454923564783, -18436.679951748843, 0.644, -0.6980000000000001, 0.388, 192.0, 0.0, 0.0, 0.0, 0.0, 0.0, 0.0, 0.0, 0.0, 0.0, 1.6635864112798512E9, 0.0, 2022-09-19 16:20:11.279
194.0, 16200.656139928835, 41015.92046212202, -15813.009835840445, -9711.028303030527, -187500.02235174447, -187500.02235174447, -19462.26739433615, -18438.669257005367, 0.644, -0.6980000000000001, 0.388, 192.0, 0.0, 0.0, 0.0, 0.0, 0.0, 0.0, 0.0, 0.0, 0.0, 1.66358641128389E9, 0.0, 2022-09-19 16:20:11.283
195.0, 16211.720253434212, 41029.35386053966, -15810.662902672639, -9702.82521281543, -187500.02235174447, -187500.02235174447, -19410.90308557786, -18429.013303400672, 0.644, -0.6980000000000001, 0.388, 192.0, 0.0, 0.0, 0.0, 0.0, 0.0, 0.0, 0.0, 0.0, 0.0, 1.663586411287974E9, 0.0, 2022-09-19 16:20:11.287
196.0, 16215.408291269337, 41040.52973276732, -15813.501574218462, -9708.681369862721, -187500.02235174447, -187500.02235174447, -19358.600003552438, -18433.88598369193, 0.644, -0.6980000000000001, 0.388, 192.0, 0.0, 0.0, 0.0, 0.0, 0.0, 0.0, 0.0, 0.0, 0.0, 1.6635864112917957E9, 0.0, 2022-09-19 16:20:11.291
197.0, 16212.100233089952, 41039.1886281, -15813.613332940738, -9702.981675026616, -187500.02235174447, -187500.02235174447, -19376.34728864995, -18421.056082374584, 0.644, -0.6980000000000001, 0.388, 192.0, 0.0, 0.0, 0.0, 0.0, 0.0, 0.0, 0.0, 0.0, 0.0, 1.6635864112958918E9, 0.0, 2022-09-19 16:20:11.295
198.0, 16214.514221491127, 41039.07686937772, -15803.711510147037, -9699.15952672476, -187500.02235174447, -187500.02235174447, -19404.711652363738, -18419.580867240533, 0.644, -0.6980000000000001, 0.388, 192.0, 0.0, 0.0, 0.0, 0.0, 0.0, 0.0, 0.0, 0.0, 0.0, 1.6635864113008976E9, 0.0, 2022-09-19 16:20:11.300
199.0, 16218.135204092885, 41041.490857778896, -15799.822306611813, -9704.456890160667, -187500.02235174447, -187500.02235174447, -19392.664062102325, -18413.79176542661, 0.644, -0.6980000000000001, 0.388, 192.0, 0.0, 0.0, 0.0, 0.0, 0.0, 0.0, 0.0, 0.0, 0.0, 1.663586411304878E9, 0.0, 2022-09-19 16:20:11.304
200.0, 16224.25958207364, 41056.444174819495, -15798.972940322512, -9699.830079058418, -187500.02235174447, -187500.02235174447, -19335.175375363277, -18421.681931219333, 0.64, -0.6980000000000001, 0.388, 192.0, 20.0, 0.0, 234.0, 48.0, 12.0, 32.0, 0.0, 0.0, 0.0, 1.6635864113078687E9, 0.0, 2022-09-19 16:20:11.307
201.0, 16224.25958207364, 41068.804689503275, -15802.616274668728, -9701.797032570486, -187500.02235174447, -187500.02235174447, -19275.183293245234, -18421.614875985968, 0.64, -0.6980000000000001, 0.388, 192.0, 0.0, 0.0, 0.0, 0.0, 0.0, 0.0, 0.0, 0.0, 0.0, 1.663586411310886E9, 0.0, 2022-09-19 16:20:11.310
202.0, 16217.419948270315, 41059.863991721155, -15805.343187492275, -9699.450099402678, -187500.02235174447, -187500.02235174447, -19298.25029352311, -18418.26211431767, 0.64, -0.6980000000000001, 0.388, 192.0, 0.0, 0.0, 0.0, 0.0, 0.0, 0.0, 0.0, 0.0, 0.0, 1.6635864113149924E9, 0.0, 2022-09-19 16:20:11.314
203.0, 16203.114831818919, 41044.418936302536, -15808.338321249286, -9708.122576251339, -187500.02235174447, -187500.02235174447, -19337.701122486727, -18434.55653602559, 0.64, -0.6980000000000001, 0.388, 192.0, 0.0, 0.0, 0.0, 0.0, 0.0, 0.0, 0.0, 0.0, 0.0, 1.6635864113188899E9, 0.0, 2022-09-19 16:20:11.318
204.0, 16204.746509164157, 41045.178895614015, -15798.481201944496, -9710.693026863699, -187500.02235174447, -187500.02235174447, -19330.97324740568, -18430.01913190116, 0.64, -0.6980000000000001, 0.388, 192.0, 0.0, 0.0, 0.0, 0.0, 0.0, 0.0, 0.0, 0.0, 0.0, 1.6635864113229277E9, 0.0, 2022-09-19 16:20:11.322
205.0, 16212.949599379255, 41058.56759054275, -15796.067213543323, -9709.530736152023, -187500.02235174447, -187500.02235174447, -19280.704174125694, -18426.487556277225, 0.64, -0.6980000000000001, 0.388, 192.0, 0.0, 0.0, 0.0, 0.0, 0.0, 0.0, 0.0, 0.0, 0.0, 1.6635864113269813E9, 0.0, 2022-09-19 16:20:11.326
206.0, 16216.659988958836, 41067.28477088032, -15802.45981245754, -9715.744521110597, -187500.02235174447, -187500.02235174447, -19224.869516476338, -18434.623591258955, 0.64, -0.6980000000000001, 0.388, 192.0, 0.0, 0.0, 0.0, 0.0, 0.0, 0.0, 0.0, 0.0, 0.0, 1.66358641133098E9, 0.0, 2022-09-19 16:20:11.330
207.0, 16207.048738843054, 41054.74544224089, -15809.500611960962, -9713.866974576351, -187500.02235174447, -187500.02235174447, -19246.260135920067, -18426.55461151059, 0.64, -0.6980000000000001, 0.388, 192.0, 0.0, 0.0, 0.0, 0.0, 0.0, 0.0, 0.0, 0.0, 0.0, 1.6635864113349605E9, 0.0, 2022-09-19 16:20:11.334
208.0, 16199.113869561419, 41046.430593303514, -15809.858239872246, -9710.245991974592, -187500.02235174447, -187500.02235174447, -19280.86063633688, -18421.97250389725, 0.64, -0.6980000000000001, 0.388, 192.0, 0.0, 0.0, 0.0, 0.0, 0.0, 0.0, 0.0, 0.0, 0.0, 1.6635864113378863E9, 0.0, 2022-09-19 16:20:11.337
209.0, 16201.72902366269, 41048.10697413766, -15815.066196330334, -9707.004989028572, -187500.02235174447, -187500.02235174447, -19273.52926415554, -18420.720806207755, 0.64, -0.6980000000000001, 0.388, 192.0, 0.0, 0.0, 0.0, 0.0, 0.0, 0.0, 0.0, 0.0, 0.0, 1.663586411342028E9, 0.0, 2022-09-19 16:20:11.342
210.0, 16214.469518002215, 41061.89800046659, -15811.713434662037, -9708.01081752906, -187500.02235174447, -187500.02235174447, -19221.896734463782, -18428.61097200048, 0.648, -0.6980000000000001, 0.384, 192.0, 20.0, 64.0, 234.0, 48.0, 12.0, 0.0, 0.0, 0.0, 0.0, 1.663586411346953E9, 0.0, 2022-09-19 16:20:11.346
211.0, 16223.745491951167, 41083.31097165477, -15807.198382282066, -9708.793128584997, -187500.02235174447, -187500.02235174447, -19153.388637708264, -18424.185326598326, 0.648, -0.6980000000000001, 0.384, 192.0, 0.0, 0.0, 0.0, 0.0, 0.0, 0.0, 0.0, 0.0, 0.0, 1.6635864113509862E9, 0.0, 2022-09-19 16:20:11.350
212.0, 16214.514221491127, 41078.684160552526, -15816.60846669775, -9702.132308737315, -187500.02235174447, -187500.02235174447, -19169.213672782622, -18413.076509604038, 0.648, -0.6980000000000001, 0.384, 192.0, 0.0, 0.0, 0.0, 0.0, 0.0, 0.0, 0.0, 0.0, 0.0, 1.6635864113550107E9, 0.0, 2022-09-19 16:20:11.355
213.0, 16206.422889998305, 41066.435404591015, -15820.296504532875, -9696.790241812498, -187500.02235174447, -187500.02235174447, -19211.167897125233, -18419.647922473898, 0.648, -0.6980000000000001, 0.384, 192.0, 0.0, 0.0, 0.0, 0.0, 0.0, 0.0, 0.0, 0.0, 0.0, 1.6635864113589811E9, 0.0, 2022-09-19 16:20:11.358
214.0, 16206.10996557593, 41064.91548596806, -15820.810594655348, -9702.4899366486, -187500.02235174447, -187500.02235174447, -19209.402109313265, -18421.391358541412, 0.648, -0.6980000000000001, 0.384, 192.0, 0.0, 0.0, 0.0, 0.0, 0.0, 0.0, 0.0, 0.0, 0.0, 1.663586411362979E9, 0.0, 2022-09-19 16:20:11.362
215.0, 16209.10509933294, 41076.53839308481, -15825.70562669106, -9714.738692610108, -187500.02235174447, -187500.02235174447, -19167.11260880382, -18431.40494005739, 0.648, -0.6980000000000001, 0.384, 192.0, 0.0, 0.0, 0.0, 0.0, 0.0, 0.0, 0.0, 0.0, 0.0, 1.663586411368114E9, 0.0, 2022-09-19 16:20:11.368
216.0, 16223.141994850874, 41094.86682353816, -15818.530716720907, -9706.06621576145, -187500.02235174447, -187500.02235174447, -19107.63461680825, -18422.285428319625, 0.648, -0.6980000000000001, 0.384, 192.0, 0.0, 0.0, 0.0, 0.0, 0.0, 0.0, 0.0, 0.0, 0.0, 1.663586411372007E9, 0.0, 2022-09-19 16:20:11.372
217.0, 16212.994302868165, 41086.61902983416, -15822.688141189594, -9714.78339609902, -187500.02235174447, -187500.02235174447, -19126.924172273182, -18434.578887770043, 0.648, -0.6980000000000001, 0.384, 192.0, 0.0, 0.0, 0.0, 0.0, 0.0, 0.0, 0.0, 0.0, 0.0, 1.6635864113760548E9, 0.0, 2022-09-19 16:20:11.376
218.0, 16202.35487250744, 41073.163279672066, -15826.063254602344, -9710.134233252315, -187500.02235174447, -187500.02235174447, -19170.778294894495, -18431.293181335113, 0.648, -0.6980000000000001, 0.384, 192.0, 0.0, 0.0, 0.0, 0.0, 0.0, 0.0, 0.0, 0.0, 0.0, 1.663586411380046E9, 0.0, 2022-09-19 16:20:11.380
219.0, 16202.488982974171, 41073.69972153899, -15820.162394066143, -9702.378177926324, -187500.02235174447, -187500.02235174447, -19170.532425705485, -18418.55268699559, 0.648, -0.6980000000000001, 0.384, 192.0, 0.0, 0.0, 0.0, 0.0, 0.0, 0.0, 0.0, 0.0, 0.0, 1.6635864113840947E9, 0.0, 2022-09-19 16:20:11.384
220.0, 16214.089538346476, 41086.73078855644, -15811.311103261842, -9703.607523871366, -187500.02235174447, -187500.02235174447, -19128.39938740723, -18423.87240217595, 0.658, -0.6900000000000001, 0.376, 192.0, 20.0, 144.0, 234.0, 112.0, 11.0, 192.0, 0.0, 0.0, 0.0, 1.6635864113880656E9, 0.0, 2022-09-19 16:20:11.388
221.0, 16225.310114063039, 41106.66854461057, -15810.215867783532, -9702.981675026616, -187500.02235174447, -187500.02235174447, -19063.936956398127, -18420.229067829736, 0.658, -0.6900000000000001, 0.376, 192.0, 0.0, 0.0, 0.0, 0.0, 0.0, 0.0, 0.0, 0.0, 0.0, 1.6635864113910785E9, 0.0, 2022-09-19 16:20:11.391
222.0, 16217.419948270315, 41098.89013754012, -15819.871821388224, -9702.713454093153, -187500.02235174447, -187500.02235174447, -19078.264424593977, -18417.144527094904, 0.658, -0.6900000000000001, 0.376, 192.0, 0.0, 0.0, 0.0, 0.0, 0.0, 0.0, 0.0, 0.0, 0.0, 1.663586411394074E9, 0.0, 2022-09-19 16:20:11.394
223.0, 16206.35583476494, 41080.94168674251, -15822.352865022764, -9703.20519247117, -187500.02235174447, -187500.02235174447, -19126.052454239423, -18418.30681780658, 0.658, -0.6900000000000001, 0.376, 192.0, 0.0, 0.0, 0.0, 0.0, 0.0, 0.0, 0.0, 0.0, 0.0, 1.663586411398059E9, 0.0, 2022-09-19 16:20:11.398
224.0, 16207.272256287606, 41078.55005008579, -15820.475318488518, -9706.736768095108, -187500.02235174447, -187500.02235174447, -19132.847384553836, -18427.918067922365, 0.658, -0.6900000000000001, 0.376, 192.0, 0.0, 0.0, 0.0, 0.0, 0.0, 0.0, 0.0, 0.0, 0.0, 1.6635864114020565E9, 0.0, 2022-09-19 16:20:11.402
225.0, 16215.631808713892, 41085.47909086694, -15819.424786499118, -9707.29556170649, -187500.02235174447, -187500.02235174447, -19094.804715490904, -18430.913201679374, 0.658, -0.6900000000000001, 0.376, 192.0, 0.0, 0.0, 0.0, 0.0, 0.0, 0.0, 0.0, 0.0, 0.0, 1.6635864114071205E9, 0.0, 2022-09-19 16:20:11.407
226.0, 16228.573468753513, 41106.780303332846, -15811.355806750753, -9696.902000534774, -187500.02235174447, -187500.02235174447, -19028.53179318092, -18412.763585181667, 0.658, -0.6900000000000001, 0.376, 192.0, 0.0, 0.0, 0.0, 0.0, 0.0, 0.0, 0.0, 0.0, 0.0, 1.6635864114110951E9, 0.0, 2022-09-19 16:20:11.411
227.0, 16226.561811752537, 41111.876501068655, -15814.306237018853, -9698.10899473536, -187500.02235174447, -187500.02235174447, -19029.492918192496, -18413.16591658186, 0.658, -0.6900000000000001, 0.376, 192.0, 0.0, 0.0, 0.0, 0.0, 0.0, 0.0, 0.0, 0.0, 0.0, 1.6635864114140923E9, 0.0, 2022-09-19 16:20:11.414
228.0, 16213.217820312719, 41097.549032872805, -15818.933048121102, -9701.484108148112, -187500.02235174447, -187500.02235174447, -19074.799904203406, -18413.36708228196, 0.658, -0.6900000000000001, 0.376, 192.0, 0.0, 0.0, 0.0, 0.0, 0.0, 0.0, 0.0, 0.0, 0.0, 1.663586411418079E9, 0.0, 2022-09-19 16:20:11.418
229.0, 16205.864096386922, 41091.111730469675, -15816.966094609035, -9703.853393060373, -187500.02235174447, -187500.02235174447, -19083.047697907412, -18429.996780156707, 0.658, -0.6900000000000001, 0.376, 192.0, 0.0, 0.0, 0.0, 0.0, 0.0, 0.0, 0.0, 0.0, 0.0, 1.6635864114220607E9, 0.0, 2022-09-19 16:20:11.422
230.0, 16218.35872153744, 41099.18071021804, -15809.724129405515, -9705.194497727693, -187500.02235174447, -187500.02235174447, -19045.25089803349, -18430.3991115569, 0.652, -0.686, 0.378, 192.0, 20.0, 96.0, 234.0, 144.0, 11.0, 208.0, 0.0, 0.0, 0.0, 1.6635864114261165E9, 0.0, 2022-09-19 16:20:11.426
231.0, 16223.812547184534, 41110.31187895678, -15809.791184638882, -9711.184765241715, -187500.02235174447, -187500.02235174447, -18987.784563038895, -18420.497288763203, 0.652, -0.686, 0.378, 192.0, 0.0, 0.0, 0.0, 0.0, 0.0, 0.0, 0.0, 0.0, 0.0, 1.6635864114300551E9, 0.0, 2022-09-19 16:20:11.430
232.0, 16211.675549945301, 41099.13600672913, -15821.816423155837, -9708.837832073908, -187500.02235174447, -187500.02235174447, -18999.63098760021, -18421.994855641708, 0.652, -0.686, 0.378, 192.0, 0.0, 0.0, 0.0, 0.0, 0.0, 0.0, 0.0, 0.0, 0.0, 1.6635864114351792E9, 0.0, 2022-09-19 16:20:11.435
233.0, 16206.936980120778, 41086.37316064515, -15823.001065611967, -9700.522983136534, -187500.02235174447, -187500.02235174447, -19045.452063733588, -18409.276713046638, 0.652, -0.686, 0.378, 192.0, 0.0, 0.0, 0.0, 0.0, 0.0, 0.0, 0.0, 0.0, 0.0, 1.6635864114390488E9, 0.0, 2022-09-19 16:20:11.439
234.0, 16207.227552798697, 41085.99318098941, -15820.005931854956, -9692.610465599355, -187500.02235174447, -187500.02235174447, -19051.1964620586, -18408.472050246244, 0.652, -0.686, 0.378, 192.0, 0.0, 0.0, 0.0, 0.0, 0.0, 0.0, 0.0, 0.0, 0.0, 1.663586411443112E9, 0.0, 2022-09-19 16:20:11.443
235.0, 16211.049701100554, 41095.35856191618, -15819.625952199216, -9702.691102348697, -187500.02235174447, -187500.02235174447, -19010.024548771926, -18421.41371028587, 0.652, -0.686, 0.378, 192.0, 0.0, 0.0, 0.0, 0.0, 0.0, 0.0, 0.0, 0.0, 0.0, 1.6635864114470668E9, 0.0, 2022-09-19 16:20:11.447
236.0, 16222.06911111702, 41113.86580632518, -15813.926257363113, -9714.001085043083, -187500.02235174447, -187500.02235174447, -18940.37651304919, -18435.852937203996, 0.652, -0.686, 0.378, 192.0, 0.0, 0.0, 0.0, 0.0, 0.0, 0.0, 0.0, 0.0, 0.0, 1.6635864114511447E9, 0.0, 2022-09-19 16:20:11.451
237.0, 16220.817413427523, 41117.50914067139, -15815.580286452805, -9712.01177978656, -187500.02235174447, -187500.02235174447, -18933.84980366824, -18429.281524334136, 0.652, -0.686, 0.378, 192.0, 0.0, 0.0, 0.0, 0.0, 0.0, 0.0, 0.0, 0.0, 0.0, 1.6635864114561198E9, 0.0, 2022-09-19 16:20:11.456
238.0, 16213.620151712914, 41110.64715512361, -15815.446175986073, -9706.78147158402, -187500.02235174447, -187500.02235174447, -18968.785580251882, -18416.138698594415, 0.652, -0.686, 0.378, 192.0, 0.0, 0.0, 0.0, 0.0, 0.0, 0.0, 0.0, 0.0, 0.0, 1.663586411460196E9, 0.0, 2022-09-19 16:20:11.460
239.0, 16210.826183656, 41105.26038470989, -15817.569591709327, -9714.135195509816, -187500.02235174447, -187500.02235174447, -18974.060591943336, -18417.591561984013, 0.652, -0.686, 0.378, 192.0, 0.0, 0.0, 0.0, 0.0, 0.0, 0.0, 0.0, 0.0, 0.0, 1.663586411464112E9, 0.0, 2022-09-19 16:20:11.464
240.0, 16217.956390137244, 41111.36241094618, -15817.256667286954, -9714.224602487637, -187500.02235174447, -187500.02235174447, -18935.816757180306, -18422.330131808536, 0.648, -0.6900000000000001, 0.384, 192.0, 20.0, 64.0, 234.0, 112.0, 12.0, 0.0, 0.0, 0.0, 0.0, 1.6635864114681256E9, 0.0, 2022-09-19 16:20:11.468
241.0, 16223.320808806517, 41124.3040709858, -15820.162394066143, -9714.850451332386, -187500.02235174447, -187500.02235174447, -18869.67794533705, -18418.865611417965, 0.648, -0.6900000000000001, 0.384, 192.0, 0.0, 0.0, 0.0, 0.0, 0.0, 0.0, 0.0, 0.0, 0.0, 1.66358641147115E9, 0.0, 2022-09-19 16:20:11.471
242.0, 16220.526840749604, 41127.05333555381, -15830.667713960138, -9715.744521110597, -187500.02235174447, -187500.02235174447, -18860.178453943547, -18417.613913728466, 0.648, -0.6900000000000001, 0.384, 192.0, 0.0, 0.0, 0.0, 0.0, 0.0, 0.0, 0.0, 0.0, 0.0, 1.6635864114751198E9, 0.0, 2022-09-19 16:20:11.475
243.0, 16212.189640067774, 41113.88815806963, -15841.016571642946, -9710.804785585975, -187500.02235174447, -187500.02235174447, -18901.17155327458, -18413.635303215422, 0.648, -0.6900000000000001, 0.384, 192.0, 0.0, 0.0, 0.0, 0.0, 0.0, 0.0, 0.0, 0.0, 0.0, 1.6635864114781816E9, 0.0, 2022-09-19 16:20:11.478
244.0, 16210.893238889366, 41109.015477778375, -15847.319763579342, -9716.482128677622, -187500.02235174447, -187500.02235174447, -18904.770184131885, -18422.754814953187, 0.648, -0.6900000000000001, 0.384, 192.0, 0.0, 0.0, 0.0, 0.0, 0.0, 0.0, 0.0, 0.0, 0.0, 1.6635864114822783E9, 0.0, 2022-09-19 16:20:11.482
245.0, 16219.565715738025, 41122.359469218194, -15843.050580388377, -9718.82906184543, -187500.02235174447, -187500.02235174447, -18859.999639987906, -18435.60706801499, 0.648, -0.6900000000000001, 0.384, 192.0, 0.0, 0.0, 0.0, 0.0, 0.0, 0.0, 0.0, 0.0, 0.0, 1.6635864114861672E9, 0.0, 2022-09-19 16:20:11.486
246.0, 16227.634695486391, 41139.52560895987, -15822.17405106712, -9707.563782639954, -187500.02235174447, -187500.02235174447, -18789.81516239824, -18413.41178577087, 0.648, -0.6900000000000001, 0.384, 192.0, 0.0, 0.0, 0.0, 0.0, 0.0, 0.0, 0.0, 0.0, 0.0, 1.663586411491218E9, 0.0, 2022-09-19 16:20:11.491
247.0, 16227.746454208667, 41143.50421947292, -15809.813536383337, -9705.77564308353, -187500.02235174447, -187500.02235174447, -18776.471170958423, -18408.293236290603, 0.648, -0.6900000000000001, 0.384, 192.0, 0.0, 0.0, 0.0, 0.0, 0.0, 0.0, 0.0, 0.0, 0.0, 1.6635864114941561E9, 0.0, 2022-09-19 16:20:11.494
248.0, 16216.145898836363, 41128.014460565384, -15807.198382282066, -9706.267381461546, -187500.02235174447, -187500.02235174447, -18819.654741246075, -18406.25922754517, 0.648, -0.6900000000000001, 0.384, 192.0, 0.0, 0.0, 0.0, 0.0, 0.0, 0.0, 0.0, 0.0, 0.0, 1.6635864114982533E9, 0.0, 2022-09-19 16:20:11.498
249.0, 16211.362625522928, 41119.87842558366, -15806.79605088187, -9706.714416350653, -187500.02235174447, -187500.02235174447, -18829.713026250964, -18408.583808968524, 0.648, -0.6900000000000001, 0.384, 192.0, 0.0, 0.0, 0.0, 0.0, 0.0, 0.0, 0.0, 0.0, 0.0, 1.6635864115022252E9, 0.0, 2022-09-19 16:20:11.502
250.0, 16215.765919180623, 41123.94644307452, -15808.472431716018, -9707.92141055124, -187500.02235174447, -187500.02235174447, -18798.62174971363, -18411.78010842563, 0.642, -0.6980000000000001, 0.384, 192.0, 20.0, 16.0, 234.0, 48.0, 12.0, 0.0, 0.0, 0.0, 0.0, 1.6635864115061872E9, 0.0, 2022-09-19 16:20:11.506
251.0, 16225.891259418877, 41132.19423677853, -15811.758138150948, -9710.335398952413, -187500.02235174447, -187500.02235174447, -18739.5237373738, -18415.89282940541, 0.642, -0.6980000000000001, 0.384, 192.0, 0.0, 0.0, 0.0, 0.0, 0.0, 0.0, 0.0, 0.0, 0.0, 1.6635864115102267E9, 0.0, 2022-09-19 16:20:11.510
252.0, 16218.917515148822, 41126.6063006647, -15821.794071411381, -9712.25764897557, -187500.02235174447, -187500.02235174447, -18738.60731585113, -18423.961809153774, 0.642, -0.6980000000000001, 0.384, 192.0, 0.0, 0.0, 0.0, 0.0, 0.0, 0.0, 0.0, 0.0, 0.0, 1.6635864115142715E9, 0.0, 2022-09-19 16:20:11.514
253.0, 16204.321826019506, 41110.08836151223, -15820.877649888713, -9712.168241997748, -187500.02235174447, -187500.02235174447, -18789.412830998044, -18409.947265380295, 0.642, -0.6980000000000001, 0.384, 192.0, 0.0, 0.0, 0.0, 0.0, 0.0, 0.0, 0.0, 0.0, 0.0, 1.6635864115192099E9, 0.0, 2022-09-19 16:20:11.519
254.0, 16206.44524174276, 41102.645230608614, -15819.313027776841, -9705.373311683335, -187500.02235174447, -187500.02235174447, -18807.3389300512, -18403.755832166175, 0.642, -0.6980000000000001, 0.384, 192.0, 0.0, 0.0, 0.0, 0.0, 0.0, 0.0, 0.0, 0.0, 0.0, 1.6635864115232053E9, 0.0, 2022-09-19 16:20:11.523
255.0, 16215.92238139181, 41110.17776849005, -15817.971923109524, -9702.44523315969, -187500.02235174447, -187500.02235174447, -18779.309842504244, -18415.244628816203, 0.642, -0.6980000000000001, 0.384, 192.0, 0.0, 0.0, 0.0, 0.0, 0.0, 0.0, 0.0, 0.0, 0.0, 1.66358641152724E9, 0.0, 2022-09-19 16:20:11.527
0.0, 16222.247925072663, 41121.867730840175, -15819.737710921492, -9710.849489074884, -187500.02235174447, -187500.02235174447, -18723.475184854888, -18422.97833239774, 0.642, -0.6980000000000001, 0.384, 192.0, 0.0, 0.0, 0.0, 0.0, 0.0, 0.0, 0.0, 0.0, 0.0, 1.6635864115312717E9, 0.0, 2022-09-19 16:20:11.531
1.0, 16217.218782570219, 41120.124294772664, -15827.672580203127, -9715.789224599508, -187500.02235174447, -187500.02235174447, -18713.863934739107, -18430.354408067993, 0.642, -0.6980000000000001, 0.384, 192.0, 0.0, 0.0, 0.0, 0.0, 0.0, 0.0, 0.0, 0.0, 0.0, 1.6635864115352252E9, 0.0, 2022-09-19 16:20:11.535
2.0, 16206.489945231671, 41107.38380043314, -15828.27607730342, -9709.642494874299, -187500.02235174447, -187500.02235174447, -18760.020287039315, -18425.07939637654, 0.642, -0.6980000000000001, 0.384, 192.0, 0.0, 0.0, 0.0, 0.0, 0.0, 0.0, 0.0, 0.0, 0.0, 1.6635864115392587E9, 0.0, 2022-09-19 16:20:11.539
3.0, 16209.686244688779, 41098.84543405121, -15828.767815681436, -9701.148831981282, -187500.02235174447, -187500.02235174447, -18782.975528594914, -18421.391358541412, 0.642, -0.6980000000000001, 0.384, 192.0, 0.0, 0.0, 0.0, 0.0, 0.0, 0.0, 0.0, 0.0, 0.0, 1.6635864115443208E9, 0.0, 2022-09-19 16:20:11.544
4.0, 16214.804794169046, 41102.712285841975, -15825.236240057498, -9707.16145123976, -187500.02235174447, -187500.02235174447, -18760.981412050893, -18423.805346942587, 0.644, -0.7000000000000001, 0.384, 192.0, 20.0, 32.0, 234.0, 32.0, 12.0, 0.0, 0.0, 0.0, 0.0, 1.6635864115483348E9, 0.0, 2022-09-19 16:20:11.548
5.0, 16218.49283200417, 41111.384762690635, -15819.871821388224, -9709.955419296673, -187500.02235174447, -187500.02235174447, -18708.655978281018, -18424.431195787336, 0.644, -0.7000000000000001, 0.384, 192.0, 0.0, 0.0, 0.0, 0.0, 0.0, 0.0, 0.0, 0.0, 0.0, 1.663586411551293E9, 0.0, 2022-09-19 16:20:11.551
6.0, 16212.703730190246, 41111.205948735, -15826.0856063468, -9716.772701355541, -187500.02235174447, -187500.02235174447, -18698.64239676504, -18429.88502143443, 0.644, -0.7000000000000001, 0.384, 192.0, 0.0, 0.0, 0.0, 0.0, 0.0, 0.0, 0.0, 0.0, 0.0, 1.6635864115552833E9, 0.0, 2022-09-19 16:20:11.555
7.0, 16204.21006729723, 41095.49267238291, -15824.699798190572, -9713.4422914317, -187500.02235174447, -187500.02235174447, -18748.129158989093, -18421.659579474875, 0.644, -0.7000000000000001, 0.384, 192.0, 0.0, 0.0, 0.0, 0.0, 0.0, 0.0, 0.0, 0.0, 0.0, 1.6635864115583792E9, 0.0, 2022-09-19 16:20:11.558
8.0, 16206.8252213985, 41089.97179150245, -15794.994329809468, -9705.149794238781, -187500.02235174447, -187500.02235174447, -18760.28850797278, -18415.579904983035, 0.644, -0.7000000000000001, 0.384, 192.0, 0.0, 0.0, 0.0, 0.0, 0.0, 0.0, 0.0, 0.0, 0.0, 1.663586411562389E9, 0.0, 2022-09-19 16:20:11.562
9.0, 16212.703730190246, 41095.49267238291, -15755.49879735694, -9710.268343719048, -187500.02235174447, -187500.02235174447, -18730.98537099187, -18418.284466062127, 0.644, -0.7000000000000001, 0.384, 192.0, 0.0, 0.0, 0.0, 0.0, 0.0, 0.0, 0.0, 0.0, 0.0, 1.6635864115663424E9, 0.0, 2022-09-19 16:20:11.566
10.0, 16218.35872153744, 41104.83570156524, -15732.029465678868, -9720.63955314631, -187500.02235174447, -187500.02235174447, -18670.434495262445, -18435.02592265915, 0.644, -0.7000000000000001, 0.384, 192.0, 0.0, 0.0, 0.0, 0.0, 0.0, 0.0, 0.0, 0.0, 0.0, 1.6635864115704076E9, 0.0, 2022-09-19 16:20:11.570
11.0, 16204.835916141978, 41099.06895149576, -15721.59120101824, -9724.416997959257, -187500.02235174447, -187500.02235174447, -18658.632774190042, -18427.091053377517, 0.644, -0.7000000000000001, 0.384, 192.0, 0.0, 0.0, 0.0, 0.0, 0.0, 0.0, 0.0, 0.0, 0.0, 1.663586411574411E9, 0.0, 2022-09-19 16:20:11.574
12.0, 16197.504543960637, 41080.65111406459, -15710.594142746228, -9723.031189803027, -187500.02235174447, -187500.02235174447, -18706.89019046905, -18424.610009742977, 0.644, -0.7000000000000001, 0.384, 192.0, 0.0, 0.0, 0.0, 0.0, 0.0, 0.0, 0.0, 0.0, 0.0, 1.6635864115783567E9, 0.0, 2022-09-19 16:20:11.578
13.0, 16198.465668972216, 41078.55005008579, -15696.1549158281, -9726.562765426967, -187500.02235174447, -187500.02235174447, -18719.85420225313, -18427.761605711177, 0.644, -0.7000000000000001, 0.384, 192.0, 0.0, 0.0, 0.0, 0.0, 0.0, 0.0, 0.0, 0.0, 0.0, 1.6635864115814593E9, 0.0, 2022-09-19 16:20:11.581
14.0, 16203.763032408124, 41090.32941941374, -15682.229779032443, -9736.397532987301, -187500.02235174447, -187500.02235174447, -18689.45582979391, -18440.88207970644, 0.65, -0.7000000000000001, 0.378, 192.0, 20.0, 80.0, 234.0, 32.0, 11.0, 208.0, 0.0, 0.0, 0.0, 1.6635864115864012E9, 0.0, 2022-09-19 16:20:11.586
15.0, 16223.186698339785, 41109.84249232322, -15666.091819535712, -9719.365503712357, -187500.02235174447, -187500.02235174447, -18621.238305716313, -18432.522527280158, 0.65, -0.7000000000000001, 0.378, 192.0, 0.0, 0.0, 0.0, 0.0, 0.0, 0.0, 0.0, 0.0, 0.0, 1.6635864115903797E9, 0.0, 2022-09-19 16:20:11.590
16.0, 16226.047721630064, 41119.23022499445, -15656.90525256458, -9711.318875708446, -187500.02235174447, -187500.02235174447, -18591.10815419056, -18437.46226280478, 0.65, -0.7000000000000001, 0.378, 192.0, 0.0, 0.0, 0.0, 0.0, 0.0, 0.0, 0.0, 0.0, 0.0, 1.663586411594382E9, 0.0, 2022-09-19 16:20:11.594
17.0, 16213.374282523906, 41110.200120234505, -15654.066581018757, -9715.096320521394, -187500.02235174447, -187500.02235174447, -18627.139166252517, -18432.299009835602, 0.65, -0.7000000000000001, 0.378, 192.0, 0.0, 0.0, 0.0, 0.0, 0.0, 0.0, 0.0, 0.0, 0.0, 1.6635864115983849E9, 0.0, 2022-09-19 16:20:11.598
18.0, 16211.139108078374, 41104.72394284295, -15641.1919762125, -9711.229468730626, -187500.02235174447, -187500.02235174447, -18642.40540771549, -18425.615838243466, 0.65, -0.7000000000000001, 0.378, 192.0, 0.0, 0.0, 0.0, 0.0, 0.0, 0.0, 0.0, 0.0, 0.0, 1.663586411602442E9, 0.0, 2022-09-19 16:20:11.602
19.0, 16210.468555744716, 41102.98050677544, -15634.084121475713, -9717.085625777916, -187500.02235174447, -187500.02235174447, -18620.612456871564, -18431.06966389056, 0.65, -0.7000000000000001, 0.378, 192.0, 0.0, 0.0, 0.0, 0.0, 0.0, 0.0, 0.0, 0.0, 0.0, 1.6635864116064172E9, 0.0, 2022-09-19 16:20:11.606
20.0, 16215.095366846965, 41115.54218715933, -15627.937391750504, -9721.980657813629, -187500.02235174447, -187500.02235174447, -18557.580537507598, -18433.573059269555, 0.65, -0.7000000000000001, 0.378, 192.0, 0.0, 0.0, 0.0, 0.0, 0.0, 0.0, 0.0, 0.0, 0.0, 1.6635864116113749E9, 0.0, 2022-09-19 16:20:11.611
21.0, 16208.658064443836, 41115.27396622586, -15631.603077841173, -9715.699817621688, -187500.02235174447, -187500.02235174447, -18535.742883174764, -18418.64209397341, 0.65, -0.7000000000000001, 0.378, 192.0, 0.0, 0.0, 0.0, 0.0, 0.0, 0.0, 0.0, 0.0, 0.0, 1.663586411615425E9, 0.0, 2022-09-19 16:20:11.615
22.0, 16196.16343929332, 41101.50529164139, -15637.302772677276, -9724.886384592817, -187500.02235174447, -187500.02235174447, -18580.62518604102, -18440.256230861694, 0.65, -0.7000000000000001, 0.378, 192.0, 0.0, 0.0, 0.0, 0.0, 0.0, 0.0, 0.0, 0.0, 0.0, 1.66358641161943E9, 0.0, 2022-09-19 16:20:11.619
23.0, 16194.665872414813, 41094.12921597114, -15632.519499363842, -9724.998143315095, -187500.02235174447, -187500.02235174447, -18599.937093250406, -18445.061855919583, 0.65, -0.7000000000000001, 0.378, 192.0, 0.0, 0.0, 0.0, 0.0, 0.0, 0.0, 0.0, 0.0, 0.0, 1.6635864116234076E9, 0.0, 2022-09-19 16:20:11.623
24.0, 16200.723195162202, 41098.77837881784, -15628.026798728324, -9720.97482931314, -187500.02235174447, -187500.02235174447, -18576.3336511056, -18423.559477753577, 0.65, -0.7000000000000001, 0.378, 192.0, 0.0, 0.0, 0.0, 0.0, 0.0, 0.0, 0.0, 0.0, 0.0, 1.663586411627417E9, 0.0, 2022-09-19 16:20:11.627
25.0, 16214.380111024395, 41114.37989644765, -15619.957818979958, -9727.792111372008, -187500.02235174447, -187500.02235174447, -18518.107356799526, -18436.322323837558, 0.648, -0.6940000000000001, 0.386, 192.0, 20.0, 64.0, 234.0, 80.0, 12.0, 16.0, 0.0, 0.0, 0.0, 1.663586411632458E9, 0.0, 2022-09-19 16:20:11.632
26.0, 16212.703730190246, 41121.13012327315, -15619.913115491048, -9722.941782825206, -187500.02235174447, -187500.02235174447, -18489.161847729905, -18427.806309200085, 0.648, -0.6940000000000001, 0.386, 192.0, 0.0, 0.0, 0.0, 0.0, 0.0, 0.0, 0.0, 0.0, 0.0, 1.6635864116354585E9, 0.0, 2022-09-19 16:20:11.635
27.0, 16206.221724298208, 41114.84928308121, -15620.04722595778, -9718.002047300584, -187500.02235174447, -187500.02235174447, -18523.42707197989, -18422.46424227527, 0.648, -0.6940000000000001, 0.386, 192.0, 0.0, 0.0, 0.0, 0.0, 0.0, 0.0, 0.0, 0.0, 0.0, 1.6635864116384952E9, 0.0, 2022-09-19 16:20:11.638
28.0, 16202.712500418724, 41104.746294587414, -15617.14149917859, -9718.337323467413, -187500.02235174447, -187500.02235174447, -18547.522252502713, -18427.448681288803, 0.648, -0.6940000000000001, 0.386, 192.0, 0.0, 0.0, 0.0, 0.0, 0.0, 0.0, 0.0, 0.0, 0.0, 1.6635864116414516E9, 0.0, 2022-09-19 16:20:11.641
29.0, 16198.10804106093, 41101.50529164139, -15613.341702621186, -9719.454910690178, -187500.02235174447, -187500.02235174447, -18529.126766815993, -18430.376759812447, 0.648, -0.6940000000000001, 0.386, 192.0, 0.0, 0.0, 0.0, 0.0, 0.0, 0.0, 0.0, 0.0, 0.0, 1.6635864116464252E9, 0.0, 2022-09-19 16:20:11.646
30.0, 16205.417061497816, 41112.859977824686, -15608.71489151894, -9726.272192749047, -187500.02235174447, -187500.02235174447, -18470.967527743283, -18432.433120302336, 0.648, -0.6940000000000001, 0.386, 192.0, 0.0, 0.0, 0.0, 0.0, 0.0, 0.0, 0.0, 0.0, 0.0, 1.6635864116505523E9, 0.0, 2022-09-19 16:20:11.650
31.0, 16208.143974321363, 41117.73265811594, -15607.954932207458, -9724.5958119149, -187500.02235174447, -187500.02235174447, -18438.93747793883, -18430.779091212644, 0.648, -0.6940000000000001, 0.386, 192.0, 0.0, 0.0, 0.0, 0.0, 0.0, 0.0, 0.0, 0.0, 0.0, 1.6635864116544783E9, 0.0, 2022-09-19 16:20:11.654
32.0, 16198.73388990568, 41104.83570156524, -15611.262990386844, -9709.888364063307, -187500.02235174447, -187500.02235174447, -18479.729411569766, -18432.522527280158, 0.648, -0.6940000000000001, 0.386, 192.0, 0.0, 0.0, 0.0, 0.0, 0.0, 0.0, 0.0, 0.0, 0.0, 1.6635864116574736E9, 0.0, 2022-09-19 16:20:11.657
33.0, 16194.48705845917, 41095.53737587183, -15604.445708327976, -9709.396625685291, -187500.02235174447, -187500.02235174447, -18505.813897349108, -18427.001646399694, 0.648, -0.6940000000000001, 0.386, 192.0, 0.0, 0.0, 0.0, 0.0, 0.0, 0.0, 0.0, 0.0, 0.0, 1.6635864116615524E9, 0.0, 2022-09-19 16:20:11.661
34.0, 16196.074032315497, 41100.14183522962, -15604.132783905601, -9714.604582143376, -187500.02235174447, -187500.02235174447, -18485.831437806064, -18429.281524334136, 0.648, -0.6940000000000001, 0.386, 192.0, 0.0, 0.0, 0.0, 0.0, 0.0, 0.0, 0.0, 0.0, 0.0, 1.6635864116655786E9, 0.0, 2022-09-19 16:20:11.665
35.0, 16202.041948085065, 41110.535396401334, -15600.154173392557, -9714.11284376536, -187500.02235174447, -187500.02235174447, -18424.27473357615, -18432.231954602237, 0.648, -0.6940000000000001, 0.382, 192.0, 20.0, 64.0, 234.0, 80.0, 11.0, 240.0, 0.0, 0.0, 0.0, 1.6635864116695263E9, 0.0, 2022-09-19 16:20:11.669
36.0, 16206.154669064841, 41118.98435580544, -15594.32036808972, -9709.508384407567, -187500.02235174447, -187500.02235174447, -18383.505151689667, -18426.018169643663, 0.648, -0.6940000000000001, 0.382, 192.0, 0.0, 0.0, 0.0, 0.0, 0.0, 0.0, 0.0, 0.0, 0.0, 1.6635864116745288E9, 0.0, 2022-09-19 16:20:11.674
37.0, 16204.388881252871, 41115.31866971477, -15587.123106375111, -9707.787300084508, -187500.02235174447, -187500.02235174447, -18412.517715992657, -18426.8004806996, 0.648, -0.6940000000000001, 0.382, 192.0, 0.0, 0.0, 0.0, 0.0, 0.0, 0.0, 0.0, 0.0, 0.0, 1.66358641167857E9, 0.0, 2022-09-19 16:20:11.678
38.0, 16203.293645774562, 41107.830835322246, -15582.2280743394, -9712.749387353586, -187500.02235174447, -187500.02235174447, -18433.79657671411, -18420.877268418943, 0.648, -0.6940000000000001, 0.382, 192.0, 0.0, 0.0, 0.0, 0.0, 0.0, 0.0, 0.0, 0.0, 0.0, 1.663586411682535E9, 0.0, 2022-09-19 16:20:11.682
39.0, 16206.422889998305, 41107.31674519977, -15582.116315617122, -9712.30235246448, -187500.02235174447, -187500.02235174447, -18415.02111137165, -18420.564343996568, 0.648, -0.6940000000000001, 0.382, 192.0, 0.0, 0.0, 0.0, 0.0, 0.0, 0.0, 0.0, 0.0, 0.0, 1.6635864116855297E9, 0.0, 2022-09-19 16:20:11.685
40.0, 16214.558924980036, 41121.46539943998, -15581.445763283464, -9706.177974483726, -187500.02235174447, -187500.02235174447, -18352.615040852434, -18428.58862025602, 0.648, -0.6940000000000001, 0.382, 192.0, 0.0, 0.0, 0.0, 0.0, 0.0, 0.0, 0.0, 0.0, 0.0, 1.6635864116905937E9, 0.0, 2022-09-19 16:20:11.690
41.0, 16215.654160458347, 41131.56838793378, -15586.31844357472, -9713.308180964968, -187500.02235174447, -187500.02235174447, -18311.264313610114, -18435.56236452608, 0.648, -0.6940000000000001, 0.382, 192.0, 0.0, 0.0, 0.0, 0.0, 0.0, 0.0, 0.0, 0.0, 0.0, 1.663586411695603E9, 0.0, 2022-09-19 16:20:11.695
42.0, 16200.991416095665, 41116.99505054892, -15594.342719834176, -9715.722169366141, -187500.02235174447, -187500.02235174447, -18348.077636728005, -18432.008437157685, 0.648, -0.6940000000000001, 0.382, 192.0, 0.0, 0.0, 0.0, 0.0, 0.0, 0.0, 0.0, 0.0, 0.0, 1.6635864116995752E9, 0.0, 2022-09-19 16:20:11.699
43.0, 16197.102212560441, 41108.00964927788, -15590.431164554497, -9711.765910597553, -187500.02235174447, -187500.02235174447, -18372.128113761915, -18428.923896422853, 0.648, -0.6940000000000001, 0.382, 192.0, 0.0, 0.0, 0.0, 0.0, 0.0, 0.0, 0.0, 0.0, 0.0, 1.6635864117035728E9, 0.0, 2022-09-19 16:20:11.703
44.0, 16199.762070150624, 41113.03879178033, -15585.46907728542, -9712.25764897557, -187500.02235174447, -187500.02235174447, -18349.23992743968, -18426.331094066038, 0.648, -0.6940000000000001, 0.382, 192.0, 0.0, 0.0, 0.0, 0.0, 0.0, 0.0, 0.0, 0.0, 0.0, 1.663586411707604E9, 0.0, 2022-09-19 16:20:11.707
45.0, 16208.546305721558, 41125.48871344193, -15578.785905693283, -9714.090492020905, -187500.02235174447, -187500.02235174447, -18290.700708711232, -18424.07356787605, 0.652, -0.6940000000000001, 0.382, 192.0, 20.0, 96.0, 234.0, 80.0, 11.0, 240.0, 0.0, 0.0, 0.0, 1.6635864117115984E9, 0.0, 2022-09-19 16:20:11.711
46.0, 16211.899067389855, 41135.25642576891, -15577.847132426159, -9718.15850951177, -187500.02235174447, -187500.02235174447, -18244.544356411025, -18435.18238487034, 0.652, -0.6940000000000001, 0.382, 192.0, 0.0, 0.0, 0.0, 0.0, 0.0, 0.0, 0.0, 0.0, 0.0, 1.6635864117156117E9, 0.0, 2022-09-19 16:20:11.715
47.0, 16199.516200961614, 41126.13691403114, -15581.311652816732, -9718.449082189689, -187500.02235174447, -187500.02235174447, -18271.455856735214, -18440.479748306247, 0.652, -0.6940000000000001, 0.382, 192.0, 0.0, 0.0, 0.0, 0.0, 0.0, 0.0, 0.0, 0.0, 0.0, 1.6635864117186077E9, 0.0, 2022-09-19 16:20:11.718
48.0, 16201.661968429324, 41126.986280320445, -15574.539074246773, -9699.025416258028, -187500.02235174447, -187500.02235174447, -18286.85620866492, -18417.435099772825, 0.652, -0.6940000000000001, 0.382, 192.0, 0.0, 0.0, 0.0, 0.0, 0.0, 0.0, 0.0, 0.0, 0.0, 1.6635864117215793E9, 0.0, 2022-09-19 16:20:11.721
49.0, 16206.53464872058, 41128.2603297544, -15568.973489877402, -9697.684311590709, -187500.02235174447, -187500.02235174447, -18266.493769466135, -18416.8986579059, 0.652, -0.6940000000000001, 0.382, 192.0, 0.0, 0.0, 0.0, 0.0, 0.0, 0.0, 0.0, 0.0, 0.0, 1.663586411725657E9, 0.0, 2022-09-19 16:20:11.725
50.0, 16215.20712556924, 41138.8103531373, -15566.067763098214, -9704.859221560862, -187500.02235174447, -187500.02235174447, -18208.423937371248, -18435.472957548256, 0.652, -0.6940000000000001, 0.382, 192.0, 0.0, 0.0, 0.0, 0.0, 0.0, 0.0, 0.0, 0.0, 0.0, 1.6635864117295947E9, 0.0, 2022-09-19 16:20:11.729
51.0, 16210.401500511349, 41140.97847234947, -15574.60612948014, -9715.63276238832, -187500.02235174447, -187500.02235174447, -18167.699058973678, -18443.631344274443, 0.652, -0.6940000000000001, 0.382, 192.0, 0.0, 0.0, 0.0, 0.0, 0.0, 0.0, 0.0, 0.0, 0.0, 1.663586411734662E9, 0.0, 2022-09-19 16:20:11.734
52.0, 16190.73196539068, 41124.28171924135, -15586.072574385713, -9721.086588035416, -187500.02235174447, -187500.02235174447, -18201.6960622902, -18437.84224246052, 0.652, -0.6940000000000001, 0.382, 192.0, 0.0, 0.0, 0.0, 0.0, 0.0, 0.0, 0.0, 0.0, 0.0, 1.6635864117386625E9, 0.0, 2022-09-19 16:20:11.738
53.0, 16186.39572696635, 41114.13402725864, -15585.80435345225, -9717.35384671138, -187500.02235174447, -187500.02235174447, -18230.730978337644, -18440.055065161596, 0.652, -0.6940000000000001, 0.382, 192.0, 0.0, 0.0, 0.0, 0.0, 0.0, 0.0, 0.0, 0.0, 0.0, 1.6635864117415955E9, 0.0, 2022-09-19 16:20:11.741
54.0, 16189.860247356923, 41111.89885281311, -15585.782001707794, -9712.34705595339, -187500.02235174447, -187500.02235174447, -18219.264533432073, -18431.561402268577, 0.652, -0.6940000000000001, 0.382, 192.0, 0.0, 0.0, 0.0, 0.0, 0.0, 0.0, 0.0, 0.0, 0.0, 1.6635864117456634E9, 0.0, 2022-09-19 16:20:11.745
55.0, 16203.047776585554, 41127.880350098654, -15584.79852495176, -9719.499614179089, -187500.02235174447, -187500.02235174447, -18159.49596875858, -18437.03757966013, 0.644, -0.6960000000000001, 0.38, 192.0, 20.0, 32.0, 234.0, 64.0, 11.0, 224.0, 0.0, 0.0, 0.0, 1.6635864117496786E9, 0.0, 2022-09-19 16:20:11.749
56.0, 16213.150765079352, 41142.67720492807, -15581.289301072276, -9707.876707062329, -187500.02235174447, -187500.02235174447, -18105.29298845446, -18432.611934257977, 0.644, -0.6960000000000001, 0.38, 192.0, 0.0, 0.0, 0.0, 0.0, 0.0, 0.0, 0.0, 0.0, 0.0, 1.6635864117536614E9, 0.0, 2022-09-19 16:20:11.753
57.0, 16201.818430640511, 41133.982376334956, -15585.782001707794, -9705.954457039174, -187500.02235174447, -187500.02235174447, -18134.797291135466, -18432.343713324513, 0.644, -0.6960000000000001, 0.38, 192.0, 0.0, 0.0, 0.0, 0.0, 0.0, 0.0, 0.0, 0.0, 0.0, 1.66358641175767E9, 0.0, 2022-09-19 16:20:11.757
58.0, 16196.63282592688, 41121.867730840175, -15588.08423138669, -9705.4403669167, -187500.02235174447, -187500.02235174447, -18172.325870075925, -18427.15810861088, 0.644, -0.6960000000000001, 0.38, 192.0, 0.0, 0.0, 0.0, 0.0, 0.0, 0.0, 0.0, 0.0, 0.0, 1.6635864117626843E9, 0.0, 2022-09-19 16:20:11.762
59.0, 16204.165363808319, 41123.58881516324, -15584.820876696216, -9705.01568377205, -187500.02235174447, -187500.02235174447, -18160.72531470362, -18420.83256493003, 0.644, -0.6960000000000001, 0.38, 192.0, 0.0, 0.0, 0.0, 0.0, 0.0, 0.0, 0.0, 0.0, 0.0, 1.6635864117667253E9, 0.0, 2022-09-19 16:20:11.766
60.0, 16208.792174910568, 41132.82008562328, -15588.218341853422, -9712.01177978656, -187500.02235174447, -187500.02235174447, -18110.43388967918, -18428.432158044834, 0.644, -0.6960000000000001, 0.38, 192.0, 0.0, 0.0, 0.0, 0.0, 0.0, 0.0, 0.0, 0.0, 0.0, 1.6635864117697408E9, 0.0, 2022-09-19 16:20:11.769
61.0, 16210.088576088976, 41139.23503628195, -15592.398118066565, -9712.212945486659, -187500.02235174447, -187500.02235174447, -18068.52436882548, -18425.414672543367, 0.644, -0.6960000000000001, 0.38, 192.0, 0.0, 0.0, 0.0, 0.0, 0.0, 0.0, 0.0, 0.0, 0.0, 1.663586411774686E9, 0.0, 2022-09-19 16:20:11.774
62.0, 16195.470535215205, 41122.13595177364, -15599.193048380977, -9706.177974483726, -187500.02235174447, -187500.02235174447, -18105.11417449882, -18431.114367379472, 0.644, -0.6960000000000001, 0.38, 192.0, 0.0, 0.0, 0.0, 0.0, 0.0, 0.0, 0.0, 0.0, 0.0, 1.6635864117787564E9, 0.0, 2022-09-19 16:20:11.778
63.0, 16185.30049148804, 41107.540262644325, -15600.981187937403, -9716.124500766338, -187500.02235174447, -187500.02235174447, -18143.24625053957, -18442.334943096037, 0.644, -0.6960000000000001, 0.38, 192.0, 0.0, 0.0, 0.0, 0.0, 0.0, 0.0, 0.0, 0.0, 0.0, 1.6635864117827082E9, 0.0, 2022-09-19 16:20:11.782
64.0, 16189.703785145735, 41112.52470165786, -15598.634254769595, -9718.784358356519, -187500.02235174447, -187500.02235174447, -18133.92557310171, -18440.189175628326, 0.644, -0.6960000000000001, 0.38, 192.0, 0.0, 0.0, 0.0, 0.0, 0.0, 0.0, 0.0, 0.0, 0.0, 1.6635864117877214E9, 0.0, 2022-09-19 16:20:11.787
65.0, 16197.169267793808, 41121.15247501761, -15594.722699489916, -9714.381064698824, -187500.02235174447, -187500.02235174447, -18090.652595836236, -18436.903469193396, 0.642, -0.6960000000000001, 0.38, 192.0, 20.0, 16.0, 234.0, 64.0, 11.0, 224.0, 0.0, 0.0, 0.0, 1.663586411791711E9, 0.0, 2022-09-19 16:20:11.791
66.0, 16197.772764894102, 41127.96975707648, -15598.723661747415, -9717.555012411478, -187500.02235174447, -187500.02235174447, -18043.870394691276, -18441.418521573367, 0.642, -0.6960000000000001, 0.38, 192.0, 0.0, 0.0, 0.0, 0.0, 0.0, 0.0, 0.0, 0.0, 0.0, 1.6635864117947671E9, 0.0, 2022-09-19 16:20:11.794
67.0, 16193.235360769673, 41126.360431475696, -15597.203743124455, -9710.760082097064, -187500.02235174447, -187500.02235174447, -18064.746924012536, -18423.6488847314, 0.642, -0.6960000000000001, 0.38, 192.0, 0.0, 0.0, 0.0, 0.0, 0.0, 0.0, 0.0, 0.0, 0.0, 1.6635864117977624E9, 0.0, 2022-09-19 16:20:11.797
68.0, 16183.065317042508, 41117.21856799347, -15597.360205335643, -9711.520041408545, -187500.02235174447, -187500.02235174447, -18101.023805263496, -18422.84422193101, 0.642, -0.6960000000000001, 0.38, 192.0, 0.0, 0.0, 0.0, 0.0, 0.0, 0.0, 0.0, 0.0, 0.0, 1.6635864118017163E9, 0.0, 2022-09-19 16:20:11.801
69.0, 16181.500694930637, 41109.484864411934, -15594.007443667346, -9705.954457039174, -187500.02235174447, -187500.02235174447, -18100.86734305231, -18417.233934072727, 0.642, -0.6960000000000001, 0.38, 192.0, 0.0, 0.0, 0.0, 0.0, 0.0, 0.0, 0.0, 0.0, 0.0, 1.6635864118057673E9, 0.0, 2022-09-19 16:20:11.805
70.0, 16193.704747403235, 41120.258405239394, -15591.74991747736, -9706.602657628377, -187500.02235174447, -187500.02235174447, -18053.30283085142, -18422.061910875072, 0.642, -0.6960000000000001, 0.38, 192.0, 0.0, 0.0, 0.0, 0.0, 0.0, 0.0, 0.0, 0.0, 0.0, 1.6635864118097644E9, 0.0, 2022-09-19 16:20:11.809
71.0, 16197.839820127467, 41132.55186468981, -15591.682862243995, -9712.235297231115, -187500.02235174447, -187500.02235174447, -18000.28449300343, -18428.074530133552, 0.642, -0.6960000000000001, 0.38, 192.0, 0.0, 0.0, 0.0, 0.0, 0.0, 0.0, 0.0, 0.0, 0.0, 1.6635864118138497E9, 0.0, 2022-09-19 16:20:11.813
72.0, 16189.815543868011, 41122.225358751464, -15594.275664600811, -9707.228506473126, -187500.02235174447, -187500.02235174447, -18024.938467137632, -18418.329169551038, 0.642, -0.6960000000000001, 0.38, 192.0, 0.0, 0.0, 0.0, 0.0, 0.0, 0.0, 0.0, 0.0, 0.0, 1.6635864118177967E9, 0.0, 2022-09-19 16:20:11.817
73.0, 16181.67950888628, 41109.86484406768, -15597.114336146635, -9712.056483275472, -187500.02235174447, -187500.02235174447, -18064.47870307907, -18428.186288855828, 0.642, -0.6960000000000001, 0.38, 192.0, 0.0, 0.0, 0.0, 0.0, 0.0, 0.0, 0.0, 0.0, 0.0, 1.6635864118217688E9, 0.0, 2022-09-19 16:20:11.821
74.0, 16183.244130998151, 41111.69768711301, -15593.60511226715, -9715.11867226585, -187500.02235174447, -187500.02235174447, -18061.349458855326, -18435.18238487034, 0.642, -0.6960000000000001, 0.38, 192.0, 0.0, 0.0, 0.0, 0.0, 0.0, 0.0, 0.0, 0.0, 0.0, 1.6635864118248167E9, 0.0, 2022-09-19 16:20:11.824
75.0, 16189.212046767718, 41118.447913938515, -15591.794620966271, -9704.076910504928, -187500.02235174447, -187500.02235174447, -18022.926810136654, -18422.03955913062, 0.64, -0.6960000000000001, 0.38, 192.0, 20.0, 0.0, 234.0, 64.0, 11.0, 224.0, 0.0, 0.0, 0.0, 1.663586411829824E9, 0.0, 2022-09-19 16:20:11.829
76.0, 16194.352947992438, 41126.44983845352, -15592.88985644458, -9708.30139020698, -187500.02235174447, -187500.02235174447, -17974.714097346558, -18415.132870093927, 0.64, -0.6960000000000001, 0.38, 192.0, 0.0, 0.0, 0.0, 0.0, 0.0, 0.0, 0.0, 0.0, 0.0, 1.6635864118338542E9, 0.0, 2022-09-19 16:20:11.833
77.0, 16187.178038022286, 41120.03488779484, -15598.187219880489, -9704.948628538685, -187500.02235174447, -187500.02235174447, -17993.80248711139, -18415.31168404957, 0.64, -0.6960000000000001, 0.38, 192.0, 0.0, 0.0, 0.0, 0.0, 0.0, 0.0, 0.0, 0.0, 0.0, 1.6635864118378716E9, 0.0, 2022-09-19 16:20:11.837
78.0, 16181.947729819743, 41111.51887315737, -15596.42143206852, -9710.469509419145, -187500.02235174447, -187500.02235174447, -18031.08519686284, -18423.89475392041, 0.64, -0.6960000000000001, 0.38, 192.0, 0.0, 0.0, 0.0, 0.0, 0.0, 0.0, 0.0, 0.0, 0.0, 1.6635864118418024E9, 0.0, 2022-09-19 16:20:11.841
79.0, 16181.567750164004, 41107.49555915542, -15589.000652909357, -9707.11674775085, -187500.02235174447, -187500.02235174447, -18032.314542807882, -18407.041538601105, 0.64, -0.6960000000000001, 0.38, 192.0, 0.0, 0.0, 0.0, 0.0, 0.0, 0.0, 0.0, 0.0, 0.0, 1.663586411845899E9, 0.0, 2022-09-19 16:20:11.845
80.0, 16190.77666887959, 41118.13498951614, -15586.31844357472, -9705.485070405612, -187500.02235174447, -187500.02235174447, -17989.600359153792, -18410.5954659695, 0.64, -0.6960000000000001, 0.38, 192.0, 0.0, 0.0, 0.0, 0.0, 0.0, 0.0, 0.0, 0.0, 0.0, 1.663586411850865E9, 0.0, 2022-09-19 16:20:11.850
81.0, 16199.717366661713, 41131.47898095596, -15586.027870896802, -9700.63474185881, -187500.02235174447, -187500.02235174447, -17935.0844544273, -18400.26896003115, 0.64, -0.6960000000000001, 0.38, 192.0, 0.0, 0.0, 0.0, 0.0, 0.0, 0.0, 0.0, 0.0, 0.0, 1.6635864118549073E9, 0.0, 2022-09-19 16:20:11.854
82.0, 16196.945750349254, 41129.02028906588, -15587.637196497584, -9701.104128492372, -187500.02235174447, -187500.02235174447, -17953.34582964728, -18400.939512364806, 0.64, -0.6960000000000001, 0.38, 192.0, 0.0, 0.0, 0.0, 0.0, 0.0, 0.0, 0.0, 0.0, 0.0, 1.6635864118578804E9, 0.0, 2022-09-19 16:20:11.857
83.0, 16184.920511832299, 41118.35850696069, -15586.340795319176, -9703.361654682358, -187500.02235174447, -187500.02235174447, -17996.283530745928, -18405.007529855673, 0.64, -0.6960000000000001, 0.38, 192.0, 0.0, 0.0, 0.0, 0.0, 0.0, 0.0, 0.0, 0.0, 0.0, 1.6635864118628993E9, 0.0, 2022-09-19 16:20:11.862
84.0, 16182.506523431126, 41112.54705340231, -15582.004556894846, -9695.225619700626, -187500.02235174447, -187500.02235174447, -17998.60811216928, -18400.246608286692, 0.64, -0.6960000000000001, 0.38, 192.0, 0.0, 0.0, 0.0, 0.0, 0.0, 0.0, 0.0, 0.0, 0.0, 1.6635864118669515E9, 0.0, 2022-09-19 16:20:11.866
85.0, 16194.420003225805, 41122.24771049592, -15577.51185625933, -9696.320855178936, -187500.02235174447, -187500.02235174447, -17952.340001146797, -18401.744175165197, 0.642, -0.6980000000000001, 0.38, 192.0, 20.0, 16.0, 234.0, 48.0, 11.0, 224.0, 0.0, 0.0, 0.0, 1.6635864118719077E9, 0.0, 2022-09-19 16:20:11.871
86.0, 16207.8757533879, 41137.98333859245, -15579.94819640496, -9701.998198270583, -187500.02235174447, -187500.02235174447, -17892.392622517662, -18403.50996297717, 0.642, -0.6980000000000001, 0.38, 192.0, 0.0, 0.0, 0.0, 0.0, 0.0, 0.0, 0.0, 0.0, 0.0, 1.6635864118758872E9, 0.0, 2022-09-19 16:20:11.875
87.0, 16196.96810209371, 41136.821047880774, -15585.156152863045, -9700.63474185881, -187500.02235174447, -187500.02235174447, -17903.948474401055, -18404.269922288648, 0.642, -0.6980000000000001, 0.38, 192.0, 0.0, 0.0, 0.0, 0.0, 0.0, 0.0, 0.0, 0.0, 0.0, 1.6635864118789608E9, 0.0, 2022-09-19 16:20:11.878
88.0, 16184.920511832299, 41124.92991983055, -15590.65468199905, -9702.579343626421, -187500.02235174447, -187500.02235174447, -17946.148567932676, -18408.293236290603, 0.642, -0.6980000000000001, 0.38, 192.0, 0.0, 0.0, 0.0, 0.0, 0.0, 0.0, 0.0, 0.0, 0.0, 1.663586411881944E9, 0.0, 2022-09-19 16:20:11.881
89.0, 16190.240227012662, 41119.006707549896, -15586.117277874624, -9709.754253596575, -187500.02235174447, -187500.02235174447, -17947.534376088905, -18423.112442864473, 0.642, -0.6980000000000001, 0.38, 192.0, 0.0, 0.0, 0.0, 0.0, 0.0, 0.0, 0.0, 0.0, 0.0, 1.6635864118859615E9, 0.0, 2022-09-19 16:20:11.885
90.0, 16196.521067204603, 41124.0582017968, -15581.55752200574, -9710.894192563796, -187500.02235174447, -187500.02235174447, -17906.31775931332, -18417.859782917476, 0.642, -0.6980000000000001, 0.38, 192.0, 0.0, 0.0, 0.0, 0.0, 0.0, 0.0, 0.0, 0.0, 0.0, 1.66358641188991E9, 0.0, 2022-09-19 16:20:11.889
91.0, 16204.567695208514, 41136.57517869177, -15584.150324362556, -9719.11963452335, -187500.02235174447, -187500.02235174447, -17848.404389429616, -18420.005550385184, 0.642, -0.6980000000000001, 0.38, 192.0, 0.0, 0.0, 0.0, 0.0, 0.0, 0.0, 0.0, 0.0, 0.0, 1.6635864118939755E9, 0.0, 2022-09-19 16:20:11.893
92.0, 16194.755279392635, 41128.0591640543, -15593.60511226715, -9712.034131531016, -187500.02235174447, -187500.02235174447, -17862.217767502996, -18413.903524148885, 0.642, -0.6980000000000001, 0.38, 192.0, 0.0, 0.0, 0.0, 0.0, 0.0, 0.0, 0.0, 0.0, 0.0, 1.6635864118980048E9, 0.0, 2022-09-19 16:20:11.898
93.0, 16182.975910064688, 41111.8541493242, -15598.768365236327, -9702.847564559885, -187500.02235174447, -187500.02235174447, -17908.128250614198, -18408.31558803506, 0.642, -0.6980000000000001, 0.38, 192.0, 0.0, 0.0, 0.0, 0.0, 0.0, 0.0, 0.0, 0.0, 0.0, 1.6635864119019878E9, 0.0, 2022-09-19 16:20:11.901
94.0, 16182.081840286475, 41111.8541493242, -15596.80141172426, -9698.690140091197, -187500.02235174447, -187500.02235174447, -17906.854201180246, -18412.78593692612, 0.642, -0.6980000000000001, 0.38, 192.0, 0.0, 0.0, 0.0, 0.0, 0.0, 0.0, 0.0, 0.0, 0.0, 1.6635864119059496E9, 0.0, 2022-09-19 16:20:11.905
95.0, 16179.846665840945, 41119.25257673891, -15600.534153048297, -9708.815480329453, -187500.02235174447, -187500.02235174447, -17866.956337327523, -18417.144527094904, 0.65, -0.6980000000000001, 0.38, 192.0, 20.0, 80.0, 234.0, 48.0, 11.0, 224.0, 0.0, 0.0, 0.0, 1.663586411908938E9, 0.0, 2022-09-19 16:20:11.908
96.0, 16190.240227012662, 41136.46341996949, -15602.299940860266, -9702.266419204047, -187500.02235174447, -187500.02235174447, -17802.829182485246, -18410.371948524946, 0.65, -0.6980000000000001, 0.38, 192.0, 0.0, 0.0, 0.0, 0.0, 0.0, 0.0, 0.0, 0.0, 0.0, 1.6635864119130623E9, 0.0, 2022-09-19 16:20:11.913
97.0, 16190.977834579688, 41135.72581240247, -15609.161926408045, -9698.936009280207, -187500.02235174447, -187500.02235174447, -17809.735871521934, -18410.148431080393, 0.65, -0.6980000000000001, 0.38, 192.0, 0.0, 0.0, 0.0, 0.0, 0.0, 0.0, 0.0, 0.0, 0.0, 1.663586411918014E9, 0.0, 2022-09-19 16:20:11.918
98.0, 16184.562883921015, 41126.67335589807, -15604.579818794708, -9692.29754117698, -187500.02235174447, -187500.02235174447, -17848.67261036308, -18407.086242090016, 0.65, -0.6980000000000001, 0.38, 192.0, 0.0, 0.0, 0.0, 0.0, 0.0, 0.0, 0.0, 0.0, 0.0, 1.6635864119220269E9, 0.0, 2022-09-19 16:20:11.922
99.0, 16186.06045079952, 41123.834684352245, -15595.460307056941, -9693.057500488461, -187500.02235174447, -187500.02235174447, -17851.44422667554, -18410.774279925143, 0.65, -0.6980000000000001, 0.38, 192.0, 0.0, 0.0, 0.0, 0.0, 0.0, 0.0, 0.0, 0.0, 0.0, 1.6635864119259987E9, 0.0, 2022-09-19 16:20:11.925
100.0, 16192.408346224827, 41131.300167000314, -15595.795583223771, -9695.650302845277, -187500.02235174447, -187500.02235174447, -17816.217877413976, -18409.50023049119, 0.65, -0.6980000000000001, 0.38, 192.0, 0.0, 0.0, 0.0, 0.0, 0.0, 0.0, 0.0, 0.0, 0.0, 1.663586411930038E9, 0.0, 2022-09-19 16:20:11.930
101.0, 16195.8728666154, 41141.939597361044, -15600.936484448492, -9700.902962792274, -187500.02235174447, -187500.02235174447, -17761.836083154212, -18428.16393711137, 0.65, -0.6980000000000001, 0.38, 192.0, 0.0, 0.0, 0.0, 0.0, 0.0, 0.0, 0.0, 0.0, 0.0, 1.6635864119340065E9, 0.0, 2022-09-19 16:20:11.934
102.0, 16185.613415910413, 41139.05622232631, -15605.406833339553, -9699.226581958126, -187500.02235174447, -187500.02235174447, -17773.973080393444, -18414.194096826806, 0.65, -0.6980000000000001, 0.38, 192.0, 0.0, 0.0, 0.0, 0.0, 0.0, 0.0, 0.0, 0.0, 0.0, 1.6635864119389975E9, 0.0, 2022-09-19 16:20:11.938
103.0, 16175.15279950533, 41122.44887619602, -15608.603132796663, -9707.004989028572, -187500.02235174447, -187500.02235174447, -17830.29947642082, -18427.627495244444, 0.65, -0.6980000000000001, 0.38, 192.0, 0.0, 0.0, 0.0, 0.0, 0.0, 0.0, 0.0, 0.0, 0.0, 1.6635864119430747E9, 0.0, 2022-09-19 16:20:11.943
104.0, 16173.588177393458, 41119.14081801663, -15607.977283951914, -9709.240163474104, -187500.02235174447, -187500.02235174447, -17842.749398082426, -18433.014265658174, 0.65, -0.6980000000000001, 0.38, 192.0, 0.0, 0.0, 0.0, 0.0, 0.0, 0.0, 0.0, 0.0, 0.0, 1.663586411947029E9, 0.0, 2022-09-19 16:20:11.947
105.0, 16177.075049528486, 41125.80163786431, -15608.692539774484, -9703.138137237804, -187500.02235174447, -187500.02235174447, -17807.18777265403, -18414.194096826806, 0.648, -0.6940000000000001, 0.382, 192.0, 20.0, 64.0, 234.0, 80.0, 11.0, 240.0, 0.0, 0.0, 0.0, 1.6635864119509916E9, 0.0, 2022-09-19 16:20:11.950
106.0, 16185.30049148804, 41133.62474842367, -15610.011292697347, -9708.681369862721, -187500.02235174447, -187500.02235174447, -17753.36477200565, -18411.824811914543, 0.648, -0.6940000000000001, 0.382, 192.0, 0.0, 0.0, 0.0, 0.0, 0.0, 0.0, 0.0, 0.0, 0.0, 1.663586411954018E9, 0.0, 2022-09-19 16:20:11.954
107.0, 16181.05366004153, 41123.477056440955, -15615.040435199791, -9718.046750789494, -187500.02235174447, -187500.02235174447, -17768.072219857244, -18417.30098930609, 0.648, -0.6940000000000001, 0.382, 192.0, 0.0, 0.0, 0.0, 0.0, 0.0, 0.0, 0.0, 0.0, 0.0, 1.6635864119580195E9, 0.0, 2022-09-19 16:20:11.958
108.0, 16176.292738472552, 41108.166111489074, -15611.687673531495, -9706.312084950458, -187500.02235174447, -187500.02235174447, -17818.989493726433, -18417.144527094904, 0.648, -0.6940000000000001, 0.382, 192.0, 0.0, 0.0, 0.0, 0.0, 0.0, 0.0, 0.0, 0.0, 0.0, 1.6635864119610846E9, 0.0, 2022-09-19 16:20:11.961
109.0, 16172.694107615247, 41098.68897184003, -15611.330045620209, -9711.967076297651, -187500.02235174447, -187500.02235174447, -17832.422892144074, -18423.246553331202, 0.648, -0.6940000000000001, 0.382, 192.0, 0.0, 0.0, 0.0, 0.0, 0.0, 0.0, 0.0, 0.0, 0.0, 1.6635864119650524E9, 0.0, 2022-09-19 16:20:11.965
110.0, 16177.05269778403, 41103.494596897915, -15610.592438053185, -9723.277058992036, -187500.02235174447, -187500.02235174447, -17798.470592316462, -18433.282486591637, 0.648, -0.6940000000000001, 0.382, 192.0, 0.0, 0.0, 0.0, 0.0, 0.0, 0.0, 0.0, 0.0, 0.0, 1.663586411969091E9, 0.0, 2022-09-19 16:20:11.969
111.0, 16178.349098962439, 41118.42556219406, -15606.2338478844, -9717.577364155934, -187500.02235174447, -187500.02235174447, -17736.824481108724, -18420.564343996568, 0.648, -0.6940000000000001, 0.382, 192.0, 0.0, 0.0, 0.0, 0.0, 0.0, 0.0, 0.0, 0.0, 0.0, 1.6635864119740696E9, 0.0, 2022-09-19 16:20:11.974
112.0, 16181.120715274898, 41118.51496917188, -15604.17748739451, -9706.714416350653, -187500.02235174447, -187500.02235174447, -17735.84100435269, -18410.371948524946, 0.648, -0.6940000000000001, 0.382, 192.0, 0.0, 0.0, 0.0, 0.0, 0.0, 0.0, 0.0, 0.0, 0.0, 1.663586411978042E9, 0.0, 2022-09-19 16:20:11.978
113.0, 16179.243168740652, 41105.84153006572, -15597.807240224749, -9709.284866963013, -187500.02235174447, -187500.02235174447, -17781.058583385777, -18410.439003758314, 0.648, -0.6940000000000001, 0.382, 192.0, 0.0, 0.0, 0.0, 0.0, 0.0, 0.0, 0.0, 0.0, 0.0, 1.6635864119820204E9, 0.0, 2022-09-19 16:20:11.982
114.0, 16175.130447760876, 41099.56068987378, -15595.169734379022, -9713.68816062071, -187500.02235174447, -187500.02235174447, -17791.22862711294, -18415.40109102739, 0.648, -0.6940000000000001, 0.382, 192.0, 0.0, 0.0, 0.0, 0.0, 0.0, 0.0, 0.0, 0.0, 0.0, 1.6635864119851508E9, 0.0, 2022-09-19 16:20:11.985
115.0, 16180.718383874702, 41104.27690795385, -15593.1804291225, -9713.129367009327, -187500.02235174447, -187500.02235174447, -17756.51636797385, -18413.478841004235, 0.64, -0.6920000000000001, 0.384, 192.0, 20.0, 0.0, 234.0, 96.0, 12.0, 0.0, 0.0, 0.0, 0.0, 1.6635864119890409E9, 0.0, 2022-09-19 16:20:11.989
116.0, 16190.351985734938, 41117.397381949115, -15593.068670400224, -9721.645381646798, -187500.02235174447, -187500.02235174447, -17692.523323598307, -18425.727596965742, 0.64, -0.6920000000000001, 0.384, 192.0, 0.0, 0.0, 0.0, 0.0, 0.0, 0.0, 0.0, 0.0, 0.0, 1.6635864119931743E9, 0.0, 2022-09-19 16:20:11.993
117.0, 16187.334500233472, 41117.79971334931, -15597.807240224749, -9710.58126814142, -187500.02235174447, -187500.02235174447, -17680.58749205917, -18402.54883796559, 0.64, -0.6920000000000001, 0.384, 192.0, 0.0, 0.0, 0.0, 0.0, 0.0, 0.0, 0.0, 0.0, 0.0, 1.6635864119970667E9, 0.0, 2022-09-19 16:20:11.997
118.0, 16178.550264662537, 41104.85805330969, -15601.22705712641, -9702.355826181869, -187500.02235174447, -187500.02235174447, -17723.301675713265, -18386.857913357962, 0.64, -0.6920000000000001, 0.384, 192.0, 0.0, 0.0, 0.0, 0.0, 0.0, 0.0, 0.0, 0.0, 0.0, 1.6635864120011272E9, 0.0, 2022-09-19 16:20:12.001
119.0, 16176.337441961461, 41101.92997478604, -15604.51276356134, -9715.029265288027, -187500.02235174447, -187500.02235174447, -17732.868222340134, -18406.750965923187, 0.64, -0.6920000000000001, 0.384, 192.0, 0.0, 0.0, 0.0, 0.0, 0.0, 0.0, 0.0, 0.0, 0.0, 1.6635864120060613E9, 0.0, 2022-09-19 16:20:12.006
120.0, 16188.34032873396, 41112.54705340231, -15596.130859390601, -9714.78339609902, -187500.02235174447, -187500.02235174447, -17695.60786433314, -18406.25922754517, 0.64, -0.6920000000000001, 0.384, 192.0, 0.0, 0.0, 0.0, 0.0, 0.0, 0.0, 0.0, 0.0, 0.0, 1.663586412010111E9, 0.0, 2022-09-19 16:20:12.010
121.0, 16196.386956737872, 41131.70249840051, -15588.46421104243, -9725.623992159843, -187500.02235174447, -187500.02235174447, -17624.618723943084, -18413.635303215422, 0.64, -0.6920000000000001, 0.384, 192.0, 0.0, 0.0, 0.0, 0.0, 0.0, 0.0, 0.0, 0.0, 0.0, 1.6635864120140915E9, 0.0, 2022-09-19 16:20:12.014
122.0, 16197.102212560441, 41141.26904502738, -15584.217379595922, -9712.659980375765, -187500.02235174447, -187500.02235174447, -17602.602255654605, -18402.660596687867, 0.64, -0.6920000000000001, 0.384, 192.0, 0.0, 0.0, 0.0, 0.0, 0.0, 0.0, 0.0, 0.0, 0.0, 1.66358641201817E9, 0.0, 2022-09-19 16:20:12.018
123.0, 16193.145953791853, 41139.54796070432, -15584.84322844067, -9703.138137237804, -187500.02235174447, -187500.02235174447, -17633.53706998075, -18395.820962884543, 0.64, -0.6920000000000001, 0.384, 192.0, 0.0, 0.0, 0.0, 0.0, 0.0, 0.0, 0.0, 0.0, 0.0, 1.6635864120220945E9, 0.0, 2022-09-19 16:20:12.022
124.0, 16191.000186324143, 41137.69276591454, -15588.195990108967, -9705.283904705513, -187500.02235174447, -187500.02235174447, -17642.701285207426, -18398.77139315264, 0.64, -0.6920000000000001, 0.384, 192.0, 0.0, 0.0, 0.0, 0.0, 0.0, 0.0, 0.0, 0.0, 0.0, 1.6635864120271218E9, 0.0, 2022-09-19 16:20:12.027
125.0, 16196.297549760051, 41145.33706251825, -15587.36897556412, -9711.788262342008, -187500.02235174447, -187500.02235174447, -17609.888924347037, -18402.414727498857, 0.64, -0.6920000000000001, 0.384, 192.0, 0.0, 0.0, 0.0, 0.0, 0.0, 0.0, 0.0, 0.0, 0.0, 1.663586412031139E9, 0.0, 2022-09-19 16:20:12.031
126.0, 16198.10804106093, 41155.23888531195, -15590.140591876578, -9717.01857054455, -187500.02235174447, -187500.02235174447, -17550.23211839582, -18406.63920720091, 0.644, -0.6920000000000001, 0.378, 192.0, 20.0, 32.0, 234.0, 96.0, 11.0, 208.0, 0.0, 0.0, 0.0, 1.6635864120351667E9, 0.0, 2022-09-19 16:20:12.035
127.0, 16189.882599101378, 41156.11060334571, -15597.42726056901, -9730.183748028725, -187500.02235174447, -187500.02235174447, -17539.503281057274, -18411.78010842563, 0.644, -0.6920000000000001, 0.378, 192.0, 0.0, 0.0, 0.0, 0.0, 0.0, 0.0, 0.0, 0.0, 0.0, 1.6635864120391543E9, 0.0, 2022-09-19 16:20:12.039
128.0, 16177.209159995218, 41148.75687941991, -15597.18139138, -9722.472396191644, -187500.02235174447, -187500.02235174447, -17576.271900686254, -18401.341843765003, 0.644, -0.6920000000000001, 0.378, 192.0, 0.0, 0.0, 0.0, 0.0, 0.0, 0.0, 0.0, 0.0, 0.0, 1.6635864120432956E9, 0.0, 2022-09-19 16:20:12.043
129.0, 16182.327709475483, 41143.124239817174, -15594.275664600811, -9712.145890253292, -187500.02235174447, -187500.02235174447, -17589.638243870526, -18396.91619836285, 0.644, -0.6920000000000001, 0.378, 192.0, 0.0, 0.0, 0.0, 0.0, 0.0, 0.0, 0.0, 0.0, 0.0, 1.6635864120462213E9, 0.0, 2022-09-19 16:20:12.046
130.0, 16189.189695023262, 41146.074670085276, -15590.878199443603, -9715.230430988126, -187500.02235174447, -187500.02235174447, -17565.498359858797, -18409.813154913565, 0.644, -0.6920000000000001, 0.378, 192.0, 0.0, 0.0, 0.0, 0.0, 0.0, 0.0, 0.0, 0.0, 0.0, 1.6635864120492167E9, 0.0, 2022-09-19 16:20:12.049
131.0, 16197.102212560441, 41157.250542312926, -15589.917074432025, -9720.036056046016, -187500.02235174447, -187500.02235174447, -17502.84642015057, -18399.419593741848, 0.644, -0.6920000000000001, 0.378, 192.0, 0.0, 0.0, 0.0, 0.0, 0.0, 0.0, 0.0, 0.0, 0.0, 1.663586412053244E9, 0.0, 2022-09-19 16:20:12.053
