%OpenBCI Raw EEG Data
%Number of channels = 8
%Sample Rate = 250 Hz
%Board = OpenBCI_GUI$BoardCytonSerial
Sample Index, EXG Channel 0, EXG Channel 1, EXG Channel 2, EXG Channel 3, EXG Channel 4, EXG Channel 5, EXG Channel 6, EXG Channel 7, Accel Channel 0, Accel Channel 1, Accel Channel 2, Other, Other, Other, Other, Other, Other, Other, Analog Channel 0, Analog Channel 1, Analog Channel 2, Timestamp, Other, Timestamp (Formatted)
136.0, 22295.283948812958, 73675.88712881651, 15496.866762264583, 110144.3451815063, 187500.0, 187500.0, 1487.9556283897912, 21962.332363406702, 0.0, 0.0, 0.0, 192.0, 0.0, 0.0, 0.0, 0.0, 0.0, 0.0, 0.0, 0.0, 0.0, 1.6635889129741745E9, 0.0, 2022-09-19 17:01:52.974
137.0, 22292.378222033767, 73571.97386884378, 15497.425555875965, 110102.07803274132, 187500.0, 187500.0, 1513.3025066021094, 21966.86976753113, 0.0, 0.0, 0.0, 192.0, 0.0, 0.0, 0.0, 0.0, 0.0, 0.0, 0.0, 0.0, 0.0, 1.6635889129742131E9, 0.0, 2022-09-19 17:01:52.974
138.0, 22289.18192257666, 73493.96628069476, 15503.862858279093, 110078.54164582989, 187500.0, 187500.0, 1533.7543527787154, 21969.39551465458, 0.0, 0.0, 0.0, 192.0, 0.0, 0.0, 0.0, 0.0, 0.0, 0.0, 0.0, 0.0, 0.0, 1.663588912974228E9, 0.0, 2022-09-19 17:01:52.974
139.0, 22292.378222033767, 73422.03836703759, 15502.25353267831, 110050.4231513051, 187500.0, 187500.0, 1533.6202423119835, 21965.483959374902, 0.0, 0.0, 0.0, 192.0, 0.0, 0.0, 0.0, 0.0, 0.0, 0.0, 0.0, 0.0, 0.0, 1.6635889129742413E9, 0.0, 2022-09-19 17:01:52.974
0.0, 0.0, 0.0, 0.0, 0.0, 0.0, 0.0, 0.0, 0.0, 0.64, -0.658, 0.456, 192.0, 20.0, 0.0, 235.0, 112.0, 14.0, 64.0, 0.0, 0.0, 0.0, 1.6635889130449183E9, 0.0, 2022-09-19 17:01:53.044
1.0, 22949.34069506415, -55674.52975207922, 17326.535859887106, 113801.98464417276, 187500.0, 187500.0, 3155.7310409225274, 21487.894235598356, 0.64, -0.658, 0.456, 192.0, 0.0, 0.0, 0.0, 0.0, 0.0, 0.0, 0.0, 0.0, 0.0, 1.6635889130619142E9, 0.0, 2022-09-19 17:01:53.061
2.0, 22987.942157738467, -55697.57440061265, 17335.633019880417, 113813.67460652288, 187500.0, 187500.0, 3175.4676312765637, 21521.958294148244, 0.64, -0.658, 0.456, 192.0, 0.0, 0.0, 0.0, 0.0, 0.0, 0.0, 0.0, 0.0, 0.0, 1.663588913064875E9, 0.0, 2022-09-19 17:01:53.064
3.0, 22999.92269276651, -55704.481089649336, 17339.656333882373, 113838.86502252401, 187500.0, 187500.0, 3192.0749774068568, 21522.91941915982, 0.64, -0.658, 0.456, 192.0, 0.0, 0.0, 0.0, 0.0, 0.0, 0.0, 0.0, 0.0, 0.0, 1.6635889130678544E9, 0.0, 2022-09-19 17:01:53.067
4.0, 23004.996538757867, -55683.80572602818, 17341.086845527512, 113884.48493295729, 187500.0, 187500.0, 3206.7600735139936, 21524.193468593774, 0.64, -0.658, 0.456, 192.0, 0.0, 0.0, 0.0, 0.0, 0.0, 0.0, 0.0, 0.0, 0.0, 1.663588913072908E9, 0.0, 2022-09-19 17:01:53.072
5.0, 22993.686556063483, -55688.320778408146, 17347.25592699718, 113909.72005244733, 187500.0, 187500.0, 3193.214916374078, 21524.819317438523, 0.64, -0.658, 0.456, 192.0, 0.0, 0.0, 0.0, 0.0, 0.0, 0.0, 0.0, 0.0, 0.0, 1.6635889130760417E9, 0.0, 2022-09-19 17:01:53.076
6.0, 22989.50677985034, -55719.81438634567, 17354.453188711785, 113907.14960183497, 187500.0, 187500.0, 3175.355872554287, 21521.89123891488, 0.64, -0.658, 0.456, 192.0, 0.0, 0.0, 0.0, 0.0, 0.0, 0.0, 0.0, 0.0, 0.0, 1.6635889130800076E9, 0.0, 2022-09-19 17:01:53.080
7.0, 22981.01311695732, -55732.24195626283, 17356.889528857413, 113922.16997410894, 187500.0, 187500.0, 3180.8991051792036, 21528.97674190721, 0.64, -0.658, 0.456, 192.0, 0.0, 0.0, 0.0, 0.0, 0.0, 0.0, 0.0, 0.0, 0.0, 1.6635889130829363E9, 0.0, 2022-09-19 17:01:53.082
8.0, 22967.06562841721, -55739.416866232976, 17345.512490929665, 113944.94640170889, 187500.0, 187500.0, 3188.5657535273735, 21516.035081867587, 0.64, -0.658, 0.452, 192.0, 20.0, 0.0, 235.0, 112.0, 14.0, 32.0, 0.0, 0.0, 0.0, 1.663588913086928E9, 0.0, 2022-09-19 17:01:53.086
9.0, 22975.24636688785, -55718.652095633995, 17343.85846183997, 113988.84522781913, 187500.0, 187500.0, 3205.4413205911305, 21500.277102026594, 0.64, -0.658, 0.452, 192.0, 0.0, 0.0, 0.0, 0.0, 0.0, 0.0, 0.0, 0.0, 0.0, 1.6635889130909123E9, 0.0, 2022-09-19 17:01:53.090
10.0, 22983.06947744721, -55711.99127578632, 17348.172348519845, 114018.88597236705, 187500.0, 187500.0, 3195.0254076749575, 21493.01278507862, 0.64, -0.658, 0.452, 192.0, 0.0, 0.0, 0.0, 0.0, 0.0, 0.0, 0.0, 0.0, 0.0, 1.6635889130951068E9, 0.0, 2022-09-19 17:01:53.095
11.0, 22988.568006583217, -55742.83668313464, 17344.014924051156, 114011.84517286363, 187500.0, 187500.0, 3175.422927787653, 21491.49286645566, 0.64, -0.658, 0.452, 192.0, 0.0, 0.0, 0.0, 0.0, 0.0, 0.0, 0.0, 0.0, 0.0, 1.6635889130999043E9, 0.0, 2022-09-19 17:01:53.099
12.0, 22989.01504147232, -55760.27104380978, 17340.326886216033, 114015.82378337668, 187500.0, 187500.0, 3184.363625569776, 21498.332500258985, 0.64, -0.658, 0.452, 192.0, 0.0, 0.0, 0.0, 0.0, 0.0, 0.0, 0.0, 0.0, 0.0, 1.6635889131029384E9, 0.0, 2022-09-19 17:01:53.102
13.0, 22973.145302909055, -55759.39932577602, 17327.89931629888, 114041.48358601137, 187500.0, 187500.0, 3185.660026748184, 21503.182828805784, 0.64, -0.658, 0.452, 192.0, 0.0, 0.0, 0.0, 0.0, 0.0, 0.0, 0.0, 0.0, 0.0, 1.6635889131070323E9, 0.0, 2022-09-19 17:01:53.107
14.0, 22986.712811793426, -55723.614182903075, 17341.779749605626, 114100.89452277357, 187500.0, 187500.0, 3201.753282756005, 21527.948561662266, 0.64, -0.658, 0.452, 192.0, 0.0, 0.0, 0.0, 0.0, 0.0, 0.0, 0.0, 0.0, 0.0, 1.663588913110974E9, 0.0, 2022-09-19 17:01:53.110
15.0, 22989.752649039347, -55722.09426428012, 17362.499816715695, 114125.07911027422, 187500.0, 187500.0, 3195.137166397234, 21536.59868676647, 0.64, -0.658, 0.452, 192.0, 0.0, 0.0, 0.0, 0.0, 0.0, 0.0, 0.0, 0.0, 0.0, 1.6635889131150095E9, 0.0, 2022-09-19 17:01:53.115
16.0, 22982.175407668998, -55748.089343081636, 17365.76317140617, 114122.73217710642, 187500.0, 187500.0, 3182.776651713449, 21536.151651877364, 0.64, -0.658, 0.452, 192.0, 0.0, 0.0, 0.0, 0.0, 0.0, 0.0, 0.0, 0.0, 0.0, 1.6635889131189387E9, 0.0, 2022-09-19 17:01:53.118
17.0, 22975.179311654487, -55751.88913963904, 17358.34239224701, 114140.9935523264, 187500.0, 187500.0, 3188.4539948050974, 21529.513183774136, 0.64, -0.658, 0.452, 192.0, 0.0, 0.0, 0.0, 0.0, 0.0, 0.0, 0.0, 0.0, 0.0, 1.663588913123021E9, 0.0, 2022-09-19 17:01:53.123
18.0, 22954.92863117798, -55740.042715077725, 17346.361857218966, 114172.12953235264, 187500.0, 187500.0, 3193.5725442853627, 21508.189619563775, 0.644, -0.664, 0.444, 192.0, 20.0, 32.0, 235.0, 64.0, 13.0, 224.0, 0.0, 0.0, 0.0, 1.6635889131280124E9, 0.0, 2022-09-19 17:01:53.128
19.0, 22949.29599157524, -55704.458737904875, 17344.70782812927, 114224.4102626336, 187500.0, 187500.0, 3205.687189780139, 21510.514200987127, 0.644, -0.664, 0.444, 192.0, 0.0, 0.0, 0.0, 0.0, 0.0, 0.0, 0.0, 0.0, 0.0, 1.6635889131310463E9, 0.0, 2022-09-19 17:01:53.131
20.0, 22970.373686596595, -55690.17597319794, 17356.576604435042, 114256.59677464924, 187500.0, 187500.0, 3194.131337896745, 21521.332445303495, 0.644, -0.664, 0.444, 192.0, 0.0, 0.0, 0.0, 0.0, 0.0, 0.0, 0.0, 0.0, 0.0, 1.663588913134103E9, 0.0, 2022-09-19 17:01:53.134
21.0, 22998.93921601048, -55705.12929023854, 17364.332659761032, 114258.74254211695, 187500.0, 187500.0, 3184.810660458882, 21524.10406161595, 0.644, -0.664, 0.444, 192.0, 0.0, 0.0, 0.0, 0.0, 0.0, 0.0, 0.0, 0.0, 0.0, 1.6635889131390328E9, 0.0, 2022-09-19 17:01:53.139
22.0, 22993.999480485854, -55705.48691814982, 17357.761246891172, 114275.72986790299, 187500.0, 187500.0, 3195.0477594194126, 21517.644407468368, 0.644, -0.664, 0.444, 192.0, 0.0, 0.0, 0.0, 0.0, 0.0, 0.0, 0.0, 0.0, 0.0, 1.6635889131430452E9, 0.0, 2022-09-19 17:01:53.143
23.0, 22957.87906144608, -55695.76390931176, 17341.176252505335, 114299.64623447016, 187500.0, 187500.0, 3196.098291408812, 21497.550189203048, 0.644, -0.664, 0.444, 192.0, 0.0, 0.0, 0.0, 0.0, 0.0, 0.0, 0.0, 0.0, 0.0, 1.6635889131471193E9, 0.0, 2022-09-19 17:01:53.147
24.0, 22931.50400298882, -55669.74647876579, 17324.94888603078, 114337.91242097765, 187500.0, 187500.0, 3196.835898975837, 21481.322822728496, 0.644, -0.664, 0.444, 192.0, 0.0, 0.0, 0.0, 0.0, 0.0, 0.0, 0.0, 0.0, 0.0, 1.6635889131510713E9, 0.0, 2022-09-19 17:01:53.151
25.0, 22937.762491436304, -55668.51713282074, 17323.473670896732, 114353.33512465181, 187500.0, 187500.0, 3173.9253609091475, 21500.21004679323, 0.644, -0.664, 0.444, 192.0, 0.0, 0.0, 0.0, 0.0, 0.0, 0.0, 0.0, 0.0, 0.0, 1.6635889131560247E9, 0.0, 2022-09-19 17:01:53.156
26.0, 22953.63222999957, -55689.88540052002, 17335.834185580516, 114348.30598214937, 187500.0, 187500.0, 3161.2519218029884, 21517.264427812628, 0.644, -0.664, 0.444, 192.0, 0.0, 0.0, 0.0, 0.0, 0.0, 0.0, 0.0, 0.0, 0.0, 1.6635889131591353E9, 0.0, 2022-09-19 17:01:53.159
27.0, 22980.141398923566, -55689.7959935422, 17356.554252690585, 114362.76756081195, 187500.0, 187500.0, 3179.937980167625, 21528.753224462656, 0.644, -0.664, 0.444, 192.0, 0.0, 0.0, 0.0, 0.0, 0.0, 0.0, 0.0, 0.0, 0.0, 1.6635889131632397E9, 0.0, 2022-09-19 17:01:53.163
28.0, 23006.807030058746, -55657.94475769338, 17377.944872134314, 114409.28154102345, 187500.0, 187500.0, 3215.678419551661, 21546.54521304908, 0.64, -0.656, 0.44, 192.0, 20.0, 0.0, 235.0, 128.0, 13.0, 192.0, 0.0, 0.0, 0.0, 1.663588913167099E9, 0.0, 2022-09-19 17:01:53.167
29.0, 23030.589286159193, -55620.505585730745, 17395.11101187599, 114461.60697479332, 187500.0, 187500.0, 3239.170102974189, 21553.429550341316, 0.64, -0.656, 0.44, 192.0, 0.0, 0.0, 0.0, 0.0, 0.0, 0.0, 0.0, 0.0, 0.0, 1.663588913171104E9, 0.0, 2022-09-19 17:01:53.171
30.0, 23000.79441080027, -55629.870966657516, 17390.998290896212, 114467.70900102962, 187500.0, 187500.0, 3210.7610357714934, 21541.31490484654, 0.64, -0.656, 0.44, 192.0, 0.0, 0.0, 0.0, 0.0, 0.0, 0.0, 0.0, 0.0, 0.0, 1.6635889131751244E9, 0.0, 2022-09-19 17:01:53.175
31.0, 23001.59907360066, -55648.84759770008, 17389.79129669563, 114463.75274226103, 187500.0, 187500.0, 3198.8252042323597, 21534.698788487767, 0.64, -0.656, 0.44, 192.0, 0.0, 0.0, 0.0, 0.0, 0.0, 0.0, 0.0, 0.0, 0.0, 1.6635889131810825E9, 0.0, 2022-09-19 17:01:53.181
32.0, 23024.911943067546, -55630.04978061316, 17394.507514775698, 114492.54178911947, 187500.0, 187500.0, 3218.584146330851, 21540.97962867971, 0.64, -0.656, 0.44, 192.0, 0.0, 0.0, 0.0, 0.0, 0.0, 0.0, 0.0, 0.0, 0.0, 1.6635889131840825E9, 0.0, 2022-09-19 17:01:53.184
33.0, 23006.49410563637, -55610.24613502576, 17372.759267420683, 114521.24142900007, 187500.0, 187500.0, 3222.7415707995383, 21520.147802847365, 0.64, -0.656, 0.44, 192.0, 0.0, 0.0, 0.0, 0.0, 0.0, 0.0, 0.0, 0.0, 0.0, 1.6635889131871245E9, 0.0, 2022-09-19 17:01:53.187
34.0, 22994.759439797337, -55579.04309976615, 17365.271433028156, 114557.3394962954, 187500.0, 187500.0, 3224.8649865227926, 21501.10411657144, 0.64, -0.656, 0.44, 192.0, 0.0, 0.0, 0.0, 0.0, 0.0, 0.0, 0.0, 0.0, 0.0, 1.6635889131901824E9, 0.0, 2022-09-19 17:01:53.190
35.0, 22999.095678221667, -55562.27929142467, 17371.976956364746, 114585.43563907572, 187500.0, 187500.0, 3210.6269253047617, 21518.02438712411, 0.64, -0.656, 0.44, 192.0, 0.0, 0.0, 0.0, 0.0, 0.0, 0.0, 0.0, 0.0, 0.0, 1.6635889131951044E9, 0.0, 2022-09-19 17:01:53.195
36.0, 22977.9732797114, -55579.44543116634, 17367.037220840124, 114578.90892969476, 187500.0, 187500.0, 3190.286837850432, 21522.226515081707, 0.64, -0.656, 0.44, 192.0, 0.0, 0.0, 0.0, 0.0, 0.0, 0.0, 0.0, 0.0, 0.0, 1.66358891319914E9, 0.0, 2022-09-19 17:01:53.199
37.0, 22958.482558546373, -55579.04309976615, 17358.34239224701, 114588.78840074402, 187500.0, 187500.0, 3191.717349495572, 21507.317901530016, 0.64, -0.656, 0.44, 192.0, 0.0, 0.0, 0.0, 0.0, 0.0, 0.0, 0.0, 0.0, 0.0, 1.6635889132031813E9, 0.0, 2022-09-19 17:01:53.203
38.0, 22972.474750575395, -55541.1121894255, 17368.110104573978, 114637.8057763345, 187500.0, 187500.0, 3214.3820183732532, 21515.990378378676, 0.65, -0.666, 0.44, 192.0, 20.0, 80.0, 235.0, 48.0, 13.0, 192.0, 0.0, 0.0, 0.0, 1.6635889132071364E9, 0.0, 2022-09-19 17:01:53.207
39.0, 22988.344489138664, -55498.442709260315, 17370.68055518634, 114686.6219862249, 187500.0, 187500.0, 3226.5413673569406, 21509.93305563129, 0.65, -0.666, 0.44, 192.0, 0.0, 0.0, 0.0, 0.0, 0.0, 0.0, 0.0, 0.0, 0.0, 1.6635889132111032E9, 0.0, 2022-09-19 17:01:53.211
40.0, 22969.770189496303, -55489.79258415611, 17373.76509592117, 114703.65401549984, 187500.0, 187500.0, 3202.200317645111, 21510.380090520393, 0.65, -0.666, 0.44, 192.0, 0.0, 0.0, 0.0, 0.0, 0.0, 0.0, 0.0, 0.0, 0.0, 1.6635889132140849E9, 0.0, 2022-09-19 17:01:53.214
41.0, 22968.049105173246, -55495.53698248112, 17386.48323851624, 114709.06313765803, 187500.0, 187500.0, 3195.3830355862424, 21514.358701033438, 0.65, -0.666, 0.44, 192.0, 0.0, 0.0, 0.0, 0.0, 0.0, 0.0, 0.0, 0.0, 0.0, 1.6635889132182152E9, 0.0, 2022-09-19 17:01:53.218
42.0, 22975.82751224369, -55482.90824686387, 17384.82920942655, 114731.19136466878, 187500.0, 187500.0, 3202.200317645111, 21506.356776518438, 0.65, -0.666, 0.44, 192.0, 0.0, 0.0, 0.0, 0.0, 0.0, 0.0, 0.0, 0.0, 0.0, 1.663588913222196E9, 0.0, 2022-09-19 17:01:53.222
43.0, 22989.797352528258, -55446.94429003529, 17384.80685768209, 114774.50904542317, 187500.0, 187500.0, 3217.5336143414515, 21511.96706437672, 0.65, -0.666, 0.44, 192.0, 0.0, 0.0, 0.0, 0.0, 0.0, 0.0, 0.0, 0.0, 0.0, 1.6635889132271163E9, 0.0, 2022-09-19 17:01:53.227
44.0, 23000.16856195552, -55402.956056947245, 17382.929311147847, 114823.72758671375, 187500.0, 187500.0, 3230.8329022923594, 21522.517087759625, 0.65, -0.666, 0.44, 192.0, 0.0, 0.0, 0.0, 0.0, 0.0, 0.0, 0.0, 0.0, 0.0, 1.6635889132312138E9, 0.0, 2022-09-19 17:01:53.231
45.0, 22995.675861320004, -55393.501269042645, 17385.0527268711, 114841.16194738889, 187500.0, 187500.0, 3214.694942795628, 21538.69975074527, 0.65, -0.666, 0.44, 192.0, 0.0, 0.0, 0.0, 0.0, 0.0, 0.0, 0.0, 0.0, 0.0, 1.6635889132351851E9, 0.0, 2022-09-19 17:01:53.235
46.0, 23009.824515560213, -55385.94637941675, 17392.786430452637, 114855.17649116236, 187500.0, 187500.0, 3216.661896307695, 21546.768730493633, 0.65, -0.666, 0.44, 192.0, 0.0, 0.0, 0.0, 0.0, 0.0, 0.0, 0.0, 0.0, 0.0, 1.6635889132381766E9, 0.0, 2022-09-19 17:01:53.238
47.0, 23011.724413838914, -55360.26422503761, 17387.35495655, 114882.0656397421, 187500.0, 187500.0, 3227.9942307465353, 21545.44997757077, 0.65, -0.666, 0.44, 192.0, 0.0, 0.0, 0.0, 0.0, 0.0, 0.0, 0.0, 0.0, 0.0, 1.6635889132422187E9, 0.0, 2022-09-19 17:01:53.242
48.0, 23029.76227161435, -55316.79008207203, 17384.762154193184, 114924.69041641837, 187500.0, 187500.0, 3243.5286931429737, 21550.970858451234, 0.648, -0.672, 0.438, 192.0, 20.0, 64.0, 235.0, 0.0, 13.0, 176.0, 0.0, 0.0, 0.0, 1.663588913246274E9, 0.0, 2022-09-19 17:01:53.246
49.0, 23014.384271429095, -55285.83291600143, 17374.413296510374, 114956.11696912254, 187500.0, 187500.0, 3235.4150099056974, 21548.914497961345, 0.648, -0.672, 0.438, 192.0, 0.0, 0.0, 0.0, 0.0, 0.0, 0.0, 0.0, 0.0, 0.0, 1.663588913251207E9, 0.0, 2022-09-19 17:01:53.251
50.0, 22977.012154699823, -55297.724044051654, 17365.58435745053, 114949.12087310803, 187500.0, 187500.0, 3191.6726460066616, 21532.7318349757, 0.648, -0.672, 0.438, 192.0, 0.0, 0.0, 0.0, 0.0, 0.0, 0.0, 0.0, 0.0, 0.0, 1.6635889132552311E9, 0.0, 2022-09-19 17:01:53.255
51.0, 22994.02183223031, -55291.46555560417, 17388.405488539396, 114959.51443427974, 187500.0, 187500.0, 3196.7688437424713, 21546.16523339334, 0.648, -0.672, 0.438, 192.0, 0.0, 0.0, 0.0, 0.0, 0.0, 0.0, 0.0, 0.0, 0.0, 1.6635889132592351E9, 0.0, 2022-09-19 17:01:53.259
52.0, 23016.530038896806, -55253.8922731748, 17405.079889903056, 114998.11589695406, 187500.0, 187500.0, 3225.513187111996, 21578.150579708887, 0.648, -0.672, 0.438, 192.0, 0.0, 0.0, 0.0, 0.0, 0.0, 0.0, 0.0, 0.0, 0.0, 1.663588913263239E9, 0.0, 2022-09-19 17:01:53.263
53.0, 23025.761309356847, -55223.918583860235, 17398.709642733294, 115023.5968856331, 187500.0, 187500.0, 3235.2138442055993, 21560.962088222754, 0.648, -0.672, 0.438, 192.0, 0.0, 0.0, 0.0, 0.0, 0.0, 0.0, 0.0, 0.0, 0.0, 1.6635889132662396E9, 0.0, 2022-09-19 17:01:53.266
54.0, 23026.23069599041, -55193.31904570092, 17392.898189174914, 115049.45785396789, 187500.0, 187500.0, 3233.8280360493704, 21545.718198504233, 0.648, -0.672, 0.438, 192.0, 0.0, 0.0, 0.0, 0.0, 0.0, 0.0, 0.0, 0.0, 0.0, 1.6635889132702873E9, 0.0, 2022-09-19 17:01:53.270
55.0, 23016.21711447443, -55203.578496405906, 17392.093526374523, 115035.7562346168, 187500.0, 187500.0, 3207.4529775921083, 21535.704616988256, 0.648, -0.672, 0.438, 192.0, 0.0, 0.0, 0.0, 0.0, 0.0, 0.0, 0.0, 0.0, 0.0, 1.663588913274266E9, 0.0, 2022-09-19 17:01:53.274
56.0, 22991.540788595772, -55231.00408685256, 17374.413296510374, 115008.10712672558, 187500.0, 187500.0, 3186.844669204315, 21515.342177789473, 0.648, -0.672, 0.438, 192.0, 0.0, 0.0, 0.0, 0.0, 0.0, 0.0, 0.0, 0.0, 0.0, 1.6635889132782679E9, 0.0, 2022-09-19 17:01:53.278
57.0, 22981.326041379696, -55210.17226102022, 17371.954604620292, 115029.36363570257, 187500.0, 187500.0, 3201.8203379893707, 21531.278971586107, 0.648, -0.672, 0.438, 192.0, 0.0, 0.0, 0.0, 0.0, 0.0, 0.0, 0.0, 0.0, 0.0, 1.6635889132832038E9, 0.0, 2022-09-19 17:01:53.283
58.0, 22988.389192627576, -55168.41920237771, 17368.423028996353, 115066.40047626501, 187500.0, 187500.0, 3221.847501021326, 21530.384901807894, 0.634, -0.672, 0.444, 192.0, 19.0, 208.0, 235.0, 0.0, 13.0, 224.0, 0.0, 0.0, 0.0, 1.6635889132873623E9, 0.0, 2022-09-19 17:01:53.287
59.0, 22996.614634587128, -55126.33086756836, 17370.85936914198, 115103.68318601647, 187500.0, 187500.0, 3227.167216201689, 21529.513183774136, 0.634, -0.672, 0.444, 192.0, 0.0, 0.0, 0.0, 0.0, 0.0, 0.0, 0.0, 0.0, 0.0, 1.663588913291296E9, 0.0, 2022-09-19 17:01:53.291
60.0, 22995.921730509013, -55108.31536153738, 17374.435648254832, 115115.8201832557, 187500.0, 187500.0, 3204.8601752352924, 21558.12341667693, 0.634, -0.672, 0.444, 192.0, 0.0, 0.0, 0.0, 0.0, 0.0, 0.0, 0.0, 0.0, 0.0, 1.6635889132942867E9, 0.0, 2022-09-19 17:01:53.294
61.0, 22950.659447987015, -55120.228841332064, 17357.0459910686, 115104.73371800587, 187500.0, 187500.0, 3180.6085325012846, 21548.60157353897, 0.634, -0.672, 0.444, 192.0, 0.0, 0.0, 0.0, 0.0, 0.0, 0.0, 0.0, 0.0, 0.0, 1.6635889132983277E9, 0.0, 2022-09-19 17:01:53.298
62.0, 22933.649770456526, -55101.31926552287, 17357.33656374652, 115121.83280251418, 187500.0, 187500.0, 3191.4044250731977, 21530.049625641066, 0.634, -0.672, 0.444, 192.0, 0.0, 0.0, 0.0, 0.0, 0.0, 0.0, 0.0, 0.0, 0.0, 1.6635889133023732E9, 0.0, 2022-09-19 17:01:53.302
63.0, 22954.593355011148, -55071.725555864046, 17358.47650271374, 115147.49260514887, 187500.0, 187500.0, 3205.6648380356837, 21508.390785263873, 0.634, -0.672, 0.444, 192.0, 0.0, 0.0, 0.0, 0.0, 0.0, 0.0, 0.0, 0.0, 0.0, 1.66358891330632E9, 0.0, 2022-09-19 17:01:53.306
64.0, 22998.06749797672, -55045.99869799599, 17354.877871856435, 115166.71510538044, 187500.0, 187500.0, 3199.9874949440355, 21491.62697692239, 0.634, -0.672, 0.444, 192.0, 0.0, 0.0, 0.0, 0.0, 0.0, 0.0, 0.0, 0.0, 0.0, 1.663588913310327E9, 0.0, 2022-09-19 17:01:53.310
65.0, 23000.637948589083, -55058.225102213044, 17349.066418298058, 115151.13593949509, 187500.0, 187500.0, 3174.372395798254, 21481.59104366196, 0.634, -0.672, 0.444, 192.0, 0.0, 0.0, 0.0, 0.0, 0.0, 0.0, 0.0, 0.0, 0.0, 1.66358891331532E9, 0.0, 2022-09-19 17:01:53.315
66.0, 23010.539771382784, -55065.623529627745, 17355.369610234455, 115144.09513999167, 187500.0, 187500.0, 3180.0497388899016, 21501.193523549264, 0.634, -0.672, 0.444, 192.0, 0.0, 0.0, 0.0, 0.0, 0.0, 0.0, 0.0, 0.0, 0.0, 1.663588913319389E9, 0.0, 2022-09-19 17:01:53.319
67.0, 23030.70104488147, -55052.61481435476, 17369.853540641492, 115157.26031747584, 187500.0, 187500.0, 3206.4247973471643, 21528.26148608464, 0.634, -0.672, 0.444, 192.0, 0.0, 0.0, 0.0, 0.0, 0.0, 0.0, 0.0, 0.0, 0.0, 1.6635889133223767E9, 0.0, 2022-09-19 17:01:53.322
68.0, 23021.626236632615, -55031.26889839994, 17361.87396787095, 115174.87349210662, 187500.0, 187500.0, 3215.432550362653, 21519.611360980434, 0.632, -0.668, 0.45, 192.0, 19.0, 192.0, 235.0, 32.0, 14.0, 16.0, 0.0, 0.0, 0.0, 1.6635889133263464E9, 0.0, 2022-09-19 17:01:53.326
69.0, 23011.992634772378, -55009.67711325611, 17357.381267235432, 115189.78210565832, 187500.0, 187500.0, 3202.4461868341195, 21511.072994598508, 0.632, -0.668, 0.45, 192.0, 0.0, 0.0, 0.0, 0.0, 0.0, 0.0, 0.0, 0.0, 0.0, 1.6635889133303688E9, 0.0, 2022-09-19 17:01:53.330
70.0, 23000.034451488787, -55026.93265997561, 17361.717505659763, 115171.69954439397, 187500.0, 187500.0, 3172.62895973074, 21507.653177696848, 0.632, -0.668, 0.45, 192.0, 0.0, 0.0, 0.0, 0.0, 0.0, 0.0, 0.0, 0.0, 0.0, 1.6635889133343637E9, 0.0, 2022-09-19 17:01:53.334
71.0, 22991.83136127369, -55045.015221239955, 17350.832206110026, 115153.12524475162, 187500.0, 187500.0, 3162.525971236941, 21491.20229377774, 0.632, -0.668, 0.45, 192.0, 0.0, 0.0, 0.0, 0.0, 0.0, 0.0, 0.0, 0.0, 0.0, 1.6635889133383543E9, 0.0, 2022-09-19 17:01:53.338
72.0, 22993.79831478576, -55032.72176178954, 17345.356028718477, 115163.92113732353, 187500.0, 187500.0, 3175.8029074433935, 21497.371375247407, 0.632, -0.668, 0.45, 192.0, 0.0, 0.0, 0.0, 0.0, 0.0, 0.0, 0.0, 0.0, 0.0, 1.6635889133433735E9, 0.0, 2022-09-19 17:01:53.343
73.0, 23001.263797433832, -55008.35836033325, 17344.28314498462, 115184.79766664478, 187500.0, 187500.0, 3190.353893083798, 21491.112886799918, 0.632, -0.668, 0.45, 192.0, 0.0, 0.0, 0.0, 0.0, 0.0, 0.0, 0.0, 0.0, 0.0, 1.6635889133464196E9, 0.0, 2022-09-19 17:01:53.346
74.0, 23003.141343968076, -55002.569258519325, 17337.175290247833, 115187.54693121278, 187500.0, 187500.0, 3178.395709800209, 21475.734886614668, 0.632, -0.668, 0.45, 192.0, 0.0, 0.0, 0.0, 0.0, 0.0, 0.0, 0.0, 0.0, 0.0, 1.6635889133503816E9, 0.0, 2022-09-19 17:01:53.350
75.0, 22997.44164913197, -55015.53327030341, 17336.549441403084, 115172.77242812782, 187500.0, 187500.0, 3151.819485642849, 21478.23828199366, 0.632, -0.668, 0.45, 192.0, 0.0, 0.0, 0.0, 0.0, 0.0, 0.0, 0.0, 0.0, 0.0, 1.6635889133543832E9, 0.0, 2022-09-19 17:01:53.354
76.0, 23007.052899247756, -55020.92004071713, 17344.976049062738, 115164.54698616826, 187500.0, 187500.0, 3157.72034617905, 21483.62505240739, 0.632, -0.668, 0.45, 192.0, 0.0, 0.0, 0.0, 0.0, 0.0, 0.0, 0.0, 0.0, 0.0, 1.6635889133604324E9, 0.0, 2022-09-19 17:01:53.360
77.0, 23010.942102782978, -55028.89961348768, 17329.173365732833, 115150.84536681717, 187500.0, 187500.0, 3160.335500280321, 21461.094493996443, 0.632, -0.668, 0.45, 192.0, 0.0, 0.0, 0.0, 0.0, 0.0, 0.0, 0.0, 0.0, 0.0, 1.6635889133633945E9, 0.0, 2022-09-19 17:01:53.363
78.0, 23014.65249236256, -55015.734436003506, 17317.4386998938, 115159.428436688, 187500.0, 187500.0, 3171.623131230251, 21458.278174195075, 0.636, -0.654, 0.448, 192.0, 19.0, 224.0, 235.0, 144.0, 14.0, 0.0, 0.0, 0.0, 0.0, 1.663588913367406E9, 0.0, 2022-09-19 17:01:53.367
79.0, 23022.11797501063, -54997.16013636114, 17321.57377261803, 115176.77339038532, 187500.0, 187500.0, 3174.3500440537982, 21483.8709215964, 0.636, -0.654, 0.448, 192.0, 0.0, 0.0, 0.0, 0.0, 0.0, 0.0, 0.0, 0.0, 0.0, 1.6635889133714497E9, 0.0, 2022-09-19 17:01:53.371
80.0, 23005.51062888034, -55017.14259590419, 17321.841993551494, 115158.89199482108, 187500.0, 187500.0, 3151.551264709385, 21489.704726899236, 0.636, -0.654, 0.448, 192.0, 0.0, 0.0, 0.0, 0.0, 0.0, 0.0, 0.0, 0.0, 0.0, 1.66358891337448E9, 0.0, 2022-09-19 17:01:53.374
81.0, 23003.051936990254, -55035.448674613086, 17315.203525448265, 115140.2282882009, 187500.0, 187500.0, 3150.1207530642455, 21485.07791579699, 0.636, -0.654, 0.448, 192.0, 0.0, 0.0, 0.0, 0.0, 0.0, 0.0, 0.0, 0.0, 0.0, 1.6635889133784308E9, 0.0, 2022-09-19 17:01:53.378
82.0, 23002.60490210115, -55040.27665141543, 17298.216199662234, 115139.51303237832, 187500.0, 187500.0, 3155.4181165001532, 21474.416133691804, 0.636, -0.654, 0.448, 192.0, 0.0, 0.0, 0.0, 0.0, 0.0, 0.0, 0.0, 0.0, 0.0, 1.663588913382404E9, 0.0, 2022-09-19 17:01:53.382
83.0, 23003.27545443481, -55025.23392739701, 17295.511638583142, 115156.32154420872, 187500.0, 187500.0, 3167.130430594734, 21458.702857339726, 0.636, -0.654, 0.448, 192.0, 0.0, 0.0, 0.0, 0.0, 0.0, 0.0, 0.0, 0.0, 0.0, 1.663588913388456E9, 0.0, 2022-09-19 17:01:53.388
84.0, 23018.519344153327, -55009.67711325611, 17299.311435140542, 115169.12909378161, 187500.0, 187500.0, 3167.9574451395806, 21450.656229335815, 0.636, -0.654, 0.448, 192.0, 0.0, 0.0, 0.0, 0.0, 0.0, 0.0, 0.0, 0.0, 0.0, 1.6635889133914363E9, 0.0, 2022-09-19 17:01:53.391
85.0, 22994.044183974765, -55032.65470655617, 17295.198714160768, 115144.34100918067, 187500.0, 187500.0, 3139.9283575926256, 21449.695104324237, 0.636, -0.654, 0.448, 192.0, 0.0, 0.0, 0.0, 0.0, 0.0, 0.0, 0.0, 0.0, 0.0, 1.663588913395478E9, 0.0, 2022-09-19 17:01:53.395
86.0, 22976.162788410522, -55038.17558743663, 17299.266731651634, 115136.4731951324, 187500.0, 187500.0, 3140.0624680593573, 21457.47351139468, 0.636, -0.654, 0.448, 192.0, 0.0, 0.0, 0.0, 0.0, 0.0, 0.0, 0.0, 0.0, 0.0, 1.6635889133995242E9, 0.0, 2022-09-19 17:01:53.399
87.0, 22998.782753799293, -55014.77331099192, 17312.878944024917, 115158.1320355096, 187500.0, 187500.0, 3170.5949509853067, 21471.845683079446, 0.636, -0.654, 0.448, 192.0, 0.0, 0.0, 0.0, 0.0, 0.0, 0.0, 0.0, 0.0, 0.0, 1.6635889134024844E9, 0.0, 2022-09-19 17:01:53.402
88.0, 23047.934239856513, -54977.490601240475, 17317.885734782903, 115191.14556207009, 187500.0, 187500.0, 3202.334428111843, 21498.488962470172, 0.636, -0.654, 0.448, 192.0, 0.0, 0.0, 0.0, 0.0, 0.0, 0.0, 0.0, 0.0, 0.0, 1.6635889134064732E9, 0.0, 2022-09-19 17:01:53.406
89.0, 23072.47645526844, -54962.58198768878, 17310.934342257304, 115200.37683253014, 187500.0, 187500.0, 3193.7960617299154, 21503.78632590608, 0.636, -0.654, 0.448, 192.0, 19.0, 224.0, 235.0, 144.0, 14.0, 0.0, 0.0, 0.0, 0.0, 1.6635889134104767E9, 0.0, 2022-09-19 17:01:53.410
90.0, 23047.75542590087, -54979.12227858571, 17300.13844968539, 115178.85210261967, 187500.0, 187500.0, 3165.275235804944, 21498.86894212591, 0.636, -0.654, 0.448, 192.0, 0.0, 0.0, 0.0, 0.0, 0.0, 0.0, 0.0, 0.0, 0.0, 1.663588913414616E9, 0.0, 2022-09-19 17:01:53.414
91.0, 23023.61554188914, -54977.37884251819, 17305.07818521001, 115177.935681097, 187500.0, 187500.0, 3170.2820265629325, 21497.59489269196, 0.636, -0.654, 0.448, 192.0, 0.0, 0.0, 0.0, 0.0, 0.0, 0.0, 0.0, 0.0, 0.0, 1.6635889134185216E9, 0.0, 2022-09-19 17:01:53.418
92.0, 23015.658320863047, -54968.23697903597, 17304.966426487736, 115181.55666369876, 187500.0, 187500.0, 3179.58035225634, 21471.73392435717, 0.636, -0.654, 0.448, 192.0, 0.0, 0.0, 0.0, 0.0, 0.0, 0.0, 0.0, 0.0, 0.0, 1.663588913422449E9, 0.0, 2022-09-19 17:01:53.422
93.0, 23045.922582855535, -54940.61022288921, 17303.066528209034, 115201.36030928616, 187500.0, 187500.0, 3195.0924629083233, 21464.559014387014, 0.636, -0.654, 0.448, 192.0, 0.0, 0.0, 0.0, 0.0, 0.0, 0.0, 0.0, 0.0, 0.0, 1.6635889134275656E9, 0.0, 2022-09-19 17:01:53.427
94.0, 23055.511481226862, -54916.7609115554, 17304.67585380982, 115220.47105079544, 187500.0, 187500.0, 3189.5492302834073, 21481.501636684137, 0.636, -0.654, 0.448, 192.0, 0.0, 0.0, 0.0, 0.0, 0.0, 0.0, 0.0, 0.0, 0.0, 1.6635889134305568E9, 0.0, 2022-09-19 17:01:53.430
95.0, 23038.278286251818, -54932.58594662976, 17311.80606029106, 115201.20384707497, 187500.0, 187500.0, 3167.8903899062148, 21486.173151275296, 0.636, -0.654, 0.448, 192.0, 0.0, 0.0, 0.0, 0.0, 0.0, 0.0, 0.0, 0.0, 0.0, 1.663588913433565E9, 0.0, 2022-09-19 17:01:53.433
96.0, 23051.0411323358, -54938.2185862325, 17303.84883926497, 115191.57024521474, 187500.0, 187500.0, 3173.7912504424157, 21480.09347678345, 0.636, -0.654, 0.448, 192.0, 0.0, 0.0, 0.0, 0.0, 0.0, 0.0, 0.0, 0.0, 0.0, 1.6635889134385684E9, 0.0, 2022-09-19 17:01:53.438
97.0, 23059.355981273173, -54921.901812780125, 17307.201600933266, 115202.29908255329, 187500.0, 187500.0, 3194.0642826633793, 21500.277102026594, 0.636, -0.654, 0.448, 192.0, 0.0, 0.0, 0.0, 0.0, 0.0, 0.0, 0.0, 0.0, 0.0, 1.663588913442477E9, 0.0, 2022-09-19 17:01:53.442
98.0, 23048.98477184591, -54905.58503932775, 17301.770127030628, 115214.45843153697, 187500.0, 187500.0, 3208.0564746924015, 21510.268331798117, 0.636, -0.654, 0.448, 192.0, 0.0, 0.0, 0.0, 0.0, 0.0, 0.0, 0.0, 0.0, 0.0, 1.66358891344659E9, 0.0, 2022-09-19 17:01:53.446
99.0, 23026.141289012587, -54910.45771961901, 17287.085030923492, 115207.48468726691, 187500.0, 187500.0, 3188.431643060642, 21497.21491303622, 0.636, -0.648, 0.462, 192.0, 19.0, 224.0, 235.0, 192.0, 14.0, 112.0, 0.0, 0.0, 0.0, 1.6635889134505315E9, 0.0, 2022-09-19 17:01:53.450
100.0, 23000.146210211064, -54942.62187989019, 17281.877074465403, 115176.8851491076, 187500.0, 187500.0, 3161.7660119254606, 21490.308223999527, 0.636, -0.648, 0.462, 192.0, 0.0, 0.0, 0.0, 0.0, 0.0, 0.0, 0.0, 0.0, 0.0, 1.6635889134546108E9, 0.0, 2022-09-19 17:01:53.454
101.0, 23011.27737894981, -54952.41194396162, 17287.643824534873, 115168.30207923676, 187500.0, 187500.0, 3171.690186463617, 21498.533665959083, 0.636, -0.648, 0.462, 192.0, 0.0, 0.0, 0.0, 0.0, 0.0, 0.0, 0.0, 0.0, 0.0, 1.6635889134585197E9, 0.0, 2022-09-19 17:01:53.458
102.0, 23039.261763007853, -54950.48969393846, 17285.632167533895, 115170.35843972665, 187500.0, 187500.0, 3181.0555673903905, 21493.30335775654, 0.636, -0.648, 0.462, 192.0, 0.0, 0.0, 0.0, 0.0, 0.0, 0.0, 0.0, 0.0, 0.0, 1.6635889134615836E9, 0.0, 2022-09-19 17:01:53.461
103.0, 23041.04990256428, -54940.565519400305, 17283.240530877178, 115184.08241082222, 187500.0, 187500.0, 3198.065244920879, 21489.01182282112, 0.636, -0.648, 0.462, 192.0, 0.0, 0.0, 0.0, 0.0, 0.0, 0.0, 0.0, 0.0, 0.0, 1.663588913466594E9, 0.0, 2022-09-19 17:01:53.466
104.0, 23039.082949052212, -54943.091266523756, 17288.60494954645, 115186.76462015684, 187500.0, 187500.0, 3192.566715784874, 21496.253788024642, 0.636, -0.648, 0.462, 192.0, 0.0, 0.0, 0.0, 0.0, 0.0, 0.0, 0.0, 0.0, 0.0, 1.66358891347059E9, 0.0, 2022-09-19 17:01:53.470
105.0, 23041.116957797643, -54984.15142108815, 17289.364908857933, 115151.33710519518, 187500.0, 187500.0, 3175.042948131913, 21502.042889838565, 0.636, -0.648, 0.462, 192.0, 0.0, 0.0, 0.0, 0.0, 0.0, 0.0, 0.0, 0.0, 0.0, 1.6635889134746099E9, 0.0, 2022-09-19 17:01:53.474
106.0, 23018.60875113115, -55037.1921106806, 17272.3775830719, 115104.28668311676, 187500.0, 187500.0, 3163.1965235706, 21467.263575466106, 0.636, -0.648, 0.462, 192.0, 0.0, 0.0, 0.0, 0.0, 0.0, 0.0, 0.0, 0.0, 0.0, 1.663588913478624E9, 0.0, 2022-09-19 17:01:53.478
107.0, 23016.574742385717, -55051.430171898624, 17278.099629652457, 115094.22839811188, 187500.0, 187500.0, 3185.7047302370943, 21479.266462238607, 0.636, -0.648, 0.462, 192.0, 0.0, 0.0, 0.0, 0.0, 0.0, 0.0, 0.0, 0.0, 0.0, 1.6635889134816253E9, 0.0, 2022-09-19 17:01:53.481
108.0, 23009.9809777714, -55043.38354389472, 17280.111286653435, 115107.25946512932, 187500.0, 187500.0, 3209.107006681801, 21509.955407375743, 0.636, -0.648, 0.462, 192.0, 0.0, 0.0, 0.0, 0.0, 0.0, 0.0, 0.0, 0.0, 0.0, 1.6635889134856167E9, 0.0, 2022-09-19 17:01:53.485
109.0, 22993.440686874474, -55064.1483144937, 17281.318280854022, 115096.79884872424, 187500.0, 187500.0, 3192.0749774068568, 21520.34896854746, 0.638, -0.654, 0.458, 192.0, 19.0, 240.0, 235.0, 144.0, 14.0, 80.0, 0.0, 0.0, 0.0, 1.6635889134896398E9, 0.0, 2022-09-19 17:01:53.489
110.0, 22997.84398053217, -55121.03350413245, 17282.122943654413, 115054.79992089272, 187500.0, 187500.0, 3172.092517863812, 21507.742584674666, 0.638, -0.654, 0.458, 192.0, 0.0, 0.0, 0.0, 0.0, 0.0, 0.0, 0.0, 0.0, 0.0, 1.6635889134946768E9, 0.0, 2022-09-19 17:01:53.494
111.0, 23026.118937268133, -55143.161731143206, 17298.66323455134, 115044.98750507683, 187500.0, 187500.0, 3197.6182100317733, 21524.528744760602, 0.638, -0.654, 0.458, 192.0, 0.0, 0.0, 0.0, 0.0, 0.0, 0.0, 0.0, 0.0, 0.0, 1.6635889134987252E9, 0.0, 2022-09-19 17:01:53.498
112.0, 23074.421057036052, -55137.6632020072, 17320.255019695167, 115059.87376688406, 187500.0, 187500.0, 3234.0515534939236, 21542.343085091485, 0.638, -0.654, 0.458, 192.0, 0.0, 0.0, 0.0, 0.0, 0.0, 0.0, 0.0, 0.0, 0.0, 1.6635889135026312E9, 0.0, 2022-09-19 17:01:53.502
113.0, 23082.311222828775, -55138.9148996967, 17301.032519463603, 115064.88055764206, 187500.0, 187500.0, 3235.7726378169823, 21518.940808646777, 0.638, -0.654, 0.458, 192.0, 0.0, 0.0, 0.0, 0.0, 0.0, 0.0, 0.0, 0.0, 0.0, 1.6635889135066688E9, 0.0, 2022-09-19 17:01:53.506
114.0, 23028.801146602767, -55164.52999884248, 17280.826542476003, 115045.99333357732, 187500.0, 187500.0, 3201.5074135669965, 21494.73386940168, 0.638, -0.654, 0.458, 192.0, 0.0, 0.0, 0.0, 0.0, 0.0, 0.0, 0.0, 0.0, 0.0, 1.6635889135116794E9, 0.0, 2022-09-19 17:01:53.511
115.0, 23028.84585009168, -55186.54646713096, 17288.64965303536, 115032.26936248176, 187500.0, 187500.0, 3186.7999657154046, 21494.39859323485, 0.638, -0.654, 0.458, 192.0, 0.0, 0.0, 0.0, 0.0, 0.0, 0.0, 0.0, 0.0, 0.0, 1.6635889135146773E9, 0.0, 2022-09-19 17:01:53.514
116.0, 23036.736015884402, -55182.56785661791, 17304.631150320907, 115046.64153416653, 187500.0, 187500.0, 3202.401483345209, 21526.182773850298, 0.638, -0.654, 0.458, 192.0, 0.0, 0.0, 0.0, 0.0, 0.0, 0.0, 0.0, 0.0, 0.0, 1.6635889135176632E9, 0.0, 2022-09-19 17:01:53.517
117.0, 23047.46485322295, -55155.92457722719, 17316.656388837862, 115082.71724971739, 187500.0, 187500.0, 3230.87760578127, 21562.526710334627, 0.638, -0.654, 0.458, 192.0, 0.0, 0.0, 0.0, 0.0, 0.0, 0.0, 0.0, 0.0, 0.0, 1.6635889135227065E9, 0.0, 2022-09-19 17:01:53.522
118.0, 23053.455120736973, -55125.4591495346, 17307.55922884455, 115119.24000015737, 187500.0, 187500.0, 3240.5782628748734, 21540.912573446345, 0.638, -0.654, 0.458, 192.0, 0.0, 0.0, 0.0, 0.0, 0.0, 0.0, 0.0, 0.0, 0.0, 1.663588913526656E9, 0.0, 2022-09-19 17:01:53.526
119.0, 23083.294699584807, -55091.12687005125, 17317.103423726967, 115158.15438725405, 187500.0, 187500.0, 3236.4431901506414, 21546.008771182154, 0.64, -0.656, 0.45, 192.0, 20.0, 0.0, 235.0, 128.0, 14.0, 16.0, 0.0, 0.0, 0.0, 1.6635889135306883E9, 0.0, 2022-09-19 17:01:53.530
120.0, 23070.822426178747, -55100.49225097803, 17315.225877192723, 115156.4780064199, 187500.0, 187500.0, 3211.9009747387145, 21544.51120430365, 0.64, -0.656, 0.45, 192.0, 0.0, 0.0, 0.0, 0.0, 0.0, 0.0, 0.0, 0.0, 0.0, 1.6635889135367503E9, 0.0, 2022-09-19 17:01:53.536
121.0, 23050.817614891246, -55090.881000862246, 17304.452336365262, 115174.82878861771, 187500.0, 187500.0, 3211.9233264831696, 21535.659913499345, 0.64, -0.656, 0.45, 192.0, 0.0, 0.0, 0.0, 0.0, 0.0, 0.0, 0.0, 0.0, 0.0, 1.6635889135399685E9, 0.0, 2022-09-19 17:01:53.539
122.0, 23049.297696268284, -55049.910253275666, 17306.91102825535, 115223.60029501919, 187500.0, 187500.0, 3226.720181312583, 21541.001980424164, 0.64, -0.656, 0.45, 192.0, 0.0, 0.0, 0.0, 0.0, 0.0, 0.0, 0.0, 0.0, 0.0, 1.6635889135428004E9, 0.0, 2022-09-19 17:01:53.542
123.0, 23056.405551005075, -54995.394348549176, 17302.44067936429, 115277.7138683455, 187500.0, 187500.0, 3238.7230680850826, 21531.994227408675, 0.64, -0.656, 0.45, 192.0, 0.0, 0.0, 0.0, 0.0, 0.0, 0.0, 0.0, 0.0, 0.0, 1.6635889135457797E9, 0.0, 2022-09-19 17:01:53.545
124.0, 23039.395873474583, -54961.06206906582, 17302.99947297567, 115318.43874674306, 187500.0, 187500.0, 3219.1205881977785, 21531.524840775113, 0.64, -0.656, 0.45, 192.0, 0.0, 0.0, 0.0, 0.0, 0.0, 0.0, 0.0, 0.0, 0.0, 1.6635889135497928E9, 0.0, 2022-09-19 17:01:53.549
125.0, 23029.89638208108, -54958.82689462029, 17296.070432194523, 115326.59713346924, 187500.0, 187500.0, 3193.527840796452, 21524.864020927434, 0.64, -0.656, 0.45, 192.0, 0.0, 0.0, 0.0, 0.0, 0.0, 0.0, 0.0, 0.0, 0.0, 1.6635889135548148E9, 0.0, 2022-09-19 17:01:53.554
126.0, 23036.13251878411, -54928.20500471652, 17295.310472883044, 115358.76129374043, 187500.0, 187500.0, 3207.58708805884, 21518.516125502127, 0.64, -0.656, 0.45, 192.0, 0.0, 0.0, 0.0, 0.0, 0.0, 0.0, 0.0, 0.0, 0.0, 1.6635889135587537E9, 0.0, 2022-09-19 17:01:53.558
127.0, 23055.444425993493, -54858.646375971606, 17305.70403405476, 115427.24703875149, 187500.0, 187500.0, 3236.532597128463, 21538.07390190052, 0.64, -0.656, 0.45, 192.0, 0.0, 0.0, 0.0, 0.0, 0.0, 0.0, 0.0, 0.0, 0.0, 1.6635889135627747E9, 0.0, 2022-09-19 17:01:53.562
128.0, 23068.36373428866, -54758.242339878365, 17326.22293546473, 115527.82988880038, 187500.0, 187500.0, 3261.7900683629596, 21569.612213326956, 0.64, -0.656, 0.45, 192.0, 0.0, 0.0, 0.0, 0.0, 0.0, 0.0, 0.0, 0.0, 0.0, 1.6635889135658607E9, 0.0, 2022-09-19 17:01:53.565
129.0, 23051.287001524808, -54707.146252053535, 17334.91776405785, 115576.62374694631, 187500.0, 187500.0, 3238.901882040725, 21568.27110865964, 0.644, -0.662, 0.442, 192.0, 20.0, 32.0, 235.0, 80.0, 13.0, 208.0, 0.0, 0.0, 0.0, 1.6635889135697806E9, 0.0, 2022-09-19 17:01:53.569
130.0, 23032.936219327, -54688.10256577761, 17341.600935649985, 115595.71213671114, 187500.0, 187500.0, 3220.2158236760883, 21555.463559086747, 0.644, -0.662, 0.442, 192.0, 0.0, 0.0, 0.0, 0.0, 0.0, 0.0, 0.0, 0.0, 0.0, 1.6635889135737588E9, 0.0, 2022-09-19 17:01:53.573
131.0, 23023.436727933495, -54648.87525425855, 17346.58537466352, 115636.07938719743, 187500.0, 187500.0, 3227.681306324161, 21550.8367479845, 0.644, -0.662, 0.442, 192.0, 0.0, 0.0, 0.0, 0.0, 0.0, 0.0, 0.0, 0.0, 0.0, 1.6635889135778E9, 0.0, 2022-09-19 17:01:53.577
132.0, 23060.160644073563, -54571.873494610016, 17356.44249396831, 115704.14044906384, 187500.0, 187500.0, 3251.910597313714, 21574.306079662572, 0.644, -0.662, 0.442, 192.0, 0.0, 0.0, 0.0, 0.0, 0.0, 0.0, 0.0, 0.0, 0.0, 1.6635889135827808E9, 0.0, 2022-09-19 17:01:53.582
133.0, 23058.864242895157, -54507.20989790081, 17339.76809260465, 115756.93526946727, 187500.0, 187500.0, 3250.0106990350127, 21558.8386724995, 0.644, -0.662, 0.442, 192.0, 0.0, 0.0, 0.0, 0.0, 0.0, 0.0, 0.0, 0.0, 0.0, 1.6635889135867493E9, 0.0, 2022-09-19 17:01:53.586
134.0, 23027.974132057923, -54467.624958470464, 17335.789482091604, 115788.0265460046, 187500.0, 187500.0, 3229.2235766915774, 21558.88337598841, 0.644, -0.662, 0.442, 192.0, 0.0, 0.0, 0.0, 0.0, 0.0, 0.0, 0.0, 0.0, 0.0, 1.6635889135908039E9, 0.0, 2022-09-19 17:01:53.590
135.0, 23012.663187106038, -54434.25380399869, 17349.222880509245, 115816.56972367404, 187500.0, 187500.0, 3226.362553401298, 21572.40618138387, 0.644, -0.662, 0.442, 192.0, 0.0, 0.0, 0.0, 0.0, 0.0, 0.0, 0.0, 0.0, 0.0, 1.6635889135937839E9, 0.0, 2022-09-19 17:01:53.593
136.0, 23031.639818148593, -54395.45117562428, 17346.00422930768, 115848.6891804563, 187500.0, 187500.0, 3235.59382386134, 21561.610288811957, 0.644, -0.662, 0.442, 192.0, 0.0, 0.0, 0.0, 0.0, 0.0, 0.0, 0.0, 0.0, 0.0, 1.6635889135978515E9, 0.0, 2022-09-19 17:01:53.597
137.0, 23053.723341670437, -54340.823512175506, 17341.757397861173, 115892.76682052217, 187500.0, 187500.0, 3249.4742571680854, 21554.815358497544, 0.644, -0.662, 0.442, 192.0, 0.0, 0.0, 0.0, 0.0, 0.0, 0.0, 0.0, 0.0, 0.0, 1.6635889136018536E9, 0.0, 2022-09-19 17:01:53.601
138.0, 23065.74858018739, -54251.37183086537, 17350.072246798547, 115969.63446970397, 187500.0, 187500.0, 3270.462545211619, 21574.8425215295, 0.644, -0.662, 0.442, 192.0, 0.0, 0.0, 0.0, 0.0, 0.0, 0.0, 0.0, 0.0, 0.0, 1.6635889136058445E9, 0.0, 2022-09-19 17:01:53.605
139.0, 23058.976001617433, -54197.10179532788, 17342.070322283547, 116012.21454289134, 187500.0, 187500.0, 3245.674460610683, 21575.64718432989, 0.64, -0.662, 0.446, 192.0, 20.0, 0.0, 235.0, 80.0, 13.0, 240.0, 0.0, 0.0, 0.0, 1.663588913609812E9, 0.0, 2022-09-19 17:01:53.609
140.0, 23040.759329886358, -54166.882236824305, 17333.822528579538, 116032.4428716234, 187500.0, 187500.0, 3225.6696493231834, 21560.000963211176, 0.64, -0.662, 0.446, 192.0, 0.0, 0.0, 0.0, 0.0, 0.0, 0.0, 0.0, 0.0, 0.0, 1.6635889136147907E9, 0.0, 2022-09-19 17:01:53.614
141.0, 23032.42212920453, -54107.583058784374, 17330.492118655697, 116077.05695355618, 187500.0, 187500.0, 3236.934928528658, 21551.21672764024, 0.64, -0.662, 0.446, 192.0, 0.0, 0.0, 0.0, 0.0, 0.0, 0.0, 0.0, 0.0, 0.0, 1.663588913618902E9, 0.0, 2022-09-19 17:01:53.618
142.0, 23025.448384934472, -54024.479272899545, 17329.66510411085, 116141.96641945439, 187500.0, 187500.0, 3251.463562424608, 21546.54521304908, 0.64, -0.662, 0.446, 192.0, 0.0, 0.0, 0.0, 0.0, 0.0, 0.0, 0.0, 0.0, 0.0, 1.663588913621796E9, 0.0, 2022-09-19 17:01:53.621
143.0, 23052.98573410341, -53918.844928603765, 17338.00230479268, 116229.20527806345, 187500.0, 187500.0, 3267.3333009878756, 21566.393562125395, 0.64, -0.662, 0.446, 192.0, 0.0, 0.0, 0.0, 0.0, 0.0, 0.0, 0.0, 0.0, 0.0, 1.6635889136258657E9, 0.0, 2022-09-19 17:01:53.625
144.0, 23052.33753351421, -53845.35239283471, 17340.99743854969, 116284.88347350163, 187500.0, 187500.0, 3244.8921495547474, 21563.37607662393, 0.64, -0.662, 0.446, 192.0, 0.0, 0.0, 0.0, 0.0, 0.0, 0.0, 0.0, 0.0, 0.0, 1.6635889136298575E9, 0.0, 2022-09-19 17:01:53.629
145.0, 23021.849754077168, -53800.80536613529, 17321.014979006646, 116314.74540409392, 187500.0, 187500.0, 3214.49377709553, 21537.89508794488, 0.64, -0.662, 0.446, 192.0, 0.0, 0.0, 0.0, 0.0, 0.0, 0.0, 0.0, 0.0, 0.0, 1.6635889136338773E9, 0.0, 2022-09-19 17:01:53.633
146.0, 23034.523193183326, -53708.80558595724, 17327.09465349849, 116391.47894280899, 187500.0, 187500.0, 3227.100160968323, 21559.397466110884, 0.64, -0.662, 0.446, 192.0, 0.0, 0.0, 0.0, 0.0, 0.0, 0.0, 0.0, 0.0, 0.0, 1.6635889136378343E9, 0.0, 2022-09-19 17:01:53.637
147.0, 23054.12567307063, -53580.28305533923, 17340.215127493757, 116502.85768542979, 187500.0, 187500.0, 3252.0223560359905, 21573.859044773468, 0.64, -0.662, 0.446, 192.0, 0.0, 0.0, 0.0, 0.0, 0.0, 0.0, 0.0, 0.0, 0.0, 1.663588913642862E9, 0.0, 2022-09-19 17:01:53.642
148.0, 23061.81467316326, -53424.580803463556, 17331.63205762292, 116638.08573938439, 187500.0, 187500.0, 3262.259454996521, 21569.142826693398, 0.64, -0.662, 0.446, 192.0, 0.0, 0.0, 0.0, 0.0, 0.0, 0.0, 0.0, 0.0, 0.0, 1.6635889136458228E9, 0.0, 2022-09-19 17:01:53.645
149.0, 23034.32202748323, -53318.72294172322, 17324.99358951969, 116716.40625195579, 187500.0, 187500.0, 3225.6025940898176, 21549.74151250619, 0.648, -0.66, 0.442, 192.0, 20.0, 64.0, 235.0, 96.0, 13.0, 208.0, 0.0, 0.0, 0.0, 1.6635889136500196E9, 0.0, 2022-09-19 17:01:53.650
150.0, 23035.75253912837, -53266.4198596978, 17351.279240999134, 116735.80756614299, 187500.0, 187500.0, 3220.7299137985606, 21561.476178345227, 0.648, -0.66, 0.442, 192.0, 0.0, 0.0, 0.0, 0.0, 0.0, 0.0, 0.0, 0.0, 0.0, 1.6635889136539083E9, 0.0, 2022-09-19 17:01:53.653
151.0, 23047.08487356721, -53188.9040099268, 17355.459017212273, 116782.99209868815, 187500.0, 187500.0, 3238.6336611072616, 21563.957221979766, 0.648, -0.66, 0.442, 192.0, 0.0, 0.0, 0.0, 0.0, 0.0, 0.0, 0.0, 0.0, 0.0, 1.6635889136578815E9, 0.0, 2022-09-19 17:01:53.657
152.0, 23056.360847516164, -53087.15886916624, 17350.228709009734, 116856.57404143501, 187500.0, 187500.0, 3257.520885171996, 21566.01358246965, 0.648, -0.66, 0.442, 192.0, 0.0, 0.0, 0.0, 0.0, 0.0, 0.0, 0.0, 0.0, 0.0, 1.6635889136619544E9, 0.0, 2022-09-19 17:01:53.661
153.0, 23055.198556804487, -52978.66350158018, 17339.85749958247, 116934.22400167276, 187500.0, 187500.0, 3259.689004384161, 21561.7891027676, 0.648, -0.66, 0.442, 192.0, 0.0, 0.0, 0.0, 0.0, 0.0, 0.0, 0.0, 0.0, 0.0, 1.6635889136659093E9, 0.0, 2022-09-19 17:01:53.665
154.0, 23016.932370297, -52890.01648307044, 17331.117967500446, 116990.75156340022, 187500.0, 187500.0, 3229.134169713756, 21568.114646448452, 0.648, -0.66, 0.442, 192.0, 0.0, 0.0, 0.0, 0.0, 0.0, 0.0, 0.0, 0.0, 0.0, 1.663588913670875E9, 0.0, 2022-09-19 17:01:53.670
155.0, 22986.958680982432, -52806.242144851945, 17343.880813584427, 117045.15570940444, 187500.0, 187500.0, 3219.008829475502, 21587.337146680016, 0.648, -0.66, 0.442, 192.0, 0.0, 0.0, 0.0, 0.0, 0.0, 0.0, 0.0, 0.0, 0.0, 1.6635889136739419E9, 0.0, 2022-09-19 17:01:53.673
156.0, 23012.327910939206, -52722.73602756692, 17339.276354226633, 117095.22361698432, 187500.0, 187500.0, 3226.6084225903064, 21559.419817855338, 0.648, -0.66, 0.442, 192.0, 0.0, 0.0, 0.0, 0.0, 0.0, 0.0, 0.0, 0.0, 0.0, 1.663588913677987E9, 0.0, 2022-09-19 17:01:53.677
157.0, 23062.59698421919, -52586.94918000093, 17342.025618794636, 117192.92309199848, 187500.0, 187500.0, 3257.945568316647, 21568.919309248842, 0.648, -0.66, 0.442, 192.0, 0.0, 0.0, 0.0, 0.0, 0.0, 0.0, 0.0, 0.0, 0.0, 1.6635889136819925E9, 0.0, 2022-09-19 17:01:53.681
158.0, 23065.167434831554, -52439.31590787362, 17334.582487891017, 117300.05500317276, 187500.0, 187500.0, 3265.9251410871916, 21571.78033253912, 0.648, -0.66, 0.442, 192.0, 0.0, 0.0, 0.0, 0.0, 0.0, 0.0, 0.0, 0.0, 0.0, 1.6635889136859136E9, 0.0, 2022-09-19 17:01:53.685
159.0, 23034.8361176057, -52338.1519124689, 17322.020807507135, 117360.76234111338, 187500.0, 187500.0, 3230.4082191477087, 21559.01748645514, 0.648, -0.658, 0.442, 192.0, 20.0, 64.0, 235.0, 112.0, 13.0, 208.0, 0.0, 0.0, 0.0, 1.663588913689939E9, 0.0, 2022-09-19 17:01:53.689
160.0, 23008.908094037546, -52243.84990261196, 17322.62430460743, 117414.67474873958, 187500.0, 187500.0, 3218.628849819762, 21551.909631718354, 0.648, -0.658, 0.442, 192.0, 0.0, 0.0, 0.0, 0.0, 0.0, 0.0, 0.0, 0.0, 0.0, 1.6635889136940124E9, 0.0, 2022-09-19 17:01:53.694
161.0, 23062.485225496916, -52125.27389827656, 17334.023694279636, 117488.79313335338, 187500.0, 187500.0, 3245.1603704882114, 21570.75215229418, 0.648, -0.658, 0.442, 192.0, 0.0, 0.0, 0.0, 0.0, 0.0, 0.0, 0.0, 0.0, 0.0, 1.6635889136989672E9, 0.0, 2022-09-19 17:01:53.698
162.0, 23077.393839048607, -52016.42090277922, 17335.1412815024, 117548.6958084936, 187500.0, 187500.0, 3255.2857107264654, 21558.548099821583, 0.648, -0.658, 0.442, 192.0, 0.0, 0.0, 0.0, 0.0, 0.0, 0.0, 0.0, 0.0, 0.0, 1.6635889137020204E9, 0.0, 2022-09-19 17:01:53.702
163.0, 23067.648478466093, -51917.87206147576, 17332.302609956576, 117592.28171018144, 187500.0, 187500.0, 3252.156466502722, 21546.54521304908, 0.648, -0.658, 0.442, 192.0, 0.0, 0.0, 0.0, 0.0, 0.0, 0.0, 0.0, 0.0, 0.0, 1.663588913706046E9, 0.0, 2022-09-19 17:01:53.706
164.0, 23067.246147065896, -51858.751697391475, 17343.366723461953, 117600.261282952, 187500.0, 187500.0, 3233.269242437988, 21562.571413823534, 0.648, -0.658, 0.442, 192.0, 0.0, 0.0, 0.0, 0.0, 0.0, 0.0, 0.0, 0.0, 0.0, 1.663588913709971E9, 0.0, 2022-09-19 17:01:53.709
165.0, 23055.511481226862, -51843.507807672955, 17343.81375835106, 117565.90665172419, 187500.0, 187500.0, 3221.132245198756, 21566.974707481233, 0.648, -0.658, 0.442, 192.0, 0.0, 0.0, 0.0, 0.0, 0.0, 0.0, 0.0, 0.0, 0.0, 1.6635889137140067E9, 0.0, 2022-09-19 17:01:53.714
166.0, 23029.203478002964, -51873.45914524307, 17335.968296047246, 117483.69693561757, 187500.0, 187500.0, 3215.3207916403762, 21548.9368497058, 0.648, -0.658, 0.442, 192.0, 0.0, 0.0, 0.0, 0.0, 0.0, 0.0, 0.0, 0.0, 0.0, 1.6635889137180004E9, 0.0, 2022-09-19 17:01:53.718
167.0, 23031.19278325949, -51909.6019160273, 17342.450301939287, 117389.57373971627, 187500.0, 187500.0, 3232.9563180156138, 21540.957276935253, 0.648, -0.658, 0.442, 192.0, 0.0, 0.0, 0.0, 0.0, 0.0, 0.0, 0.0, 0.0, 0.0, 1.6635889137220705E9, 0.0, 2022-09-19 17:01:53.722
168.0, 23020.307483709752, -51983.273265751995, 17338.270525726144, 117258.3242962747, 187500.0, 187500.0, 3222.9650882440915, 21516.035081867587, 0.648, -0.658, 0.442, 192.0, 0.0, 0.0, 0.0, 0.0, 0.0, 0.0, 0.0, 0.0, 0.0, 1.6635889137269905E9, 0.0, 2022-09-19 17:01:53.726
169.0, 23002.895474779067, -52123.284593020035, 17336.214165236255, 117067.4851021153, 187500.0, 187500.0, 3181.435547046131, 21505.26154104013, 0.65, -0.654, 0.448, 192.0, 20.0, 80.0, 235.0, 144.0, 14.0, 0.0, 0.0, 0.0, 0.0, 1.663588913731098E9, 0.0, 2022-09-19 17:01:53.731
170.0, 22991.78665778478, -52280.41735654084, 17342.696171128293, 116866.38645725089, 187500.0, 187500.0, 3176.495811521508, 21516.191544078774, 0.65, -0.654, 0.448, 192.0, 0.0, 0.0, 0.0, 0.0, 0.0, 0.0, 0.0, 0.0, 0.0, 1.6635889137341084E9, 0.0, 2022-09-19 17:01:53.734
171.0, 22996.79344854277, -52437.460713083834, 17346.80889210807, 116666.80773100945, 187500.0, 187500.0, 3195.6289047752507, 21516.817392923524, 0.65, -0.654, 0.448, 192.0, 0.0, 0.0, 0.0, 0.0, 0.0, 0.0, 0.0, 0.0, 0.0, 1.6635889137380805E9, 0.0, 2022-09-19 17:01:53.738
172.0, 22984.12000943661, -52590.83838353615, 17332.14614774539, 116473.71101066006, 187500.0, 187500.0, 3206.4024456027087, 21500.29945377105, 0.65, -0.654, 0.448, 192.0, 0.0, 0.0, 0.0, 0.0, 0.0, 0.0, 0.0, 0.0, 0.0, 1.6635889137420616E9, 0.0, 2022-09-19 17:01:53.742
173.0, 22989.64089031707, -52718.75741705387, 17337.13058675892, 116317.06998551727, 187500.0, 187500.0, 3218.4947393530297, 21503.138125316877, 0.65, -0.654, 0.448, 192.0, 0.0, 0.0, 0.0, 0.0, 0.0, 0.0, 0.0, 0.0, 0.0, 1.663588913746064E9, 0.0, 2022-09-19 17:01:53.746
174.0, 22998.06749797672, -52875.06316602983, 17339.164595504357, 116141.31821886518, 187500.0, 187500.0, 3196.9029542092035, 21490.263520510616, 0.65, -0.654, 0.448, 192.0, 0.0, 0.0, 0.0, 0.0, 0.0, 0.0, 0.0, 0.0, 0.0, 1.663588913750049E9, 0.0, 2022-09-19 17:01:53.750
175.0, 23005.376518413606, -53012.99578106353, 17346.71948513025, 115988.43228679089, 187500.0, 187500.0, 3198.9816664435466, 21504.79215440657, 0.65, -0.654, 0.448, 192.0, 0.0, 0.0, 0.0, 0.0, 0.0, 0.0, 0.0, 0.0, 0.0, 1.6635889137550783E9, 0.0, 2022-09-19 17:01:53.755
176.0, 22997.419297387518, -53114.69621833518, 17344.305496729077, 115874.84072146902, 187500.0, 187500.0, 3210.8280910048597, 21521.958294148244, 0.65, -0.654, 0.448, 192.0, 0.0, 0.0, 0.0, 0.0, 0.0, 0.0, 0.0, 0.0, 0.0, 1.6635889137580445E9, 0.0, 2022-09-19 17:01:53.758
177.0, 22983.51651233632, -53192.547344273014, 17331.833223323014, 115786.30546168155, 187500.0, 187500.0, 3218.919422497681, 21512.97289287721, 0.65, -0.654, 0.448, 192.0, 0.0, 0.0, 0.0, 0.0, 0.0, 0.0, 0.0, 0.0, 0.0, 1.6635889137621047E9, 0.0, 2022-09-19 17:01:53.762
178.0, 22994.826495030702, -53247.35382167743, 17327.04995000958, 115721.64186497235, 187500.0, 187500.0, 3224.3061929114097, 21510.245980053664, 0.65, -0.654, 0.448, 192.0, 0.0, 0.0, 0.0, 0.0, 0.0, 0.0, 0.0, 0.0, 0.0, 1.6635889137661152E9, 0.0, 2022-09-19 17:01:53.766
179.0, 22997.911035765534, -53319.81817720154, 17333.129624501424, 115645.22125067965, 187500.0, 187500.0, 3210.805739260404, 21511.83295390999, 0.652, -0.656, 0.448, 192.0, 20.0, 96.0, 235.0, 128.0, 14.0, 0.0, 0.0, 0.0, 0.0, 1.6635889137701123E9, 0.0, 2022-09-19 17:01:53.770
180.0, 23011.433841160997, -53377.3515674295, 17333.86723206845, 115584.96094762815, 187500.0, 187500.0, 3210.8951462382256, 21517.622055723914, 0.652, -0.656, 0.448, 192.0, 0.0, 0.0, 0.0, 0.0, 0.0, 0.0, 0.0, 0.0, 0.0, 1.6635889137741408E9, 0.0, 2022-09-19 17:01:53.774
181.0, 23013.244332461876, -53400.262105496186, 17340.393941449398, 115560.39638047176, 187500.0, 187500.0, 3230.5646813588955, 21519.678416213803, 0.652, -0.656, 0.448, 192.0, 0.0, 0.0, 0.0, 0.0, 0.0, 0.0, 0.0, 0.0, 0.0, 1.663588913780075E9, 0.0, 2022-09-19 17:01:53.780
182.0, 23004.03541374629, -53402.832556108544, 17334.806005335573, 115556.19425251416, 187500.0, 187500.0, 3248.35666994532, 21517.152669090352, 0.652, -0.656, 0.448, 192.0, 0.0, 0.0, 0.0, 0.0, 0.0, 0.0, 0.0, 0.0, 0.0, 1.663588913783164E9, 0.0, 2022-09-19 17:01:53.783
183.0, 22996.704041564946, -53403.056073553096, 17330.022732022135, 115549.9804675556, 187500.0, 187500.0, 3245.2050739771216, 21523.16528834883, 0.652, -0.656, 0.448, 192.0, 0.0, 0.0, 0.0, 0.0, 0.0, 0.0, 0.0, 0.0, 0.0, 1.6635889137871351E9, 0.0, 2022-09-19 17:01:53.787
184.0, 23021.112146510142, -53427.464178498296, 17338.091711770503, 115523.82892654288, 187500.0, 187500.0, 3227.748361557527, 21537.962143178243, 0.652, -0.656, 0.448, 192.0, 0.0, 0.0, 0.0, 0.0, 0.0, 0.0, 0.0, 0.0, 0.0, 1.663588913790124E9, 0.0, 2022-09-19 17:01:53.790
185.0, 23030.432823948006, -53450.26295784271, 17348.48527294222, 115503.0641559439, 187500.0, 187500.0, 3230.4976261255297, 21549.40623633936, 0.652, -0.656, 0.448, 192.0, 0.0, 0.0, 0.0, 0.0, 0.0, 0.0, 0.0, 0.0, 0.0, 1.6635889137941444E9, 0.0, 2022-09-19 17:01:53.794
186.0, 23024.911943067546, -53450.799399709635, 17349.446397953798, 115500.73957452054, 187500.0, 187500.0, 3246.1885507331554, 21536.241058855183, 0.652, -0.656, 0.448, 192.0, 0.0, 0.0, 0.0, 0.0, 0.0, 0.0, 0.0, 0.0, 0.0, 1.6635889137981372E9, 0.0, 2022-09-19 17:01:53.798
187.0, 23020.799222087768, -53439.400010037425, 17347.926479330836, 115507.37804262376, 187500.0, 187500.0, 3260.1807427621775, 21521.35479704795, 0.652, -0.656, 0.448, 192.0, 0.0, 0.0, 0.0, 0.0, 0.0, 0.0, 0.0, 0.0, 0.0, 1.6635889138022337E9, 0.0, 2022-09-19 17:01:53.802
188.0, 23030.186954759, -53435.7119722023, 17345.803063607582, 115506.4616211011, 187500.0, 187500.0, 3252.201169991633, 21507.16143931883, 0.652, -0.656, 0.448, 192.0, 0.0, 0.0, 0.0, 0.0, 0.0, 0.0, 0.0, 0.0, 0.0, 1.6635889138061893E9, 0.0, 2022-09-19 17:01:53.806
189.0, 23026.945951812977, -53458.60015852454, 17353.067380555556, 115482.96993767857, 187500.0, 187500.0, 3227.5024923685187, 21525.668683727825, 0.652, -0.656, 0.448, 192.0, 0.0, 0.0, 0.0, 0.0, 0.0, 0.0, 0.0, 0.0, 0.0, 1.6635889138091624E9, 0.0, 2022-09-19 17:01:53.809
190.0, 22999.0286229883, -53494.2288391863, 17340.86332808296, 115447.8553471393, 187500.0, 187500.0, 3214.426721862164, 21531.189564608285, 0.65, -0.656, 0.44, 192.0, 20.0, 80.0, 235.0, 128.0, 13.0, 192.0, 0.0, 0.0, 0.0, 1.6635889138131595E9, 0.0, 2022-09-19 17:01:53.813
191.0, 23013.669015606527, -53484.23760941478, 17349.84872935399, 115457.01956236597, 187500.0, 187500.0, 3237.2478529510327, 21551.97668695172, 0.65, -0.656, 0.44, 192.0, 0.0, 0.0, 0.0, 0.0, 0.0, 0.0, 0.0, 0.0, 0.0, 1.663588913817283E9, 0.0, 2022-09-19 17:01:53.817
192.0, 23048.40362649007, -53451.89463518794, 17368.221863296254, 115486.16623713568, 187500.0, 187500.0, 3272.36244349032, 21559.285707388604, 0.65, -0.656, 0.44, 192.0, 0.0, 0.0, 0.0, 0.0, 0.0, 0.0, 0.0, 0.0, 0.0, 1.6635889138221903E9, 0.0, 2022-09-19 17:01:53.822
193.0, 23025.56014365675, -53453.48160904427, 17358.275337013645, 115484.37809757926, 187500.0, 187500.0, 3257.364422960809, 21532.50831753115, 0.65, -0.656, 0.44, 192.0, 0.0, 0.0, 0.0, 0.0, 0.0, 0.0, 0.0, 0.0, 0.0, 1.663588913826249E9, 0.0, 2022-09-19 17:01:53.826
194.0, 22990.87023626211, -53491.546629851655, 17350.832206110026, 115449.86700414027, 187500.0, 187500.0, 3220.5734515873733, 21516.12448884541, 0.65, -0.656, 0.44, 192.0, 0.0, 0.0, 0.0, 0.0, 0.0, 0.0, 0.0, 0.0, 0.0, 1.6635889138301997E9, 0.0, 2022-09-19 17:01:53.830
195.0, 23025.113108767644, -53496.9781037543, 17361.33752600402, 115446.58129770534, 187500.0, 187500.0, 3231.235233692555, 21546.612268282446, 0.65, -0.656, 0.44, 192.0, 0.0, 0.0, 0.0, 0.0, 0.0, 0.0, 0.0, 0.0, 0.0, 1.6635889138342419E9, 0.0, 2022-09-19 17:01:53.834
196.0, 23044.17914678802, -53490.63020832899, 17358.454150969286, 115451.54338497441, 187500.0, 187500.0, 3248.580187389873, 21544.801776981567, 0.65, -0.656, 0.44, 192.0, 0.0, 0.0, 0.0, 0.0, 0.0, 0.0, 0.0, 0.0, 0.0, 1.6635889138382077E9, 0.0, 2022-09-19 17:01:53.838
197.0, 23029.404643703063, -53486.49513560476, 17344.372551962442, 115453.10800708628, 187500.0, 187500.0, 3251.0388792799567, 21503.36164276143, 0.65, -0.656, 0.44, 192.0, 0.0, 0.0, 0.0, 0.0, 0.0, 0.0, 0.0, 0.0, 0.0, 1.6635889138412411E9, 0.0, 2022-09-19 17:01:53.841
198.0, 23044.715588654948, -53446.44080954085, 17358.454150969286, 115489.56370229289, 187500.0, 187500.0, 3259.912521828714, 21515.789212678577, 0.65, -0.656, 0.44, 192.0, 0.0, 0.0, 0.0, 0.0, 0.0, 0.0, 0.0, 0.0, 0.0, 1.6635889138453133E9, 0.0, 2022-09-19 17:01:53.845
199.0, 23060.048885351287, -53452.65459449942, 17378.414258767876, 115481.762943478, 187500.0, 187500.0, 3245.1156669993006, 21525.73573896119, 0.65, -0.656, 0.44, 192.0, 0.0, 0.0, 0.0, 0.0, 0.0, 0.0, 0.0, 0.0, 0.0, 1.663588913850229E9, 0.0, 2022-09-19 17:01:53.850
200.0, 23038.725321140926, -53484.416423370414, 17367.171331306858, 115451.29751578541, 187500.0, 187500.0, 3233.202187204622, 21511.050642854054, 0.642, -0.658, 0.438, 192.0, 20.0, 16.0, 235.0, 112.0, 13.0, 176.0, 0.0, 0.0, 0.0, 1.6635889138542607E9, 0.0, 2022-09-19 17:01:53.854
201.0, 23035.171393772533, -53463.651652771434, 17364.086790572022, 115473.0010596515, 187500.0, 187500.0, 3253.586978147862, 21546.992247938186, 0.642, -0.658, 0.438, 192.0, 0.0, 0.0, 0.0, 0.0, 0.0, 0.0, 0.0, 0.0, 0.0, 1.663588913858254E9, 0.0, 2022-09-19 17:01:53.858
202.0, 23037.18305077351, -53414.321352758576, 17359.39292423641, 115521.75021430853, 187500.0, 187500.0, 3274.4635074691187, 21572.629698828423, 0.642, -0.658, 0.438, 192.0, 0.0, 0.0, 0.0, 0.0, 0.0, 0.0, 0.0, 0.0, 0.0, 1.6635889138622625E9, 0.0, 2022-09-19 17:01:53.862
203.0, 23021.1344982546, -53392.19312574782, 17348.038238053112, 115540.30216220644, 187500.0, 187500.0, 3254.8833793262697, 21551.574355551526, 0.642, -0.658, 0.438, 192.0, 0.0, 0.0, 0.0, 0.0, 0.0, 0.0, 0.0, 0.0, 0.0, 1.663588913866305E9, 0.0, 2022-09-19 17:01:53.866
204.0, 23009.153963226556, -53396.23879149423, 17346.98770606371, 115533.14960398074, 187500.0, 187500.0, 3225.8261115343707, 21547.059303171554, 0.642, -0.658, 0.438, 192.0, 0.0, 0.0, 0.0, 0.0, 0.0, 0.0, 0.0, 0.0, 0.0, 1.6635889138702736E9, 0.0, 2022-09-19 17:01:53.870
205.0, 23023.235562233396, -53383.65475936589, 17362.61157543797, 115541.8220808294, 187500.0, 187500.0, 3239.4159721631972, 21556.60349805397, 0.642, -0.658, 0.438, 192.0, 0.0, 0.0, 0.0, 0.0, 0.0, 0.0, 0.0, 0.0, 0.0, 1.6635889138742878E9, 0.0, 2022-09-19 17:01:53.874
206.0, 23013.89253305108, -53366.488619624215, 17354.319078245055, 115552.50621467903, 187500.0, 187500.0, 3248.4684286675965, 21543.348913591974, 0.642, -0.658, 0.438, 192.0, 0.0, 0.0, 0.0, 0.0, 0.0, 0.0, 0.0, 0.0, 0.0, 1.6635889138772724E9, 0.0, 2022-09-19 17:01:53.877
207.0, 23014.98776852939, -53330.16703488434, 17361.404581237388, 115577.47311323561, 187500.0, 187500.0, 3265.165181775711, 21539.25854435665, 0.642, -0.658, 0.438, 192.0, 0.0, 0.0, 0.0, 0.0, 0.0, 0.0, 0.0, 0.0, 0.0, 1.6635889138813307E9, 0.0, 2022-09-19 17:01:53.881
208.0, 23009.869219049124, -53311.77154919763, 17354.833168367528, 115583.284566794, 187500.0, 187500.0, 3252.2905769694544, 21536.97866642221, 0.642, -0.658, 0.438, 192.0, 0.0, 0.0, 0.0, 0.0, 0.0, 0.0, 0.0, 0.0, 0.0, 1.6635889138853104E9, 0.0, 2022-09-19 17:01:53.885
209.0, 22991.11610545112, -53324.2885260926, 17357.224805024245, 115563.74914214006, 187500.0, 187500.0, 3226.653126079217, 21541.247849613173, 0.642, -0.658, 0.438, 192.0, 0.0, 0.0, 0.0, 0.0, 0.0, 0.0, 0.0, 0.0, 0.0, 1.663588913889336E9, 0.0, 2022-09-19 17:01:53.889
210.0, 23010.807992316248, -53324.959078426255, 17376.424953511352, 115556.59658391436, 187500.0, 187500.0, 3240.399448919231, 21547.79691073858, 0.648, -0.662, 0.436, 192.0, 20.0, 64.0, 235.0, 80.0, 13.0, 160.0, 0.0, 0.0, 0.0, 1.6635889138943446E9, 0.0, 2022-09-19 17:01:53.894
211.0, 23022.676768622016, -53316.26424983314, 17382.750497192206, 115556.39541821426, 187500.0, 187500.0, 3256.492704927052, 21541.53842229109, 0.648, -0.662, 0.436, 192.0, 0.0, 0.0, 0.0, 0.0, 0.0, 0.0, 0.0, 0.0, 0.0, 1.6635889138984525E9, 0.0, 2022-09-19 17:01:53.898
212.0, 23006.404698658553, -53299.25457230265, 17370.501741230695, 115563.90560435124, 187500.0, 187500.0, 3266.238065509566, 21530.27314308562, 0.648, -0.662, 0.436, 192.0, 0.0, 0.0, 0.0, 0.0, 0.0, 0.0, 0.0, 0.0, 0.0, 1.6635889139023595E9, 0.0, 2022-09-19 17:01:53.902
213.0, 23016.37357668562, -53288.7269006642, 17365.09261907251, 115568.15243579775, 187500.0, 187500.0, 3259.286672983965, 21549.294477617084, 0.648, -0.662, 0.436, 192.0, 0.0, 0.0, 0.0, 0.0, 0.0, 0.0, 0.0, 0.0, 0.0, 1.663588913905367E9, 0.0, 2022-09-19 17:01:53.905
214.0, 23020.374538943117, -53319.237031845696, 17366.254909784187, 115536.79293832695, 187500.0, 187500.0, 3234.364477916298, 21551.775521251624, 0.648, -0.662, 0.436, 192.0, 0.0, 0.0, 0.0, 0.0, 0.0, 0.0, 0.0, 0.0, 0.0, 1.663588913909335E9, 0.0, 2022-09-19 17:01:53.909
215.0, 23014.250160962365, -53335.08441866451, 17374.05566859909, 115519.40328114072, 187500.0, 187500.0, 3240.421800663686, 21544.846480470478, 0.648, -0.662, 0.436, 192.0, 0.0, 0.0, 0.0, 0.0, 0.0, 0.0, 0.0, 0.0, 0.0, 1.6635889139134564E9, 0.0, 2022-09-19 17:01:53.913
216.0, 23050.70585616897, -53316.75598821116, 17385.991500138225, 115536.43531041568, 187500.0, 187500.0, 3266.7298038875824, 21553.07192243003, 0.648, -0.662, 0.436, 192.0, 0.0, 0.0, 0.0, 0.0, 0.0, 0.0, 0.0, 0.0, 0.0, 1.663588913917359E9, 0.0, 2022-09-19 17:01:53.917
217.0, 23050.28117302432, -53308.84347067398, 17373.183950565333, 115542.40322618524, 187500.0, 187500.0, 3271.5801324343843, 21536.21870711073, 0.648, -0.662, 0.436, 192.0, 0.0, 0.0, 0.0, 0.0, 0.0, 0.0, 0.0, 0.0, 0.0, 1.6635889139213924E9, 0.0, 2022-09-19 17:01:53.921
218.0, 23023.682597122504, -53306.25066831716, 17366.992517351213, 115539.58690638386, 187500.0, 187500.0, 3253.162295003211, 21520.39367203637, 0.648, -0.662, 0.436, 192.0, 0.0, 0.0, 0.0, 0.0, 0.0, 0.0, 0.0, 0.0, 0.0, 1.6635889139264452E9, 0.0, 2022-09-19 17:01:53.926
219.0, 23010.472716149416, -53323.640325503395, 17375.53088373314, 115519.29152241845, 187500.0, 187500.0, 3237.717239584594, 21533.40238730936, 0.648, -0.662, 0.436, 192.0, 0.0, 0.0, 0.0, 0.0, 0.0, 0.0, 0.0, 0.0, 0.0, 1.663588913930468E9, 0.0, 2022-09-19 17:01:53.930
220.0, 23008.7292800819, -53333.27392736363, 17373.76509592117, 115506.72984203456, 187500.0, 187500.0, 3243.707507098616, 21540.890221701888, 0.646, -0.668, 0.434, 192.0, 20.0, 48.0, 235.0, 32.0, 13.0, 144.0, 0.0, 0.0, 0.0, 1.6635889139334114E9, 0.0, 2022-09-19 17:01:53.933
221.0, 23005.55533236925, -53332.80454073007, 17376.4026017669, 115508.71914729109, 187500.0, 187500.0, 3259.7560596175267, 21545.986419437697, 0.646, -0.668, 0.434, 192.0, 0.0, 0.0, 0.0, 0.0, 0.0, 0.0, 0.0, 0.0, 0.0, 1.6635889139374084E9, 0.0, 2022-09-19 17:01:53.937
222.0, 23024.62137038963, -53316.95715391126, 17376.089677344524, 115525.12532772128, 187500.0, 187500.0, 3279.4032429937415, 21552.669591029837, 0.646, -0.668, 0.434, 192.0, 0.0, 0.0, 0.0, 0.0, 0.0, 0.0, 0.0, 0.0, 0.0, 1.6635889139414241E9, 0.0, 2022-09-19 17:01:53.941
223.0, 23018.295826708774, -53328.9376889393, 17383.979843137247, 115513.12244094879, 187500.0, 187500.0, 3267.132135287778, 21556.379980609418, 0.646, -0.668, 0.434, 192.0, 0.0, 0.0, 0.0, 0.0, 0.0, 0.0, 0.0, 0.0, 0.0, 1.663588913945616E9, 0.0, 2022-09-19 17:01:53.945
224.0, 23017.334701697197, -53366.15334345739, 17388.517247261672, 115479.8630451993, 187500.0, 187500.0, 3248.066097267401, 21548.22159388323, 0.646, -0.668, 0.434, 192.0, 0.0, 0.0, 0.0, 0.0, 0.0, 0.0, 0.0, 0.0, 0.0, 1.6635889139494264E9, 0.0, 2022-09-19 17:01:53.949
225.0, 23031.19278325949, -53382.58187563204, 17393.188761852834, 115468.41895203818, 187500.0, 187500.0, 3257.1856090051665, 21566.371210380938, 0.646, -0.668, 0.434, 192.0, 0.0, 0.0, 0.0, 0.0, 0.0, 0.0, 0.0, 0.0, 0.0, 1.6635889139544857E9, 0.0, 2022-09-19 17:01:53.954
226.0, 23025.113108767644, -53394.54005891563, 17381.476447758254, 115459.74647518952, 187500.0, 187500.0, 3267.221542265599, 21556.715256776246, 0.646, -0.668, 0.434, 192.0, 0.0, 0.0, 0.0, 0.0, 0.0, 0.0, 0.0, 0.0, 0.0, 1.6635889139584937E9, 0.0, 2022-09-19 17:01:53.958
227.0, 23024.934294812, -53390.31557921357, 17372.446342998308, 115464.06036186939, 187500.0, 187500.0, 3277.9503796041467, 21544.06416941454, 0.646, -0.668, 0.434, 192.0, 0.0, 0.0, 0.0, 0.0, 0.0, 0.0, 0.0, 0.0, 0.0, 1.6635889139614637E9, 0.0, 2022-09-19 17:01:53.961
228.0, 23018.005254030857, -53396.059977538585, 17379.91182564638, 115459.88058565624, 187500.0, 187500.0, 3264.3158154864095, 21545.472329315227, 0.646, -0.668, 0.434, 192.0, 0.0, 0.0, 0.0, 0.0, 0.0, 0.0, 0.0, 0.0, 0.0, 1.66358891396549E9, 0.0, 2022-09-19 17:01:53.965
229.0, 23001.64377708957, -53421.51861447318, 17378.458962256787, 115436.92534410064, 187500.0, 187500.0, 3241.494684397541, 21551.104968917964, 0.646, -0.668, 0.434, 192.0, 0.0, 0.0, 0.0, 0.0, 0.0, 0.0, 0.0, 0.0, 0.0, 1.6635889139695303E9, 0.0, 2022-09-19 17:01:53.969
230.0, 22996.83815203168, -53423.95495461881, 17377.900168645403, 115439.71931215755, 187500.0, 187500.0, 3249.3848501902644, 21558.771617266135, 0.652, -0.666, 0.436, 192.0, 20.0, 96.0, 235.0, 48.0, 13.0, 160.0, 0.0, 0.0, 0.0, 1.6635889139735296E9, 0.0, 2022-09-19 17:01:53.973
231.0, 23013.758422584346, -53405.224192765265, 17386.125610604955, 115459.32179204487, 187500.0, 187500.0, 3270.0155103225125, 21552.334314863005, 0.652, -0.666, 0.436, 192.0, 0.0, 0.0, 0.0, 0.0, 0.0, 0.0, 0.0, 0.0, 0.0, 1.6635889139775424E9, 0.0, 2022-09-19 17:01:53.977
232.0, 23041.02755081982, -53373.44001214982, 17385.92444490486, 115489.04961217042, 187500.0, 187500.0, 3284.164164562722, 21545.24881187067, 0.652, -0.666, 0.436, 192.0, 0.0, 0.0, 0.0, 0.0, 0.0, 0.0, 0.0, 0.0, 0.0, 1.6635889139824913E9, 0.0, 2022-09-19 17:01:53.982
233.0, 23031.97509431542, -53371.54011387112, 17373.2510057987, 115487.73085924756, 187500.0, 187500.0, 3260.873646840292, 21525.869849427923, 0.652, -0.666, 0.436, 192.0, 0.0, 0.0, 0.0, 0.0, 0.0, 0.0, 0.0, 0.0, 0.0, 1.66358891398554E9, 0.0, 2022-09-19 17:01:53.985
234.0, 23030.186954759, -53379.922018041856, 17383.242235570222, 115478.05255389841, 187500.0, 187500.0, 3251.7317833580714, 21541.18079437981, 0.652, -0.666, 0.436, 192.0, 0.0, 0.0, 0.0, 0.0, 0.0, 0.0, 0.0, 0.0, 0.0, 1.6635889139894783E9, 0.0, 2022-09-19 17:01:53.989
235.0, 23024.286094222796, -53384.14649774391, 17365.316136517064, 115469.17891134965, 187500.0, 187500.0, 3248.334318200865, 21525.378111049904, 0.652, -0.666, 0.436, 192.0, 0.0, 0.0, 0.0, 0.0, 0.0, 0.0, 0.0, 0.0, 0.0, 1.6635889139935071E9, 0.0, 2022-09-19 17:01:53.993
236.0, 23003.141343968076, -53372.501238882694, 17350.184005520823, 115473.96218466309, 187500.0, 187500.0, 3249.1166292568005, 21516.9291516458, 0.652, -0.666, 0.436, 192.0, 0.0, 0.0, 0.0, 0.0, 0.0, 0.0, 0.0, 0.0, 0.0, 1.6635889139974816E9, 0.0, 2022-09-19 17:01:53.997
237.0, 23011.545599883273, -53332.290450607594, 17365.383191750432, 115507.08746994585, 187500.0, 187500.0, 3274.7540801470377, 21534.229401854205, 0.652, -0.666, 0.436, 192.0, 0.0, 0.0, 0.0, 0.0, 0.0, 0.0, 0.0, 0.0, 0.0, 1.6635889140015135E9, 0.0, 2022-09-19 17:01:54.001
238.0, 23021.447422676974, -53317.09126437799, 17370.121761574956, 115513.90475200472, 187500.0, 187500.0, 3265.3439957313535, 21542.521899047126, 0.652, -0.666, 0.436, 192.0, 0.0, 0.0, 0.0, 0.0, 0.0, 0.0, 0.0, 0.0, 0.0, 1.6635889140055263E9, 0.0, 2022-09-19 17:01:54.005
239.0, 22998.08984972118, -53349.009555460165, 17352.709752644274, 115476.510283531, 187500.0, 187500.0, 3227.97187900208, 21525.288704072085, 0.652, -0.666, 0.436, 192.0, 0.0, 0.0, 0.0, 0.0, 0.0, 0.0, 0.0, 0.0, 0.0, 1.6635889140104997E9, 0.0, 2022-09-19 17:01:54.010
240.0, 23011.590303372184, -53343.10869492396, 17362.67863067134, 115473.93983291864, 187500.0, 187500.0, 3242.6346233647614, 21527.54623026207, 0.652, -0.662, 0.432, 192.0, 20.0, 96.0, 235.0, 80.0, 13.0, 128.0, 0.0, 0.0, 0.0, 1.6635889140145357E9, 0.0, 2022-09-19 17:01:54.014
241.0, 23040.17818453052, -53306.31772355053, 17376.0002703667, 115500.65016754273, 187500.0, 187500.0, 3276.0951848143563, 21536.710445488745, 0.652, -0.662, 0.432, 192.0, 0.0, 0.0, 0.0, 0.0, 0.0, 0.0, 0.0, 0.0, 0.0, 1.6635889140175085E9, 0.0, 2022-09-19 17:01:54.017
242.0, 23040.80403337527, -53270.80080161105, 17372.312232531578, 115525.28178993247, 187500.0, 187500.0, 3287.5169262310183, 21539.660875756847, 0.652, -0.662, 0.432, 192.0, 0.0, 0.0, 0.0, 0.0, 0.0, 0.0, 0.0, 0.0, 0.0, 1.663588914021531E9, 0.0, 2022-09-19 17:01:54.021
243.0, 23026.968303557434, -53269.48204868818, 17369.0488778411, 115518.6209700848, 187500.0, 187500.0, 3265.187533520166, 21543.147747891875, 0.652, -0.662, 0.432, 192.0, 0.0, 0.0, 0.0, 0.0, 0.0, 0.0, 0.0, 0.0, 0.0, 1.663588914025506E9, 0.0, 2022-09-19 17:01:54.025
244.0, 22990.758477539835, -53292.951380366256, 17356.04016256811, 115490.32366160437, 187500.0, 187500.0, 3239.3042134409206, 21528.59676225147, 0.652, -0.662, 0.432, 192.0, 0.0, 0.0, 0.0, 0.0, 0.0, 0.0, 0.0, 0.0, 0.0, 1.6635889140295284E9, 0.0, 2022-09-19 17:01:54.029
245.0, 22976.341602366163, -53292.54904896606, 17346.71948513025, 115484.93689119065, 187500.0, 187500.0, 3237.873701795781, 21521.086576114485, 0.652, -0.662, 0.432, 192.0, 0.0, 0.0, 0.0, 0.0, 0.0, 0.0, 0.0, 0.0, 0.0, 1.6635889140335395E9, 0.0, 2022-09-19 17:01:54.033
246.0, 23024.88959132309, -53246.34799317694, 17379.129514590444, 115527.18168821117, 187500.0, 187500.0, 3279.7161674161157, 21556.201166653773, 0.652, -0.662, 0.432, 192.0, 0.0, 0.0, 0.0, 0.0, 0.0, 0.0, 0.0, 0.0, 0.0, 1.6635889140387523E9, 0.0, 2022-09-19 17:01:54.038
247.0, 23051.644629436094, -53209.19939389222, 17378.973052379257, 115556.41776995872, 187500.0, 187500.0, 3299.095129858867, 21543.93005894781, 0.652, -0.662, 0.432, 192.0, 0.0, 0.0, 0.0, 0.0, 0.0, 0.0, 0.0, 0.0, 0.0, 1.6635889140415616E9, 0.0, 2022-09-19 17:01:54.041
248.0, 23021.022739532324, -53218.430664352265, 17349.42404620934, 115538.04463601645, 187500.0, 187500.0, 3259.7560596175267, 21508.100212585952, 0.652, -0.662, 0.432, 192.0, 0.0, 0.0, 0.0, 0.0, 0.0, 0.0, 0.0, 0.0, 0.0, 1.6635889140446527E9, 0.0, 2022-09-19 17:01:54.044
249.0, 22993.73125955239, -53236.13324596087, 17346.20539500778, 115516.0728712169, 187500.0, 187500.0, 3237.203149462122, 21518.896105157866, 0.652, -0.662, 0.432, 192.0, 0.0, 0.0, 0.0, 0.0, 0.0, 0.0, 0.0, 0.0, 0.0, 1.6635889140496569E9, 0.0, 2022-09-19 17:01:54.049
250.0, 22993.37363164111, -53241.765885563604, 17350.184005520823, 115506.10399318981, 187500.0, 187500.0, 3244.3780594322757, 21510.96123587623, 0.644, -0.662, 0.44, 192.0, 20.0, 32.0, 235.0, 80.0, 13.0, 192.0, 0.0, 0.0, 0.0, 1.663588914053642E9, 0.0, 2022-09-19 17:01:54.053
251.0, 23006.06942249172, -53218.140091674344, 17360.734028903727, 115521.79491779745, 187500.0, 187500.0, 3264.6734433976944, 21521.82418368151, 0.644, -0.662, 0.44, 192.0, 0.0, 0.0, 0.0, 0.0, 0.0, 0.0, 0.0, 0.0, 0.0, 1.6635889140575752E9, 0.0, 2022-09-19 17:01:54.057
252.0, 23026.096585523675, -53183.673701724256, 17369.272395285654, 115550.8298338449, 187500.0, 187500.0, 3281.146679061256, 21532.240096597685, 0.644, -0.662, 0.44, 192.0, 0.0, 0.0, 0.0, 0.0, 0.0, 0.0, 0.0, 0.0, 0.0, 1.6635889140615933E9, 0.0, 2022-09-19 17:01:54.061
253.0, 23034.433786205507, -53194.40253906281, 17374.59211046602, 115534.82598481489, 187500.0, 187500.0, 3261.812420107415, 21537.939791433786, 0.644, -0.662, 0.44, 192.0, 0.0, 0.0, 0.0, 0.0, 0.0, 0.0, 0.0, 0.0, 0.0, 1.6635889140665848E9, 0.0, 2022-09-19 17:01:54.066
254.0, 23030.589286159193, -53235.73091456067, 17366.59018595102, 115489.74251624853, 187500.0, 187500.0, 3237.516073884496, 21524.014654638133, 0.644, -0.662, 0.44, 192.0, 0.0, 0.0, 0.0, 0.0, 0.0, 0.0, 0.0, 0.0, 0.0, 1.6635889140695937E9, 0.0, 2022-09-19 17:01:54.069
255.0, 23015.36774818513, -53247.95731877772, 17362.47746497124, 115474.31981257437, 187500.0, 187500.0, 3242.366402431298, 21523.29939881556, 0.644, -0.662, 0.44, 192.0, 0.0, 0.0, 0.0, 0.0, 0.0, 0.0, 0.0, 0.0, 0.0, 1.663588914072607E9, 0.0, 2022-09-19 17:01:54.072
0.0, 23019.189896486987, -53223.951545232725, 17365.53965396162, 115489.76486799298, 187500.0, 187500.0, 3259.689004384161, 21525.713387216736, 0.644, -0.662, 0.44, 192.0, 0.0, 0.0, 0.0, 0.0, 0.0, 0.0, 0.0, 0.0, 0.0, 1.6635889140776088E9, 0.0, 2022-09-19 17:01:54.077
1.0, 23033.42795770502, -53190.938018672234, 17375.329718033045, 115514.06121421591, 187500.0, 187500.0, 3278.620931937806, 21536.151651877364, 0.644, -0.662, 0.44, 192.0, 0.0, 0.0, 0.0, 0.0, 0.0, 0.0, 0.0, 0.0, 0.0, 1.6635889140816092E9, 0.0, 2022-09-19 17:01:54.081
2.0, 23022.14032675509, -53191.228591350155, 17377.833113412038, 115509.18853392465, 187500.0, 187500.0, 3264.427574208686, 21540.64435251288, 0.644, -0.662, 0.44, 192.0, 0.0, 0.0, 0.0, 0.0, 0.0, 0.0, 0.0, 0.0, 0.0, 1.663588914085631E9, 0.0, 2022-09-19 17:01:54.085
3.0, 22990.758477539835, -53228.46659761269, 17361.538691704118, 115472.1516933622, 187500.0, 187500.0, 3237.851350051326, 21521.511259259136, 0.644, -0.662, 0.44, 192.0, 0.0, 0.0, 0.0, 0.0, 0.0, 0.0, 0.0, 0.0, 0.0, 1.6635889140896282E9, 0.0, 2022-09-19 17:01:54.089
4.0, 22985.662279804026, -53249.387830422864, 17349.513453187163, 115447.67653318365, 187500.0, 187500.0, 3236.823169806382, 21493.392764734363, 0.644, -0.664, 0.444, 192.0, 20.0, 32.0, 235.0, 64.0, 13.0, 224.0, 0.0, 0.0, 0.0, 1.6635889140946572E9, 0.0, 2022-09-19 17:01:54.094
5.0, 22997.754573554346, -53241.22944369668, 17350.228709009734, 115450.2022803071, 187500.0, 187500.0, 3255.397469448742, 21489.905892599334, 0.644, -0.664, 0.444, 192.0, 0.0, 0.0, 0.0, 0.0, 0.0, 0.0, 0.0, 0.0, 0.0, 1.663588914097741E9, 0.0, 2022-09-19 17:01:54.097
6.0, 23022.07327152172, -53202.136242644345, 17363.371534749454, 115483.32756558986, 187500.0, 187500.0, 3280.74434766106, 21528.44030004028, 0.644, -0.664, 0.444, 192.0, 0.0, 0.0, 0.0, 0.0, 0.0, 0.0, 0.0, 0.0, 0.0, 1.663588914100636E9, 0.0, 2022-09-19 17:01:54.100
7.0, 23021.64858837707, -53198.38114957585, 17374.681517443838, 115480.37713532176, 187500.0, 187500.0, 3262.035937551968, 21556.31292537605, 0.644, -0.664, 0.444, 192.0, 0.0, 0.0, 0.0, 0.0, 0.0, 0.0, 0.0, 0.0, 0.0, 1.663588914105654E9, 0.0, 2022-09-19 17:01:54.105
8.0, 23007.008195758845, -53233.22751918167, 17373.653337198895, 115443.20618429259, 187500.0, 187500.0, 3244.5345216434625, 21542.45484381376, 0.644, -0.664, 0.444, 192.0, 0.0, 0.0, 0.0, 0.0, 0.0, 0.0, 0.0, 0.0, 0.0, 1.66358891410974E9, 0.0, 2022-09-19 17:01:54.109
9.0, 23010.115088238133, -53245.140998976356, 17362.700982415794, 115427.0458730514, 187500.0, 187500.0, 3248.5131321565073, 21513.755203933146, 0.644, -0.664, 0.444, 192.0, 0.0, 0.0, 0.0, 0.0, 0.0, 0.0, 0.0, 0.0, 0.0, 1.6635889141137612E9, 0.0, 2022-09-19 17:01:54.113
10.0, 23002.26962593432, -53242.43643789726, 17359.594089936505, 115423.49194568301, 187500.0, 187500.0, 3257.4985334275407, 21510.15657307584, 0.644, -0.664, 0.444, 192.0, 0.0, 0.0, 0.0, 0.0, 0.0, 0.0, 0.0, 0.0, 0.0, 1.6635889141177251E9, 0.0, 2022-09-19 17:01:54.117
11.0, 23014.294864451276, -53221.425798109274, 17370.747610419705, 115440.41221623567, 187500.0, 187500.0, 3272.943588846158, 21524.55109650506, 0.644, -0.664, 0.444, 192.0, 0.0, 0.0, 0.0, 0.0, 0.0, 0.0, 0.0, 0.0, 0.0, 1.6635889141217449E9, 0.0, 2022-09-19 17:01:54.121
12.0, 23013.825477817714, -53233.00400173712, 17366.858406884483, 115424.38601546122, 187500.0, 187500.0, 3252.3799839472754, 21521.108927858942, 0.644, -0.664, 0.444, 192.0, 0.0, 0.0, 0.0, 0.0, 0.0, 0.0, 0.0, 0.0, 0.0, 1.6635889141257467E9, 0.0, 2022-09-19 17:01:54.125
13.0, 23008.97514927091, -53260.89897881734, 17353.33560148902, 115393.51825636844, 187500.0, 187500.0, 3236.934928528658, 21516.415061523327, 0.644, -0.664, 0.444, 192.0, 0.0, 0.0, 0.0, 0.0, 0.0, 0.0, 0.0, 0.0, 0.0, 1.6635889141287365E9, 0.0, 2022-09-19 17:01:54.128
14.0, 22999.252140432855, -53277.34986273645, 17348.261755497668, 115373.69225903659, 187500.0, 187500.0, 3241.40527741972, 21511.989416121178, 0.648, -0.662, 0.438, 192.0, 20.0, 64.0, 235.0, 80.0, 13.0, 176.0, 0.0, 0.0, 0.0, 1.6635889141328356E9, 0.0, 2022-09-19 17:01:54.132
15.0, 22975.715753521414, -53284.65888317334, 17339.38811294891, 115362.96342169803, 187500.0, 187500.0, 3245.5403501439514, 21494.130372301384, 0.648, -0.662, 0.438, 192.0, 0.0, 0.0, 0.0, 0.0, 0.0, 0.0, 0.0, 0.0, 0.0, 1.663588914137757E9, 0.0, 2022-09-19 17:01:54.137
16.0, 22978.26385238932, -53268.36446146542, 17342.405598450376, 115373.87107299222, 187500.0, 187500.0, 3257.07385028289, 21507.16143931883, 0.648, -0.662, 0.438, 192.0, 0.0, 0.0, 0.0, 0.0, 0.0, 0.0, 0.0, 0.0, 0.0, 1.6635889141417303E9, 0.0, 2022-09-19 17:01:54.141
17.0, 22981.348393124154, -53286.49172621867, 17336.437682680807, 115353.62039251572, 187500.0, 187500.0, 3230.6093848478063, 21501.215875293718, 0.648, -0.662, 0.438, 192.0, 0.0, 0.0, 0.0, 0.0, 0.0, 0.0, 0.0, 0.0, 0.0, 1.6635889141457272E9, 0.0, 2022-09-19 17:01:54.145
18.0, 22981.46015184643, -53305.7812816836, 17337.041179781103, 115335.69429346255, 187500.0, 187500.0, 3222.585108588351, 21500.165343304318, 0.648, -0.662, 0.438, 192.0, 0.0, 0.0, 0.0, 0.0, 0.0, 0.0, 0.0, 0.0, 0.0, 1.6635889141497724E9, 0.0, 2022-09-19 17:01:54.149
19.0, 22987.562178082728, -53306.89886890637, 17348.99936306469, 115336.02956962939, 187500.0, 187500.0, 3240.0194692634905, 21500.63472993788, 0.648, -0.662, 0.438, 192.0, 0.0, 0.0, 0.0, 0.0, 0.0, 0.0, 0.0, 0.0, 0.0, 1.6635889141547506E9, 0.0, 2022-09-19 17:01:54.154
20.0, 23009.511591137838, -53290.26917103162, 17360.62227018145, 115350.71466573652, 187500.0, 187500.0, 3263.332338730376, 21508.748413175155, 0.648, -0.662, 0.438, 192.0, 0.0, 0.0, 0.0, 0.0, 0.0, 0.0, 0.0, 0.0, 0.0, 1.6635889141578088E9, 0.0, 2022-09-19 17:01:54.157
21.0, 23008.528114381807, -53286.53642970758, 17356.889528857413, 115352.18988087057, 187500.0, 187500.0, 3264.896960842247, 21513.39757602186, 0.648, -0.662, 0.438, 192.0, 0.0, 0.0, 0.0, 0.0, 0.0, 0.0, 0.0, 0.0, 0.0, 1.6635889141608255E9, 0.0, 2022-09-19 17:01:54.160
22.0, 22957.1191021346, -53323.774435970125, 17337.354104203478, 115314.3707292522, 187500.0, 187500.0, 3222.9203847551807, 21494.622110679404, 0.648, -0.662, 0.438, 192.0, 0.0, 0.0, 0.0, 0.0, 0.0, 0.0, 0.0, 0.0, 0.0, 1.6635889141658175E9, 0.0, 2022-09-19 17:01:54.165
23.0, 22942.746930449837, -53350.976508972235, 17336.080054769525, 115289.26972022888, 187500.0, 187500.0, 3210.3587043712982, 21495.024442079597, 0.648, -0.662, 0.438, 192.0, 0.0, 0.0, 0.0, 0.0, 0.0, 0.0, 0.0, 0.0, 0.0, 1.6635889141698003E9, 0.0, 2022-09-19 17:01:54.169
24.0, 22973.994669198357, -53354.93276774082, 17345.33367697402, 115281.22309222497, 187500.0, 187500.0, 3228.061285979901, 21491.939901344766, 0.652, -0.658, 0.44, 192.0, 20.0, 96.0, 235.0, 112.0, 13.0, 192.0, 0.0, 0.0, 0.0, 1.663588914173808E9, 0.0, 2022-09-19 17:01:54.173
25.0, 22961.902375448033, -53362.08532596652, 17331.43089192282, 115274.04818225482, 187500.0, 187500.0, 3236.130265728267, 21470.01284003411, 0.652, -0.658, 0.44, 192.0, 0.0, 0.0, 0.0, 0.0, 0.0, 0.0, 0.0, 0.0, 0.0, 1.6635889141768386E9, 0.0, 2022-09-19 17:01:54.176
26.0, 22979.850826245645, -53341.29820362308, 17342.360894961465, 115292.3095574748, 187500.0, 187500.0, 3250.4130304352084, 21491.850494366943, 0.652, -0.658, 0.44, 192.0, 0.0, 0.0, 0.0, 0.0, 0.0, 0.0, 0.0, 0.0, 0.0, 1.6635889141808867E9, 0.0, 2022-09-19 17:01:54.180
27.0, 22991.384326384585, -53346.93084322582, 17352.262717755166, 115282.29597595883, 187500.0, 187500.0, 3236.487893639552, 21507.83199165249, 0.652, -0.658, 0.44, 192.0, 0.0, 0.0, 0.0, 0.0, 0.0, 0.0, 0.0, 0.0, 0.0, 1.663588914184774E9, 0.0, 2022-09-19 17:01:54.184
28.0, 22974.374648854096, -53391.2543524807, 17342.33854321701, 115234.41853933556, 187500.0, 187500.0, 3217.555966085907, 21479.78055236108, 0.652, -0.658, 0.44, 192.0, 0.0, 0.0, 0.0, 0.0, 0.0, 0.0, 0.0, 0.0, 0.0, 1.6635889141888225E9, 0.0, 2022-09-19 17:01:54.188
29.0, 22963.846977215646, -53408.19697477782, 17331.229726222722, 115214.01139664787, 187500.0, 187500.0, 3221.288707409943, 21465.788360332055, 0.652, -0.658, 0.44, 192.0, 0.0, 0.0, 0.0, 0.0, 0.0, 0.0, 0.0, 0.0, 0.0, 1.6635889141938376E9, 0.0, 2022-09-19 17:01:54.193
30.0, 22979.515550078817, -53380.816087820065, 17342.696171128293, 115235.98316144744, 187500.0, 187500.0, 3248.222559478588, 21483.96032857422, 0.652, -0.658, 0.44, 192.0, 0.0, 0.0, 0.0, 0.0, 0.0, 0.0, 0.0, 0.0, 0.0, 1.6635889141978087E9, 0.0, 2022-09-19 17:01:54.197
31.0, 22988.03156471629, -53356.47503810824, 17352.977973577737, 115251.65173431061, 187500.0, 187500.0, 3258.750231117038, 21493.795096134556, 0.652, -0.658, 0.44, 192.0, 0.0, 0.0, 0.0, 0.0, 0.0, 0.0, 0.0, 0.0, 0.0, 1.6635889142019255E9, 0.0, 2022-09-19 17:01:54.201
32.0, 22993.775963041302, -53378.290340696614, 17348.28410724212, 115221.02984440683, 187500.0, 187500.0, 3232.6657453376947, 21491.24699726665, 0.652, -0.658, 0.44, 192.0, 0.0, 0.0, 0.0, 0.0, 0.0, 0.0, 0.0, 0.0, 0.0, 1.6635889142049763E9, 0.0, 2022-09-19 17:01:54.204
33.0, 22985.34935538165, -53404.441881709325, 17340.371589704944, 115191.54789347028, 187500.0, 187500.0, 3220.819320776382, 21490.978776333188, 0.652, -0.658, 0.44, 192.0, 0.0, 0.0, 0.0, 0.0, 0.0, 0.0, 0.0, 0.0, 0.0, 1.6635889142088356E9, 0.0, 2022-09-19 17:01:54.208
34.0, 22990.423201373007, -53405.55946893209, 17347.81472060856, 115188.77627715783, 187500.0, 187500.0, 3239.237158207555, 21499.15951480383, 0.652, -0.658, 0.44, 192.0, 0.0, 0.0, 0.0, 0.0, 0.0, 0.0, 0.0, 0.0, 0.0, 1.6635889142128456E9, 0.0, 2022-09-19 17:01:54.212
35.0, 22989.730297294893, -53392.17077400336, 17342.115025772455, 115196.01824236134, 187500.0, 187500.0, 3257.364422960809, 21483.289776240563, 0.654, -0.656, 0.436, 192.0, 20.0, 112.0, 235.0, 128.0, 13.0, 160.0, 0.0, 0.0, 0.0, 1.6635889142168736E9, 0.0, 2022-09-19 17:01:54.216
36.0, 22998.335718910184, -53362.86763702246, 17339.81279609356, 115217.67708273853, 187500.0, 187500.0, 3261.1418677737556, 21502.28875902757, 0.654, -0.656, 0.436, 192.0, 0.0, 0.0, 0.0, 0.0, 0.0, 0.0, 0.0, 0.0, 0.0, 1.6635889142209227E9, 0.0, 2022-09-19 17:01:54.220
37.0, 22983.74002978087, -53372.70240458279, 17338.96342980426, 115201.47206800844, 187500.0, 187500.0, 3231.346992414831, 21509.038985853076, 0.654, -0.656, 0.436, 192.0, 0.0, 0.0, 0.0, 0.0, 0.0, 0.0, 0.0, 0.0, 0.0, 1.6635889142269094E9, 0.0, 2022-09-19 17:01:54.226
38.0, 22970.1725208965, -53399.077463040056, 17335.655371624875, 115171.45367520496, 187500.0, 187500.0, 3217.1536346857115, 21499.897122370854, 0.654, -0.656, 0.436, 192.0, 0.0, 0.0, 0.0, 0.0, 0.0, 0.0, 0.0, 0.0, 0.0, 1.663588914229915E9, 0.0, 2022-09-19 17:01:54.229
39.0, 22988.679765305493, -53401.156175274395, 17341.176252505335, 115166.08925653569, 187500.0, 187500.0, 3237.583129117862, 21503.383994505883, 0.654, -0.656, 0.436, 192.0, 0.0, 0.0, 0.0, 0.0, 0.0, 0.0, 0.0, 0.0, 0.0, 1.6635889142339373E9, 0.0, 2022-09-19 17:01:54.233
40.0, 23006.89643703657, -53375.98811101772, 17346.272450241144, 115183.65772767756, 187500.0, 187500.0, 3260.7395363735604, 21503.629863694892, 0.654, -0.656, 0.436, 192.0, 0.0, 0.0, 0.0, 0.0, 0.0, 0.0, 0.0, 0.0, 0.0, 1.6635889142370389E9, 0.0, 2022-09-19 17:01:54.237
41.0, 22995.83232353119, -53362.37589864444, 17339.879851326925, 115189.60329170268, 187500.0, 187500.0, 3252.938777558658, 21493.750392645645, 0.654, -0.656, 0.436, 192.0, 0.0, 0.0, 0.0, 0.0, 0.0, 0.0, 0.0, 0.0, 0.0, 1.6635889142409344E9, 0.0, 2022-09-19 17:01:54.240
42.0, 22957.096750390145, -53393.981265304246, 17325.4406244088, 115151.65002961757, 187500.0, 187500.0, 3212.5715270723736, 21475.936052314766, 0.654, -0.656, 0.436, 192.0, 0.0, 0.0, 0.0, 0.0, 0.0, 0.0, 0.0, 0.0, 0.0, 1.6635889142469356E9, 0.0, 2022-09-19 17:01:54.246
43.0, 22927.480688986863, -53420.244565039226, 17319.495060383684, 115118.9717792239, 187500.0, 187500.0, 3200.9933234445243, 21468.179996988776, 0.654, -0.656, 0.436, 192.0, 0.0, 0.0, 0.0, 0.0, 0.0, 0.0, 0.0, 0.0, 0.0, 1.6635889142499292E9, 0.0, 2022-09-19 17:01:54.249
44.0, 22975.536939565773, -53414.723684158766, 17335.94594430279, 115121.58693332518, 187500.0, 187500.0, 3222.8309777773593, 21484.720287885702, 0.654, -0.656, 0.436, 192.0, 0.0, 0.0, 0.0, 0.0, 0.0, 0.0, 0.0, 0.0, 0.0, 1.6635889142539642E9, 0.0, 2022-09-19 17:01:54.253
45.0, 23024.62137038963, -53383.475945410246, 17344.57371766254, 115146.30796269274, 187500.0, 187500.0, 3253.2517019810325, 21490.86701761091, 0.648, -0.662, 0.432, 192.0, 20.0, 64.0, 235.0, 80.0, 13.0, 128.0, 0.0, 0.0, 0.0, 1.663588914257936E9, 0.0, 2022-09-19 17:01:54.257
46.0, 23013.534905139793, -53361.37007014395, 17346.361857218966, 115167.8326926032, 187500.0, 187500.0, 3256.716222371605, 21497.30432001404, 0.648, -0.662, 0.432, 192.0, 0.0, 0.0, 0.0, 0.0, 0.0, 0.0, 0.0, 0.0, 0.0, 1.6635889142619772E9, 0.0, 2022-09-19 17:01:54.261
47.0, 22987.249253660353, -53375.429317406335, 17340.326886216033, 115153.16994824052, 187500.0, 187500.0, 3227.8824720242587, 21501.30528227154, 0.648, -0.662, 0.432, 192.0, 0.0, 0.0, 0.0, 0.0, 0.0, 0.0, 0.0, 0.0, 0.0, 1.6635889142649777E9, 0.0, 2022-09-19 17:01:54.264
48.0, 23001.017928244823, -53403.86073635349, 17339.56692690455, 115123.84445951515, 187500.0, 187500.0, 3218.8523672643146, 21499.07010782601, 0.648, -0.662, 0.432, 192.0, 0.0, 0.0, 0.0, 0.0, 0.0, 0.0, 0.0, 0.0, 0.0, 1.6635889142690692E9, 0.0, 2022-09-19 17:01:54.269
49.0, 23001.263797433832, -53420.69159992834, 17334.090749513, 115107.63944478506, 187500.0, 187500.0, 3228.7988935469266, 21487.58131117598, 0.648, -0.662, 0.432, 192.0, 0.0, 0.0, 0.0, 0.0, 0.0, 0.0, 0.0, 0.0, 0.0, 1.6635889142730112E9, 0.0, 2022-09-19 17:01:54.273
50.0, 22998.44747763246, -53407.92875384435, 17334.00134253518, 115120.0223112133, 187500.0, 187500.0, 3246.7920478334486, 21492.901026356343, 0.648, -0.662, 0.432, 192.0, 0.0, 0.0, 0.0, 0.0, 0.0, 0.0, 0.0, 0.0, 0.0, 1.663588914277093E9, 0.0, 2022-09-19 17:01:54.277
51.0, 22977.280375633287, -53409.269858511674, 17324.63596160841, 115118.59179956817, 187500.0, 187500.0, 3231.458751137108, 21474.639651136356, 0.648, -0.662, 0.432, 192.0, 0.0, 0.0, 0.0, 0.0, 0.0, 0.0, 0.0, 0.0, 0.0, 1.6635889142819853E9, 0.0, 2022-09-19 17:01:54.281
52.0, 22963.31053534872, -53439.53412050416, 17325.82060406454, 115092.10498238863, 187500.0, 187500.0, 3199.8310327328486, 21476.83012209298, 0.648, -0.662, 0.432, 192.0, 0.0, 0.0, 0.0, 0.0, 0.0, 0.0, 0.0, 0.0, 0.0, 1.6635889142850382E9, 0.0, 2022-09-19 17:01:54.285
53.0, 22987.293957149264, -53458.37664107998, 17335.208336735766, 115076.34700254763, 187500.0, 187500.0, 3209.5093380819962, 21493.01278507862, 0.648, -0.662, 0.432, 192.0, 0.0, 0.0, 0.0, 0.0, 0.0, 0.0, 0.0, 0.0, 0.0, 1.663588914289044E9, 0.0, 2022-09-19 17:01:54.289
54.0, 22993.37363164111, -53461.79645798165, 17343.09850252849, 115070.93788038945, 187500.0, 187500.0, 3232.5316348709625, 21481.14400877285, 0.648, -0.662, 0.432, 192.0, 0.0, 0.0, 0.0, 0.0, 0.0, 0.0, 0.0, 0.0, 0.0, 1.6635889142930129E9, 0.0, 2022-09-19 17:01:54.293
55.0, 22979.627308801093, -53454.95682417832, 17332.794348334595, 115072.83777866815, 187500.0, 187500.0, 3240.69002159715, 21456.802959061024, 0.646, -0.664, 0.428, 192.0, 20.0, 48.0, 235.0, 64.0, 13.0, 96.0, 0.0, 0.0, 0.0, 1.6635889142970362E9, 0.0, 2022-09-19 17:01:54.297
56.0, 22973.435875586973, -53446.463161285305, 17331.743816345195, 115078.91745315999, 187500.0, 187500.0, 3236.3761349172755, 21462.346191685938, 0.646, -0.664, 0.428, 192.0, 0.0, 0.0, 0.0, 0.0, 0.0, 0.0, 0.0, 0.0, 0.0, 1.6635889143010793E9, 0.0, 2022-09-19 17:01:54.301
57.0, 22966.573890039195, -53469.41840284091, 17345.847767096493, 115058.48795872784, 187500.0, 187500.0, 3218.204166675111, 21490.554093188537, 0.646, -0.664, 0.428, 192.0, 0.0, 0.0, 0.0, 0.0, 0.0, 0.0, 0.0, 0.0, 0.0, 1.663588914305043E9, 0.0, 2022-09-19 17:01:54.305
58.0, 22955.889756189557, -53498.16274621043, 17351.078075299036, 115030.90590607, 187500.0, 187500.0, 3212.236250905544, 21487.983642576175, 0.646, -0.664, 0.428, 192.0, 0.0, 0.0, 0.0, 0.0, 0.0, 0.0, 0.0, 0.0, 0.0, 1.6635889143100405E9, 0.0, 2022-09-19 17:01:54.310
59.0, 23002.60490210115, -53480.81779251311, 17374.457999999286, 115049.83783362363, 187500.0, 187500.0, 3254.436344437164, 21515.565695234025, 0.646, -0.664, 0.428, 192.0, 0.0, 0.0, 0.0, 0.0, 0.0, 0.0, 0.0, 0.0, 0.0, 1.6635889143131533E9, 0.0, 2022-09-19 17:01:54.313
60.0, 23047.688370667503, -53445.68085022937, 17377.833113412038, 115084.90772067402, 187500.0, 187500.0, 3287.1369465752778, 21528.68616922929, 0.646, -0.664, 0.428, 192.0, 0.0, 0.0, 0.0, 0.0, 0.0, 0.0, 0.0, 0.0, 0.0, 1.6635889143161087E9, 0.0, 2022-09-19 17:01:54.316
61.0, 23018.295826708774, -53460.656519014425, 17352.665049155363, 115064.83585415315, 187500.0, 187500.0, 3252.268225224999, 21499.49479097066, 0.646, -0.664, 0.428, 192.0, 0.0, 0.0, 0.0, 0.0, 0.0, 0.0, 0.0, 0.0, 0.0, 1.663588914321069E9, 0.0, 2022-09-19 17:01:54.321
62.0, 22986.73516353788, -53500.152051466954, 17353.916746844858, 115022.76987108825, 187500.0, 187500.0, 3219.0982364533234, 21504.859209639933, 0.646, -0.664, 0.428, 192.0, 0.0, 0.0, 0.0, 0.0, 0.0, 0.0, 0.0, 0.0, 0.0, 1.6635889143250644E9, 0.0, 2022-09-19 17:01:54.325
63.0, 22991.31727115122, -53522.83907208909, 17358.00711608018, 114999.7475742993, 187500.0, 187500.0, 3224.4179516336862, 21500.05358458204, 0.646, -0.664, 0.428, 192.0, 0.0, 0.0, 0.0, 0.0, 0.0, 0.0, 0.0, 0.0, 0.0, 1.6635889143311193E9, 0.0, 2022-09-19 17:01:54.331
64.0, 23018.40758543105, -53499.14622296646, 17381.409392524885, 115020.02060652025, 187500.0, 187500.0, 3259.7560596175267, 21522.11475635943, 0.646, -0.664, 0.428, 192.0, 0.0, 0.0, 0.0, 0.0, 0.0, 0.0, 0.0, 0.0, 0.0, 1.6635889143341107E9, 0.0, 2022-09-19 17:01:54.334
65.0, 23036.981885073412, -53462.601120782034, 17388.852523428504, 115053.3023540142, 187500.0, 187500.0, 3284.3429785183644, 21529.110852373942, 0.652, -0.672, 0.428, 192.0, 20.0, 96.0, 235.0, 0.0, 13.0, 96.0, 0.0, 0.0, 0.0, 1.6635889143380775E9, 0.0, 2022-09-19 17:01:54.338
66.0, 23029.203478002964, -53452.140504376956, 17382.14700009191, 115055.47047322638, 187500.0, 187500.0, 3267.9591498326245, 21519.76782319162, 0.652, -0.672, 0.428, 192.0, 0.0, 0.0, 0.0, 0.0, 0.0, 0.0, 0.0, 0.0, 0.0, 1.6635889143412309E9, 0.0, 2022-09-19 17:01:54.341
67.0, 23011.970283027924, -53493.91591476392, 17373.698040687806, 115010.45405989338, 187500.0, 187500.0, 3231.5481581149293, 21491.470514711204, 0.652, -0.672, 0.428, 192.0, 0.0, 0.0, 0.0, 0.0, 0.0, 0.0, 0.0, 0.0, 0.0, 1.6635889143442066E9, 0.0, 2022-09-19 17:01:54.344
68.0, 23020.46394592094, -53518.97222029832, 17375.374421521952, 114984.72720202533, 187500.0, 187500.0, 3234.7221058275827, 21476.271328481595, 0.652, -0.672, 0.428, 192.0, 0.0, 0.0, 0.0, 0.0, 0.0, 0.0, 0.0, 0.0, 0.0, 1.6635889143491433E9, 0.0, 2022-09-19 17:01:54.349
69.0, 23014.56308538474, -53524.761322112245, 17375.933215133336, 114977.44053333289, 187500.0, 187500.0, 3249.7648298460044, 21477.81359884901, 0.652, -0.672, 0.428, 192.0, 0.0, 0.0, 0.0, 0.0, 0.0, 0.0, 0.0, 0.0, 0.0, 1.6635889143531127E9, 0.0, 2022-09-19 17:01:54.353
70.0, 23028.376463458117, -53505.06943524712, 17377.0508023561, 114991.61153931756, 187500.0, 187500.0, 3273.010644079524, 21504.032195095086, 0.652, -0.672, 0.428, 192.0, 0.0, 0.0, 0.0, 0.0, 0.0, 0.0, 0.0, 0.0, 0.0, 1.6635889143572557E9, 0.0, 2022-09-19 17:01:54.357
71.0, 23025.716605867936, -53504.86826954702, 17371.753438920194, 114987.16354217095, 187500.0, 187500.0, 3260.203094506633, 21511.83295390999, 0.652, -0.672, 0.428, 192.0, 0.0, 0.0, 0.0, 0.0, 0.0, 0.0, 0.0, 0.0, 0.0, 1.6635889143611674E9, 0.0, 2022-09-19 17:01:54.361
72.0, 23013.624312117616, -53547.67186017893, 17362.656278926883, 114944.1811375834, 187500.0, 187500.0, 3226.49666386803, 21500.12063981541, 0.652, -0.672, 0.428, 192.0, 0.0, 0.0, 0.0, 0.0, 0.0, 0.0, 0.0, 0.0, 0.0, 1.6635889143661597E9, 0.0, 2022-09-19 17:01:54.366
73.0, 23021.760347099345, -53564.21215107586, 17375.3520697775, 114929.98777985427, 187500.0, 187500.0, 3245.227425721577, 21511.698843443257, 0.652, -0.672, 0.428, 192.0, 0.0, 0.0, 0.0, 0.0, 0.0, 0.0, 0.0, 0.0, 0.0, 1.663588914369176E9, 0.0, 2022-09-19 17:01:54.369
74.0, 23040.759329886358, -53561.8428661636, 17377.4531337563, 114932.93821012237, 187500.0, 187500.0, 3264.6063881643286, 21505.306244529038, 0.652, -0.672, 0.428, 192.0, 0.0, 0.0, 0.0, 0.0, 0.0, 0.0, 0.0, 0.0, 0.0, 1.6635889143722224E9, 0.0, 2022-09-19 17:01:54.372
75.0, 23052.359885258662, -53555.13734282701, 17373.742744176718, 114936.71565493532, 187500.0, 187500.0, 3275.4022807362417, 21478.841779093957, 0.654, -0.666, 0.428, 192.0, 20.0, 112.0, 235.0, 48.0, 13.0, 96.0, 0.0, 0.0, 0.0, 1.6635889143771908E9, 0.0, 2022-09-19 17:01:54.377
76.0, 23058.193690561497, -53561.41818301895, 17376.53671223363, 114931.9323816219, 187500.0, 187500.0, 3266.774507376493, 21499.49479097066, 0.654, -0.666, 0.428, 192.0, 0.0, 0.0, 0.0, 0.0, 0.0, 0.0, 0.0, 0.0, 0.0, 1.6635889143811536E9, 0.0, 2022-09-19 17:01:54.381
77.0, 23004.50480037985, -53609.4520818534, 17368.646546440905, 114890.0675642571, 187500.0, 187500.0, 3233.0457249934348, 21513.665796955323, 0.654, -0.666, 0.428, 192.0, 0.0, 0.0, 0.0, 0.0, 0.0, 0.0, 0.0, 0.0, 0.0, 1.6635889143852434E9, 0.0, 2022-09-19 17:01:54.385
78.0, 23003.27545443481, -53633.43550365395, 17368.82536039655, 114872.96847974879, 187500.0, 187500.0, 3237.225501206577, 21526.02631163911, 0.654, -0.666, 0.428, 192.0, 0.0, 0.0, 0.0, 0.0, 0.0, 0.0, 0.0, 0.0, 0.0, 1.663588914391194E9, 0.0, 2022-09-19 17:01:54.391
79.0, 23043.93327759901, -53636.29652694423, 17366.54548246211, 114873.68373557137, 187500.0, 187500.0, 3258.347899716842, 21516.30330280105, 0.654, -0.666, 0.428, 192.0, 0.0, 0.0, 0.0, 0.0, 0.0, 0.0, 0.0, 0.0, 0.0, 1.6635889143941672E9, 0.0, 2022-09-19 17:01:54.394
80.0, 23049.09653056819, -53633.34609667613, 17349.0440665536, 114876.1647792059, 187500.0, 187500.0, 3263.5335044304734, 21483.692107640756, 0.654, -0.666, 0.428, 192.0, 0.0, 0.0, 0.0, 0.0, 0.0, 0.0, 0.0, 0.0, 0.0, 1.6635889143982427E9, 0.0, 2022-09-19 17:01:54.398
81.0, 23036.020760061834, -53631.49090188633, 17347.1441682749, 114879.33872691855, 187500.0, 187500.0, 3251.0835827688675, 21485.86022685292, 0.654, -0.666, 0.428, 192.0, 0.0, 0.0, 0.0, 0.0, 0.0, 0.0, 0.0, 0.0, 0.0, 1.6635889144012992E9, 0.0, 2022-09-19 17:01:54.401
82.0, 23046.41432123355, -53646.57832939367, 17368.646546440905, 114869.95099424732, 187500.0, 187500.0, 3242.0534780089233, 21525.48986977218, 0.654, -0.666, 0.428, 192.0, 0.0, 0.0, 0.0, 0.0, 0.0, 0.0, 0.0, 0.0, 0.0, 1.6635889144052737E9, 0.0, 2022-09-19 17:01:54.405
83.0, 23039.954667085967, -53668.95242559343, 17359.549386447597, 114852.11430217199, 187500.0, 187500.0, 3242.1205332422896, 21518.851401668955, 0.654, -0.666, 0.428, 192.0, 0.0, 0.0, 0.0, 0.0, 0.0, 0.0, 0.0, 0.0, 0.0, 1.6635889144092536E9, 0.0, 2022-09-19 17:01:54.409
84.0, 23011.813820816737, -53694.5228212503, 17343.165557761855, 114831.93067692885, 187500.0, 187500.0, 3243.483989654063, 21486.128447786385, 0.654, -0.666, 0.428, 192.0, 0.0, 0.0, 0.0, 0.0, 0.0, 0.0, 0.0, 0.0, 0.0, 1.6635889144142997E9, 0.0, 2022-09-19 17:01:54.414
85.0, 23025.247219234374, -53679.07776583169, 17347.05476129708, 114847.39808409192, 187500.0, 187500.0, 3266.0592515539233, 21499.785363648578, 0.652, -0.664, 0.436, 192.0, 20.0, 96.0, 235.0, 64.0, 13.0, 160.0, 0.0, 0.0, 0.0, 1.66358891441829E9, 0.0, 2022-09-19 17:01:54.418
86.0, 23037.473623451428, -53674.47330647389, 17345.020752551645, 114851.77902600516, 187500.0, 187500.0, 3256.000966549035, 21509.55307597555, 0.652, -0.664, 0.436, 192.0, 0.0, 0.0, 0.0, 0.0, 0.0, 0.0, 0.0, 0.0, 0.0, 1.663588914421285E9, 0.0, 2022-09-19 17:01:54.421
87.0, 23053.544527714796, -53682.02819609978, 17354.25202301169, 114843.01714217868, 187500.0, 187500.0, 3243.3051756984205, 21513.531686488594, 0.652, -0.664, 0.436, 192.0, 0.0, 0.0, 0.0, 0.0, 0.0, 0.0, 0.0, 0.0, 0.0, 1.6635889144272623E9, 0.0, 2022-09-19 17:01:54.427
88.0, 23060.875899896135, -53693.85226891664, 17355.81664512356, 114832.71298798478, 187500.0, 187500.0, 3248.848408323337, 21499.383032248385, 0.652, -0.664, 0.436, 192.0, 0.0, 0.0, 0.0, 0.0, 0.0, 0.0, 0.0, 0.0, 0.0, 1.663588914430282E9, 0.0, 2022-09-19 17:01:54.430
89.0, 23061.904080141077, -53686.14091707956, 17348.06058979757, 114843.21830787878, 187500.0, 187500.0, 3260.8959985847473, 21510.06716609802, 0.652, -0.664, 0.436, 192.0, 0.0, 0.0, 0.0, 0.0, 0.0, 0.0, 0.0, 0.0, 0.0, 1.6635889144342825E9, 0.0, 2022-09-19 17:01:54.434
90.0, 23056.539661471805, -53658.17888476597, 17337.443511181296, 114871.51561635919, 187500.0, 187500.0, 3272.1612777902224, 21499.763011904124, 0.652, -0.664, 0.436, 192.0, 0.0, 0.0, 0.0, 0.0, 0.0, 0.0, 0.0, 0.0, 0.0, 1.6635889144372897E9, 0.0, 2022-09-19 17:01:54.437
91.0, 23041.94397234249, -53642.487960158345, 17343.254964739677, 114888.4135351674, 187500.0, 187500.0, 3261.3430334738537, 21493.906854856832, 0.652, -0.664, 0.436, 192.0, 0.0, 0.0, 0.0, 0.0, 0.0, 0.0, 0.0, 0.0, 0.0, 1.6635889144413528E9, 0.0, 2022-09-19 17:01:54.441
92.0, 23017.960550541946, -53677.4684402309, 17334.33661870201, 114857.63518305245, 187500.0, 187500.0, 3226.11668421229, 21487.58131117598, 0.652, -0.664, 0.436, 192.0, 0.0, 0.0, 0.0, 0.0, 0.0, 0.0, 0.0, 0.0, 0.0, 1.6635889144453065E9, 0.0, 2022-09-19 17:01:54.445
93.0, 23022.028568032812, -53691.05830085973, 17328.502813399176, 114847.19691839183, 187500.0, 187500.0, 3232.35282091532, 21493.370412989905, 0.652, -0.664, 0.436, 192.0, 0.0, 0.0, 0.0, 0.0, 0.0, 0.0, 0.0, 0.0, 0.0, 1.6635889144493115E9, 0.0, 2022-09-19 17:01:54.449
94.0, 23031.08102453721, -53663.27508250178, 17328.10048199898, 114874.53310186067, 187500.0, 187500.0, 3257.364422960809, 21501.68526192728, 0.652, -0.664, 0.436, 192.0, 0.0, 0.0, 0.0, 0.0, 0.0, 0.0, 0.0, 0.0, 0.0, 1.6635889144533093E9, 0.0, 2022-09-19 17:01:54.453
95.0, 23033.04797804928, -53626.95349776191, 17326.46880465374, 114904.48443943077, 187500.0, 187500.0, 3270.082565555879, 21499.383032248385, 0.652, -0.66, 0.442, 192.0, 20.0, 96.0, 235.0, 96.0, 13.0, 208.0, 0.0, 0.0, 0.0, 1.6635889144563367E9, 0.0, 2022-09-19 17:01:54.456
96.0, 23048.51538521235, -53599.05852068168, 17329.888621555405, 114927.88671587549, 187500.0, 187500.0, 3263.1758765191885, 21505.797982907057, 0.652, -0.66, 0.442, 192.0, 0.0, 0.0, 0.0, 0.0, 0.0, 0.0, 0.0, 0.0, 0.0, 1.6635889144603035E9, 0.0, 2022-09-19 17:01:54.460
97.0, 23033.27149549383, -53622.86312852659, 17320.47853713972, 114906.04906154264, 187500.0, 187500.0, 3237.0466872509346, 21491.738735644667, 0.652, -0.66, 0.442, 192.0, 0.0, 0.0, 0.0, 0.0, 0.0, 0.0, 0.0, 0.0, 0.0, 1.663588914465285E9, 0.0, 2022-09-19 17:01:54.465
98.0, 23003.342509668175, -53652.45683818541, 17293.120001926425, 114876.09772397253, 187500.0, 187500.0, 3217.06422770789, 21455.90888928281, 0.652, -0.66, 0.442, 192.0, 0.0, 0.0, 0.0, 0.0, 0.0, 0.0, 0.0, 0.0, 0.0, 1.6635889144704473E9, 0.0, 2022-09-19 17:01:54.470
99.0, 23003.141343968076, -53628.47341638487, 17289.811943747038, 114899.20942773932, 187500.0, 187500.0, 3233.269242437988, 21463.44142716425, 0.652, -0.66, 0.442, 192.0, 0.0, 0.0, 0.0, 0.0, 0.0, 0.0, 0.0, 0.0, 0.0, 1.6635889144743955E9, 0.0, 2022-09-19 17:01:54.474
100.0, 23031.19278325949, -53555.78554341621, 17305.189943932288, 114968.47748380632, 187500.0, 187500.0, 3264.002891064035, 21505.797982907057, 0.652, -0.66, 0.442, 192.0, 0.0, 0.0, 0.0, 0.0, 0.0, 0.0, 0.0, 0.0, 0.0, 1.6635889144773996E9, 0.0, 2022-09-19 17:01:54.477
101.0, 23031.0363210483, -53530.95275532636, 17297.65740605085, 114988.52699858273, 187500.0, 187500.0, 3237.4713703955854, 21500.277102026594, 0.652, -0.66, 0.442, 192.0, 0.0, 0.0, 0.0, 0.0, 0.0, 0.0, 0.0, 0.0, 0.0, 1.6635889144803617E9, 0.0, 2022-09-19 17:01:54.480
102.0, 22988.568006583217, -53549.996441602285, 17284.89455996687, 114964.8341494601, 187500.0, 187500.0, 3205.307210124399, 21488.7212501432, 0.652, -0.66, 0.442, 192.0, 0.0, 0.0, 0.0, 0.0, 0.0, 0.0, 0.0, 0.0, 0.0, 1.6635889144843884E9, 0.0, 2022-09-19 17:01:54.484
103.0, 22978.35325936714, -53539.91580485294, 17294.23758914919, 114971.02558267422, 187500.0, 187500.0, 3220.461692865097, 21490.509389699626, 0.652, -0.66, 0.442, 192.0, 0.0, 0.0, 0.0, 0.0, 0.0, 0.0, 0.0, 0.0, 0.0, 1.66358891448843E9, 0.0, 2022-09-19 17:01:54.488
104.0, 23032.80210886027, -53480.25899890173, 17323.965409274748, 115025.0497490227, 187500.0, 187500.0, 3265.5675131759067, 21517.219724323717, 0.652, -0.66, 0.442, 192.0, 0.0, 0.0, 0.0, 0.0, 0.0, 0.0, 0.0, 0.0, 0.0, 1.6635889144934192E9, 0.0, 2022-09-19 17:01:54.493
105.0, 23068.52019649985, -53426.883033142454, 17333.643714623897, 115067.58511872115, 187500.0, 187500.0, 3287.807498908937, 21525.892201172377, 0.648, -0.666, 0.444, 192.0, 20.0, 64.0, 235.0, 48.0, 13.0, 224.0, 0.0, 0.0, 0.0, 1.6635889144984396E9, 0.0, 2022-09-19 17:01:54.498
106.0, 23032.824460604723, -53437.56716699209, 17302.57478983102, 115052.78826389174, 187500.0, 187500.0, 3239.7288965855714, 21484.228549507687, 0.648, -0.666, 0.444, 192.0, 0.0, 0.0, 0.0, 0.0, 0.0, 0.0, 0.0, 0.0, 0.0, 1.6635889145015013E9, 0.0, 2022-09-19 17:01:54.501
107.0, 22997.195779942966, -53459.315414347104, 17283.240530877178, 115026.56966764566, 187500.0, 187500.0, 3199.2945908659212, 21462.30148819703, 0.648, -0.666, 0.444, 192.0, 0.0, 0.0, 0.0, 0.0, 0.0, 0.0, 0.0, 0.0, 0.0, 1.6635889145053947E9, 0.0, 2022-09-19 17:01:54.505
108.0, 23003.990710257378, -53446.35140256303, 17283.687565766282, 115033.34224621562, 187500.0, 187500.0, 3208.3693991147757, 21472.7174011132, 0.648, -0.666, 0.444, 192.0, 0.0, 0.0, 0.0, 0.0, 0.0, 0.0, 0.0, 0.0, 0.0, 1.6635889145084193E9, 0.0, 2022-09-19 17:01:54.508
109.0, 23014.11605049563, -53423.15029181842, 17288.113211168435, 115050.08370281264, 187500.0, 187500.0, 3228.843597035837, 21479.087648282963, 0.648, -0.666, 0.444, 192.0, 0.0, 0.0, 0.0, 0.0, 0.0, 0.0, 0.0, 0.0, 0.0, 1.6635889145124402E9, 0.0, 2022-09-19 17:01:54.512
110.0, 23007.812858559235, -53396.79758510561, 17286.12390591191, 115068.92622338847, 187500.0, 187500.0, 3234.0515534939236, 21479.199407005242, 0.648, -0.666, 0.444, 192.0, 0.0, 0.0, 0.0, 0.0, 0.0, 0.0, 0.0, 0.0, 0.0, 1.6635889145164804E9, 0.0, 2022-09-19 17:01:54.516
111.0, 22982.175407668998, -53407.168794532874, 17268.242510347667, 115052.34122900263, 187500.0, 187500.0, 3197.6629135206836, 21457.428807905773, 0.648, -0.666, 0.444, 192.0, 0.0, 0.0, 0.0, 0.0, 0.0, 0.0, 0.0, 0.0, 0.0, 1.663588914520432E9, 0.0, 2022-09-19 17:01:54.520
112.0, 22974.039372687268, -53430.54871923313, 17258.295984065055, 115022.92633329945, 187500.0, 187500.0, 3177.613398744273, 21443.10133970992, 0.648, -0.666, 0.444, 192.0, 0.0, 0.0, 0.0, 0.0, 0.0, 0.0, 0.0, 0.0, 0.0, 1.663588914525424E9, 0.0, 2022-09-19 17:01:54.525
113.0, 22976.207491899433, -53437.231890825264, 17266.32026032451, 115008.95649301488, 187500.0, 187500.0, 3185.816488959371, 21447.839909534447, 0.648, -0.666, 0.444, 192.0, 0.0, 0.0, 0.0, 0.0, 0.0, 0.0, 0.0, 0.0, 0.0, 1.6635889145296223E9, 0.0, 2022-09-19 17:01:54.529
114.0, 22989.573835083705, -53422.345629018026, 17282.502923310152, 115017.2489902078, 187500.0, 187500.0, 3209.531689826452, 21458.14406372834, 0.648, -0.666, 0.444, 192.0, 0.0, 0.0, 0.0, 0.0, 0.0, 0.0, 0.0, 0.0, 0.0, 1.6635889145335004E9, 0.0, 2022-09-19 17:01:54.533
115.0, 23007.254064947854, -53390.42733793585, 17293.008243204145, 115044.09343529862, 187500.0, 187500.0, 3236.264376194999, 21479.95936631672, 0.642, -0.66, 0.438, 192.0, 20.0, 16.0, 235.0, 96.0, 13.0, 176.0, 0.0, 0.0, 0.0, 1.6635889145364392E9, 0.0, 2022-09-19 17:01:54.536
116.0, 22997.64281483207, -53386.89576231191, 17300.3843188744, 115041.18770851943, 187500.0, 187500.0, 3217.5112625969964, 21496.030270580086, 0.642, -0.66, 0.438, 192.0, 0.0, 0.0, 0.0, 0.0, 0.0, 0.0, 0.0, 0.0, 0.0, 1.6635889145404704E9, 0.0, 2022-09-19 17:01:54.540
117.0, 22981.41544835752, -53426.32423953107, 17299.08791769599, 114996.5959783311, 187500.0, 187500.0, 3193.0584541628905, 21479.53468317207, 0.642, -0.66, 0.438, 192.0, 0.0, 0.0, 0.0, 0.0, 0.0, 0.0, 0.0, 0.0, 0.0, 1.6635889145464904E9, 0.0, 2022-09-19 17:01:54.546
118.0, 22969.21139588492, -53461.75175449273, 17283.620510532917, 114955.15584411095, 187500.0, 187500.0, 3195.6959600086166, 21445.470624622183, 0.642, -0.66, 0.438, 192.0, 0.0, 0.0, 0.0, 0.0, 0.0, 0.0, 0.0, 0.0, 0.0, 1.6635889145494852E9, 0.0, 2022-09-19 17:01:54.549
119.0, 22967.333849350674, -53452.34167007705, 17287.956748957247, 114957.34631506758, 187500.0, 187500.0, 3216.4830823520524, 21454.076046237475, 0.642, -0.66, 0.438, 192.0, 0.0, 0.0, 0.0, 0.0, 0.0, 0.0, 0.0, 0.0, 0.0, 1.6635889145535245E9, 0.0, 2022-09-19 17:01:54.553
120.0, 22975.224015143398, -53430.92869888886, 17294.483458338196, 114970.24327161828, 187500.0, 187500.0, 3228.5530243579183, 21476.87482558189, 0.642, -0.66, 0.438, 192.0, 0.0, 0.0, 0.0, 0.0, 0.0, 0.0, 0.0, 0.0, 0.0, 1.663588914557546E9, 0.0, 2022-09-19 17:01:54.557
121.0, 22970.59720404115, -53471.34065286406, 17291.980062959203, 114924.60100944055, 187500.0, 187500.0, 3197.9534861986026, 21466.436560921262, 0.642, -0.66, 0.438, 192.0, 0.0, 0.0, 0.0, 0.0, 0.0, 0.0, 0.0, 0.0, 0.0, 1.663588914561546E9, 0.0, 2022-09-19 17:01:54.561
122.0, 22973.83820698717, -53523.5319761672, 17294.729327527206, 114869.6157180805, 187500.0, 187500.0, 3188.1187186382676, 21467.554148144027, 0.642, -0.66, 0.438, 192.0, 0.0, 0.0, 0.0, 0.0, 0.0, 0.0, 0.0, 0.0, 0.0, 1.663588914565462E9, 0.0, 2022-09-19 17:01:54.565
123.0, 22942.679875216472, -53566.44732552139, 17278.390202330374, 114825.89570592591, 187500.0, 187500.0, 3186.040006403924, 21462.48030215267, 0.642, -0.66, 0.438, 192.0, 0.0, 0.0, 0.0, 0.0, 0.0, 0.0, 0.0, 0.0, 0.0, 1.6635889145685418E9, 0.0, 2022-09-19 17:01:54.568
124.0, 22955.040389900256, -53586.765061231265, 17291.667138536828, 114803.94629287081, 187500.0, 187500.0, 3210.7386840270383, 21482.19454076225, 0.642, -0.66, 0.438, 192.0, 0.0, 0.0, 0.0, 0.0, 0.0, 0.0, 0.0, 0.0, 0.0, 1.6635889145725486E9, 0.0, 2022-09-19 17:01:54.572
125.0, 22967.669125517503, -53605.27230564026, 17291.220103647724, 114780.85694084848, 187500.0, 187500.0, 3223.2780126664657, 21473.902043569335, 0.644, -0.658, 0.438, 192.0, 20.0, 32.0, 235.0, 112.0, 13.0, 176.0, 0.0, 0.0, 0.0, 1.6635889145765421E9, 0.0, 2022-09-19 17:01:54.576
126.0, 22966.663297017014, -53649.551111406225, 17294.885789738393, 114730.58786756848, 187500.0, 187500.0, 3206.0671694358794, 21469.58815688946, 0.644, -0.658, 0.438, 192.0, 0.0, 0.0, 0.0, 0.0, 0.0, 0.0, 0.0, 0.0, 0.0, 1.6635889145815496E9, 0.0, 2022-09-19 17:01:54.581
127.0, 22948.49132877485, -53724.67532452051, 17293.18705715979, 114657.05062831052, 187500.0, 187500.0, 3192.7678814849714, 21463.48613065316, 0.644, -0.658, 0.438, 192.0, 0.0, 0.0, 0.0, 0.0, 0.0, 0.0, 0.0, 0.0, 0.0, 1.6635889145845108E9, 0.0, 2022-09-19 17:01:54.584
128.0, 22946.05498862922, -53790.43415670803, 17289.789592002584, 114592.23056939013, 187500.0, 187500.0, 3197.439396076131, 21445.448272877726, 0.644, -0.658, 0.438, 192.0, 0.0, 0.0, 0.0, 0.0, 0.0, 0.0, 0.0, 0.0, 0.0, 1.6635889145885475E9, 0.0, 2022-09-19 17:01:54.588
129.0, 22974.329945365185, -53811.51185172938, 17307.782746289104, 114568.22479584513, 187500.0, 187500.0, 3229.1565214582115, 21453.450197392725, 0.644, -0.658, 0.438, 192.0, 0.0, 0.0, 0.0, 0.0, 0.0, 0.0, 0.0, 0.0, 0.0, 1.6635889145925746E9, 0.0, 2022-09-19 17:01:54.592
130.0, 22967.758532495325, -53843.38543932265, 17302.99947297567, 114532.57376343892, 187500.0, 187500.0, 3231.1458267147336, 21455.73007532717, 0.644, -0.658, 0.438, 192.0, 0.0, 0.0, 0.0, 0.0, 0.0, 0.0, 0.0, 0.0, 0.0, 1.6635889145965073E9, 0.0, 2022-09-19 17:01:54.596
131.0, 22952.2687735878, -53928.6796961641, 17287.17443790131, 114448.79942522042, 187500.0, 187500.0, 3195.9865326865356, 21446.789377545047, 0.644, -0.658, 0.438, 192.0, 0.0, 0.0, 0.0, 0.0, 0.0, 0.0, 0.0, 0.0, 0.0, 1.6635889146005716E9, 0.0, 2022-09-19 17:01:54.600
132.0, 22952.358180565618, -54007.000208735495, 17292.225932148212, 114375.73157259604, 187500.0, 187500.0, 3189.0798436498458, 21456.981773016665, 0.644, -0.658, 0.438, 192.0, 0.0, 0.0, 0.0, 0.0, 0.0, 0.0, 0.0, 0.0, 0.0, 1.6635889146045823E9, 0.0, 2022-09-19 17:01:54.604
133.0, 22964.718695249405, -54061.31494776189, 17305.011129976647, 114324.54607779338, 187500.0, 187500.0, 3208.458806092597, 21459.44046490675, 0.644, -0.658, 0.438, 192.0, 0.0, 0.0, 0.0, 0.0, 0.0, 0.0, 0.0, 0.0, 0.0, 1.6635889146095636E9, 0.0, 2022-09-19 17:01:54.609
134.0, 23006.56116086974, -54101.63749475926, 17309.056795723056, 114283.93295811808, 187500.0, 187500.0, 3227.9495272576246, 21451.460892136205, 0.644, -0.658, 0.438, 192.0, 0.0, 0.0, 0.0, 0.0, 0.0, 0.0, 0.0, 0.0, 0.0, 1.6635889146125958E9, 0.0, 2022-09-19 17:01:54.612
135.0, 23003.767192812826, -54145.04458249147, 17295.645749049872, 114242.35871343121, 187500.0, 187500.0, 3226.5413673569406, 21449.382179901862, 0.644, -0.658, 0.438, 192.0, 0.0, 0.0, 0.0, 0.0, 0.0, 0.0, 0.0, 0.0, 0.0, 1.663588914616657E9, 0.0, 2022-09-19 17:01:54.616
136.0, 22960.40480856953, -54245.247452884614, 17275.50682729564, 114149.37545649713, 187500.0, 187500.0, 3182.195506357611, 21433.579496571958, 0.644, -0.668, 0.434, 192.0, 20.0, 32.0, 235.0, 32.0, 13.0, 144.0, 0.0, 0.0, 0.0, 1.6635889146205804E9, 0.0, 2022-09-19 17:01:54.620
137.0, 22944.803290939726, -54352.44641929227, 17275.618586017918, 114051.92185067199, 187500.0, 187500.0, 3165.655215460684, 21431.076101192964, 0.644, -0.668, 0.434, 192.0, 0.0, 0.0, 0.0, 0.0, 0.0, 0.0, 0.0, 0.0, 0.0, 1.663588914624602E9, 0.0, 2022-09-19 17:01:54.624
138.0, 22959.466035302405, -54404.90596352887, 17301.345443885977, 114007.97832107286, 187500.0, 187500.0, 3200.076901921857, 21461.7650463301, 0.644, -0.668, 0.434, 192.0, 0.0, 0.0, 0.0, 0.0, 0.0, 0.0, 0.0, 0.0, 0.0, 1.6635889146286852E9, 0.0, 2022-09-19 17:01:54.628
139.0, 22991.294919406762, -54433.8961760874, 17314.66708358134, 113987.28060570724, 187500.0, 187500.0, 3232.4198761486864, 21479.78055236108, 0.644, -0.668, 0.434, 192.0, 0.0, 0.0, 0.0, 0.0, 0.0, 0.0, 0.0, 0.0, 0.0, 1.6635889146326835E9, 0.0, 2022-09-19 17:01:54.632
140.0, 22996.12289620911, -54489.28379884765, 17307.76039454465, 113943.8958697195, 187500.0, 187500.0, 3224.9767452450687, 21454.76895031559, 0.644, -0.668, 0.434, 192.0, 0.0, 0.0, 0.0, 0.0, 0.0, 0.0, 0.0, 0.0, 0.0, 1.6635889146386337E9, 0.0, 2022-09-19 17:01:54.638
141.0, 22966.126855150087, -54593.42057626493, 17291.980062959203, 113851.69492384135, 187500.0, 187500.0, 3181.547305768407, 21422.13540341084, 0.644, -0.668, 0.434, 192.0, 0.0, 0.0, 0.0, 0.0, 0.0, 0.0, 0.0, 0.0, 0.0, 1.6635889146416264E9, 0.0, 2022-09-19 17:01:54.641
142.0, 22957.186157367963, -54684.03454828675, 17298.88675199589, 113772.9050246364, 187500.0, 187500.0, 3177.948674911103, 21427.924505224768, 0.644, -0.668, 0.434, 192.0, 0.0, 0.0, 0.0, 0.0, 0.0, 0.0, 0.0, 0.0, 0.0, 1.663588914644663E9, 0.0, 2022-09-19 17:01:54.644
143.0, 22969.92665170749, -54737.65638323503, 17308.296836411577, 113730.72728284923, 187500.0, 187500.0, 3200.076901921857, 21435.27822915056, 0.644, -0.668, 0.434, 192.0, 0.0, 0.0, 0.0, 0.0, 0.0, 0.0, 0.0, 0.0, 0.0, 1.6635889146496992E9, 0.0, 2022-09-19 17:01:54.649
144.0, 22949.005418897323, -54785.75733730285, 17305.011129976647, 113698.04903245557, 187500.0, 187500.0, 3213.6444108062283, 21441.380255386863, 0.644, -0.668, 0.434, 192.0, 0.0, 0.0, 0.0, 0.0, 0.0, 0.0, 0.0, 0.0, 0.0, 1.663588914653642E9, 0.0, 2022-09-19 17:01:54.653
145.0, 22950.25711658682, -54836.60755593867, 17303.960597987247, 113660.27458432611, 187500.0, 187500.0, 3211.9680299720803, 21455.640668349348, 0.644, -0.668, 0.434, 192.0, 0.0, 0.0, 0.0, 0.0, 0.0, 0.0, 0.0, 0.0, 0.0, 1.6635889146577344E9, 0.0, 2022-09-19 17:01:54.657
146.0, 22962.88585220407, -54923.0641034918, 17304.877019509917, 113587.67611833526, 187500.0, 187500.0, 3185.302398836899, 21446.588211844948, 0.642, -0.67, 0.436, 192.0, 20.0, 16.0, 235.0, 16.0, 13.0, 160.0, 0.0, 0.0, 0.0, 1.6635889146606848E9, 0.0, 2022-09-19 17:01:54.660
147.0, 22974.620518043106, -55009.565354533835, 17303.62532182042, 113520.73264369162, 187500.0, 187500.0, 3182.754299968994, 21439.77092978608, 0.642, -0.67, 0.436, 192.0, 0.0, 0.0, 0.0, 0.0, 0.0, 0.0, 0.0, 0.0, 0.0, 1.6635889146646848E9, 0.0, 2022-09-19 17:01:54.664
148.0, 22983.091829191664, -55070.78678259692, 17292.13652517039, 113477.2808524705, 187500.0, 187500.0, 3191.337369839832, 21431.76900527108, 0.642, -0.67, 0.436, 192.0, 0.0, 0.0, 0.0, 0.0, 0.0, 0.0, 0.0, 0.0, 0.0, 1.6635889146687348E9, 0.0, 2022-09-19 17:01:54.668
149.0, 22991.0266984733, -55121.23466983255, 17290.437792591787, 113445.6754858107, 187500.0, 187500.0, 3204.5025473240075, 21434.47356635017, 0.642, -0.67, 0.436, 192.0, 0.0, 0.0, 0.0, 0.0, 0.0, 0.0, 0.0, 0.0, 0.0, 1.6635889146717944E9, 0.0, 2022-09-19 17:01:54.671
150.0, 22986.73516353788, -55156.505722583024, 17309.883810267904, 113434.32079962741, 187500.0, 187500.0, 3214.8737567512703, 21474.662002880814, 0.642, -0.67, 0.436, 192.0, 0.0, 0.0, 0.0, 0.0, 0.0, 0.0, 0.0, 0.0, 0.0, 1.6635889146769197E9, 0.0, 2022-09-19 17:01:54.676
151.0, 22971.98301219738, -55234.200386309676, 17318.265714438643, 113381.03424084595, 187500.0, 187500.0, 3188.096366893812, 21489.9729478327, 0.642, -0.67, 0.436, 192.0, 0.0, 0.0, 0.0, 0.0, 0.0, 0.0, 0.0, 0.0, 0.0, 1.663588914680811E9, 0.0, 2022-09-19 17:01:54.680
152.0, 22934.745005934838, -55342.561643429, 17298.260903151146, 113298.80217299488, 187500.0, 187500.0, 3160.6037212137844, 21447.25876417861, 0.642, -0.67, 0.436, 192.0, 0.0, 0.0, 0.0, 0.0, 0.0, 0.0, 0.0, 0.0, 0.0, 1.6635889146847897E9, 0.0, 2022-09-19 17:01:54.684
153.0, 22952.24642184334, -55397.3234173445, 17298.931455484802, 113267.55443424635, 187500.0, 187500.0, 3180.8320499458373, 21443.168394943285, 0.642, -0.67, 0.436, 192.0, 0.0, 0.0, 0.0, 0.0, 0.0, 0.0, 0.0, 0.0, 0.0, 1.6635889146887925E9, 0.0, 2022-09-19 17:01:54.688
154.0, 22990.557311839737, -55400.6761790128, 17322.490194140697, 113285.03349841041, 187500.0, 187500.0, 3225.2226144340775, 21480.048773294544, 0.642, -0.67, 0.436, 192.0, 0.0, 0.0, 0.0, 0.0, 0.0, 0.0, 0.0, 0.0, 0.0, 1.6635889146927853E9, 0.0, 2022-09-19 17:01:54.692
155.0, 23007.49993413686, -55425.799539780564, 17327.742854087694, 113279.0432308964, 187500.0, 187500.0, 3234.208015705111, 21483.602700662937, 0.642, -0.67, 0.436, 192.0, 0.0, 0.0, 0.0, 0.0, 0.0, 0.0, 0.0, 0.0, 0.0, 1.6635889146967628E9, 0.0, 2022-09-19 17:01:54.696
156.0, 22979.560253567728, -55514.42420654586, 17302.351272386466, 113214.6255033762, 187500.0, 187500.0, 3189.5045267944965, 21452.064389236497, 0.642, -0.666, 0.444, 192.0, 20.0, 16.0, 235.0, 48.0, 13.0, 224.0, 0.0, 0.0, 0.0, 1.6635889146997817E9, 0.0, 2022-09-19 17:01:54.699
157.0, 22944.669180472993, -55593.9740650623, 17290.214275147235, 113162.2106626285, 187500.0, 187500.0, 3171.2878550634214, 21432.461909349193, 0.642, -0.666, 0.444, 192.0, 0.0, 0.0, 0.0, 0.0, 0.0, 0.0, 0.0, 0.0, 0.0, 1.663588914703833E9, 0.0, 2022-09-19 17:01:54.703
158.0, 22954.772168966792, -55612.324847260104, 17306.642807321885, 113168.91618596509, 187500.0, 187500.0, 3200.6133437887843, 21459.261650951106, 0.642, -0.666, 0.444, 192.0, 0.0, 0.0, 0.0, 0.0, 0.0, 0.0, 0.0, 0.0, 0.0, 1.6635889147087228E9, 0.0, 2022-09-19 17:01:54.708
159.0, 22993.284224663286, -55618.78450140769, 17310.487307368196, 113181.38845937116, 187500.0, 187500.0, 3227.457788879608, 21467.084761510465, 0.642, -0.666, 0.444, 192.0, 0.0, 0.0, 0.0, 0.0, 0.0, 0.0, 0.0, 0.0, 0.0, 1.6635889147128465E9, 0.0, 2022-09-19 17:01:54.712
160.0, 22986.668108304515, -55662.236292628804, 17293.120001926425, 113157.36033408169, 187500.0, 187500.0, 3211.5433468274296, 21424.9070197233, 0.642, -0.666, 0.444, 192.0, 0.0, 0.0, 0.0, 0.0, 0.0, 0.0, 0.0, 0.0, 0.0, 1.6635889147167933E9, 0.0, 2022-09-19 17:01:54.716
161.0, 22951.59822125414, -55725.62583990405, 17291.75654551465, 113119.56353420777, 187500.0, 187500.0, 3181.793174957416, 21431.210211659698, 0.642, -0.666, 0.444, 192.0, 0.0, 0.0, 0.0, 0.0, 0.0, 0.0, 0.0, 0.0, 0.0, 1.663588914720763E9, 0.0, 2022-09-19 17:01:54.720
162.0, 22950.458282286916, -55765.568407245686, 17298.640882806885, 113107.448888713, 187500.0, 187500.0, 3186.1964686151114, 21468.939956300255, 0.642, -0.666, 0.444, 192.0, 0.0, 0.0, 0.0, 0.0, 0.0, 0.0, 0.0, 0.0, 0.0, 1.6635889147238474E9, 0.0, 2022-09-19 17:01:54.723
163.0, 22980.320212879207, -55794.4692128264, 17295.84691474997, 113103.42557471104, 187500.0, 187500.0, 3201.2391926335326, 21468.02353477759, 0.642, -0.666, 0.444, 192.0, 0.0, 0.0, 0.0, 0.0, 0.0, 0.0, 0.0, 0.0, 0.0, 1.663588914727801E9, 0.0, 2022-09-19 17:01:54.727
164.0, 22976.341602366163, -55822.051265484246, 17281.56415004303, 113097.94939731949, 187500.0, 187500.0, 3209.6658002931836, 21436.842851262434, 0.642, -0.666, 0.444, 192.0, 0.0, 0.0, 0.0, 0.0, 0.0, 0.0, 0.0, 0.0, 0.0, 1.6635889147317796E9, 0.0, 2022-09-19 17:01:54.731
165.0, 22984.052954203245, -55835.261146457335, 17284.201655888755, 113108.0970893022, 187500.0, 187500.0, 3214.7619980289937, 21439.48035710816, 0.642, -0.666, 0.444, 192.0, 0.0, 0.0, 0.0, 0.0, 0.0, 0.0, 0.0, 0.0, 0.0, 1.663588914736801E9, 0.0, 2022-09-19 17:01:54.736
166.0, 22992.479561862896, -55871.11334456365, 17298.193847917777, 113100.2963304873, 187500.0, 187500.0, 3203.2061461455996, 21467.15181674383, 0.644, -0.662, 0.45, 192.0, 20.0, 32.0, 235.0, 80.0, 14.0, 16.0, 0.0, 0.0, 0.0, 1.6635889147408931E9, 0.0, 2022-09-19 17:01:54.740
167.0, 22981.84013150217, -55923.52818531134, 17295.198714160768, 113077.87753079862, 187500.0, 187500.0, 3194.243096619022, 21463.329668441973, 0.644, -0.662, 0.45, 192.0, 0.0, 0.0, 0.0, 0.0, 0.0, 0.0, 0.0, 0.0, 0.0, 1.6635889147448668E9, 0.0, 2022-09-19 17:01:54.744
168.0, 22949.430102041973, -55959.11216248419, 17282.592330287975, 113068.26628068284, 187500.0, 187500.0, 3193.304323351899, 21439.882688508354, 0.644, -0.662, 0.45, 192.0, 0.0, 0.0, 0.0, 0.0, 0.0, 0.0, 0.0, 0.0, 0.0, 1.6635889147478433E9, 0.0, 2022-09-19 17:01:54.747
169.0, 22947.798424696735, -55972.500857412924, 17294.394051360377, 113079.46450465496, 187500.0, 187500.0, 3208.548213070418, 21447.14700545633, 0.644, -0.662, 0.45, 192.0, 0.0, 0.0, 0.0, 0.0, 0.0, 0.0, 0.0, 0.0, 0.0, 1.6635889147518911E9, 0.0, 2022-09-19 17:01:54.751
170.0, 22960.181291124976, -55980.99452030594, 17311.09080446849, 113098.35172871969, 187500.0, 187500.0, 3224.4179516336862, 21466.190691732252, 0.644, -0.662, 0.45, 192.0, 0.0, 0.0, 0.0, 0.0, 0.0, 0.0, 0.0, 0.0, 0.0, 1.6635889147558372E9, 0.0, 2022-09-19 17:01:54.755
171.0, 22977.615651800115, -56017.092587601255, 17312.923647513824, 113091.55679840528, 187500.0, 187500.0, 3205.7765967579603, 21471.82333133499, 0.644, -0.662, 0.45, 192.0, 0.0, 0.0, 0.0, 0.0, 0.0, 0.0, 0.0, 0.0, 0.0, 1.663588914759909E9, 0.0, 2022-09-19 17:01:54.759
172.0, 22969.63607902957, -56065.21589341354, 17313.773013803126, 113071.61904235114, 187500.0, 187500.0, 3200.9039164667033, 21462.525005641583, 0.644, -0.662, 0.45, 192.0, 0.0, 0.0, 0.0, 0.0, 0.0, 0.0, 0.0, 0.0, 0.0, 1.6635889147648647E9, 0.0, 2022-09-19 17:01:54.764
173.0, 22953.654581744027, -56109.53940266841, 17305.07818521001, 113052.35183863067, 187500.0, 187500.0, 3206.87183223627, 21433.71360703869, 0.644, -0.662, 0.45, 192.0, 0.0, 0.0, 0.0, 0.0, 0.0, 0.0, 0.0, 0.0, 0.0, 1.663588914768859E9, 0.0, 2022-09-19 17:01:54.768
174.0, 22964.294012104754, -56120.290591751414, 17298.2832548956, 113064.37707714763, 187500.0, 187500.0, 3220.0817132093566, 21427.09749067992, 0.644, -0.662, 0.45, 192.0, 0.0, 0.0, 0.0, 0.0, 0.0, 0.0, 0.0, 0.0, 0.0, 1.66358891477292E9, 0.0, 2022-09-19 17:01:54.772
175.0, 22971.49127381936, -56132.76286515747, 17303.22299042022, 113075.441190653, 187500.0, 187500.0, 3212.7950445169267, 21435.211173917196, 0.644, -0.662, 0.45, 192.0, 0.0, 0.0, 0.0, 0.0, 0.0, 0.0, 0.0, 0.0, 0.0, 1.6635889147758603E9, 0.0, 2022-09-19 17:01:54.775
176.0, 22969.16669239601, -56188.12813617327, 17294.66227229384, 113046.74155077238, 187500.0, 187500.0, 3185.5482680259074, 21428.595057558425, 0.65, -0.656, 0.448, 192.0, 20.0, 80.0, 235.0, 128.0, 14.0, 0.0, 0.0, 0.0, 0.0, 1.6635889147799194E9, 0.0, 2022-09-19 17:01:54.779
177.0, 22992.837189774178, -56222.99685752355, 17287.46501057923, 113038.42670183501, 187500.0, 187500.0, 3190.0633204058795, 21440.977923986666, 0.65, -0.656, 0.448, 192.0, 0.0, 0.0, 0.0, 0.0, 0.0, 0.0, 0.0, 0.0, 0.0, 1.663588914783956E9, 0.0, 2022-09-19 17:01:54.783
178.0, 22997.21813168742, -56231.06583727191, 17290.594254802974, 113059.2361759229, 187500.0, 187500.0, 3207.900012481214, 21444.57655484397, 0.65, -0.656, 0.448, 192.0, 0.0, 0.0, 0.0, 0.0, 0.0, 0.0, 0.0, 0.0, 0.0, 1.663588914787924E9, 0.0, 2022-09-19 17:01:54.787
179.0, 22979.292032634265, -56216.02311325349, 17299.110269440447, 113103.02324331085, 187500.0, 187500.0, 3231.25758543701, 21434.071234949977, 0.65, -0.656, 0.448, 192.0, 0.0, 0.0, 0.0, 0.0, 0.0, 0.0, 0.0, 0.0, 0.0, 1.663588914791921E9, 0.0, 2022-09-19 17:01:54.791
180.0, 22974.21818664291, -56189.62570305177, 17309.36972014543, 113155.99687766992, 187500.0, 187500.0, 3232.30811742641, 21449.829214790967, 0.65, -0.656, 0.448, 192.0, 0.0, 0.0, 0.0, 0.0, 0.0, 0.0, 0.0, 0.0, 0.0, 1.6635889147969232E9, 0.0, 2022-09-19 17:01:54.796
181.0, 22980.87900649059, -56191.97263621958, 17317.37164466043, 113179.48856109245, 187500.0, 187500.0, 3215.052570706913, 21455.48420613816, 0.65, -0.656, 0.448, 192.0, 0.0, 0.0, 0.0, 0.0, 0.0, 0.0, 0.0, 0.0, 0.0, 1.6635889148009353E9, 0.0, 2022-09-19 17:01:54.800
182.0, 22984.276471647798, -56199.415767123195, 17312.208391691256, 113197.68288107908, 187500.0, 187500.0, 3212.236250905544, 21446.096473466932, 0.65, -0.656, 0.448, 192.0, 0.0, 0.0, 0.0, 0.0, 0.0, 0.0, 0.0, 0.0, 0.0, 1.6635889148038845E9, 0.0, 2022-09-19 17:01:54.803
