%OpenBCI Raw EEG Data
%Number of channels = 8
%Sample Rate = 250 Hz
%Board = OpenBCI_GUI$BoardCytonSerial
Sample Index, EXG Channel 0, EXG Channel 1, EXG Channel 2, EXG Channel 3, EXG Channel 4, EXG Channel 5, EXG Channel 6, EXG Channel 7, Accel Channel 0, Accel Channel 1, Accel Channel 2, Other, Other, Other, Other, Other, Other, Other, Analog Channel 0, Analog Channel 1, Analog Channel 2, Timestamp, Other, Timestamp (Formatted)
44.0, -2254.8663323958317, 19104.88535224025, -23255.02315223493, -41278.329942027325, -187500.02235174447, -187500.02235174447, 6290.607904268254, -21015.221895601975, 0.0, 0.0, 0.0, 192.0, 0.0, 0.0, 0.0, 0.0, 0.0, 0.0, 0.0, 0.0, 0.0, 1.663590620879622E9, 0.0, 2022-09-19 17:30:20.879
45.0, -2384.4840984921575, 19038.746540396995, -23717.5478002486, -41229.82665655931, -187500.02235174447, -187500.02235174447, 6318.927564493128, -21478.998241305144, 0.0, 0.0, 0.0, 192.0, 0.0, 0.0, 0.0, 0.0, 0.0, 0.0, 0.0, 0.0, 0.0, 1.6635906208796456E9, 0.0, 2022-09-19 17:30:20.879
46.0, -2701.0295034682163, 18888.54281765733, -24261.097521912758, -41173.90259193213, -187500.02235174447, -187500.02235174447, 6181.687853537543, -22017.16119255557, 0.0, 0.0, 0.0, 192.0, 0.0, 0.0, 0.0, 0.0, 0.0, 0.0, 0.0, 0.0, 0.0, 1.6635906208796601E9, 0.0, 2022-09-19 17:30:20.879
0.0, 0.0, 0.0, 0.0, 0.0, 0.0, 0.0, 0.0, 0.0, 0.62, -0.78, 0.166, 192.0, 19.0, 96.0, 231.0, 160.0, 5.0, 48.0, 0.0, 0.0, 0.0, 1.6635906209599936E9, 0.0, 2022-09-19 17:30:20.959
1.0, -2109.244717269506, -6861.940844290358, -26011.32851974112, -41064.60256154568, -187500.02235174447, -187500.02235174447, 4357.897264706763, -22222.52902061093, 0.62, -0.78, 0.166, 192.0, 0.0, 0.0, 0.0, 0.0, 0.0, 0.0, 0.0, 0.0, 0.0, 1.6635906209770195E9, 0.0, 2022-09-19 17:30:20.977
2.0, -2273.597094249379, -6927.185586355399, -25346.364122195737, -41242.477743921016, -187500.02235174447, -187500.02235174447, 4215.673114737644, -21747.330933491103, 0.62, -0.78, 0.166, 192.0, 0.0, 0.0, 0.0, 0.0, 0.0, 0.0, 0.0, 0.0, 0.0, 1.6635906209799905E9, 0.0, 2022-09-19 17:30:20.979
3.0, -1813.821710803713, -6850.78732380716, -24167.19784345601, -41590.9190882348, -187500.02235174447, -187500.02235174447, 4480.049548155016, -20621.406510043922, 0.62, -0.78, 0.166, 192.0, 0.0, 0.0, 0.0, 0.0, 0.0, 0.0, 0.0, 0.0, 0.0, 1.6635906209840493E9, 0.0, 2022-09-19 17:30:20.984
4.0, -1549.668794830894, -6718.844976287482, -24263.80208299185, -41569.52846879107, -187500.02235174447, -187500.02235174447, 4681.885800586439, -20609.113050593503, 0.62, -0.78, 0.166, 192.0, 0.0, 0.0, 0.0, 0.0, 0.0, 0.0, 0.0, 0.0, 0.0, 1.6635906209880292E9, 0.0, 2022-09-19 17:30:20.988
5.0, -1653.626758292527, -6644.480722484675, -24984.8470073756, -41342.97118699207, -187500.02235174447, -187500.02235174447, 4643.753724545685, -21233.9113633527, 0.62, -0.78, 0.166, 192.0, 0.0, 0.0, 0.0, 0.0, 0.0, 0.0, 0.0, 0.0, 0.0, 1.6635906209910417E9, 0.0, 2022-09-19 17:30:20.991
6.0, -2124.779179665945, -6682.009301425136, -26026.415947248453, -41040.0379943893, -187500.02235174447, -187500.02235174447, 4356.265587361525, -22213.521267595443, 0.62, -0.78, 0.166, 192.0, 0.0, 0.0, 0.0, 0.0, 0.0, 0.0, 0.0, 0.0, 0.0, 1.6635906209950187E9, 0.0, 2022-09-19 17:30:20.995
7.0, -2256.2521405520606, -6750.271528991643, -25321.39722363916, -41230.92189203762, -187500.02235174447, -187500.02235174447, 4224.613812519767, -21675.268909367194, 0.62, -0.78, 0.166, 192.0, 0.0, 0.0, 0.0, 0.0, 0.0, 0.0, 0.0, 0.0, 0.0, 1.663590620999122E9, 0.0, 2022-09-19 17:30:20.999
8.0, -1781.6351987880707, -6692.0228829411135, -24153.83150027174, -41577.686855517255, -187500.02235174447, -187500.02235174447, 4503.004789710616, -20610.856486661018, 0.62, -0.776, 0.198, 192.0, 19.0, 96.0, 231.0, 192.0, 6.0, 48.0, 0.0, 0.0, 0.0, 1.6635906210030756E9, 0.0, 2022-09-19 17:30:21.003
9.0, -1532.0779719445673, -6591.954123014703, -24280.789408777884, -41554.55280000601, -187500.02235174447, -187500.02235174447, 4701.756501407207, -20654.04005694867, 0.62, -0.776, 0.198, 192.0, 0.0, 0.0, 0.0, 0.0, 0.0, 0.0, 0.0, 0.0, 0.0, 1.6635906210080576E9, 0.0, 2022-09-19 17:30:21.008
10.0, -1664.6238165645382, -6533.996049642093, -25032.99266493233, -41327.39202110672, -187500.02235174447, -187500.02235174447, 4657.455343896788, -21307.94034098868, 0.62, -0.776, 0.198, 192.0, 0.0, 0.0, 0.0, 0.0, 0.0, 0.0, 0.0, 0.0, 0.0, 1.6635906210121384E9, 0.0, 2022-09-19 17:30:21.012
11.0, -2159.8714184607766, -6576.374957129355, -26055.29440108471, -41033.10895360815, -187500.02235174447, -187500.02235174447, 4361.250026375059, -22268.64066942223, 0.62, -0.776, 0.198, 192.0, 0.0, 0.0, 0.0, 0.0, 0.0, 0.0, 0.0, 0.0, 0.0, 1.6635906210161028E9, 0.0, 2022-09-19 17:30:21.016
12.0, -2274.826440194421, -6648.928719631282, -25262.209804321505, -41240.220217731025, -187500.02235174447, -187500.02235174447, 4257.2026559356045, -21667.311688341106, 0.62, -0.776, 0.198, 192.0, 0.0, 0.0, 0.0, 0.0, 0.0, 0.0, 0.0, 0.0, 0.0, 1.6635906210190687E9, 0.0, 2022-09-19 17:30:21.019
13.0, -1791.5370215817718, -6585.852096778405, -24127.67995925903, -41579.31853286249, -187500.02235174447, -187500.02235174447, 4534.677211603786, -20629.430786303375, 0.62, -0.776, 0.198, 192.0, 0.0, 0.0, 0.0, 0.0, 0.0, 0.0, 0.0, 0.0, 0.0, 1.6635906210230863E9, 0.0, 2022-09-19 17:30:21.023
14.0, -1536.3695068799861, -6477.222618725613, -24290.28890017139, -41541.87936089985, -187500.02235174447, -187500.02235174447, 4714.340533535545, -20664.433618120387, 0.62, -0.776, 0.198, 192.0, 0.0, 0.0, 0.0, 0.0, 0.0, 0.0, 0.0, 0.0, 0.0, 1.6635906210272207E9, 0.0, 2022-09-19 17:30:21.027
15.0, -1662.053365952178, -6422.259679110012, -25054.271525653785, -41299.854671937785, -187500.02235174447, -187500.02235174447, 4658.751745075196, -21319.675006827714, 0.62, -0.776, 0.198, 192.0, 0.0, 0.0, 0.0, 0.0, 0.0, 0.0, 0.0, 0.0, 0.0, 1.6635906210311005E9, 0.0, 2022-09-19 17:30:21.031
16.0, -2156.2727876034724, -6472.573455878909, -26053.997999906303, -41008.007944584846, -187500.02235174447, -187500.02235174447, 4350.163561125227, -22275.50265497001, 0.62, -0.776, 0.198, 192.0, 0.0, 0.0, 0.0, 0.0, 0.0, 0.0, 0.0, 0.0, 0.0, 1.6635906210360808E9, 0.0, 2022-09-19 17:30:21.036
17.0, -2227.5301489269914, -6531.872633918838, -25226.22349574846, -41237.80622932986, -187500.02235174447, -187500.02235174447, 4244.618623807267, -21648.603278232014, 0.62, -0.776, 0.198, 192.0, 0.0, 0.0, 0.0, 0.0, 0.0, 0.0, 0.0, 0.0, 0.0, 1.6635906210401468E9, 0.0, 2022-09-19 17:30:21.040
18.0, -1756.8024106982245, -6460.61527259532, -24169.12009347917, -41570.93662869175, -187500.02235174447, -187500.02235174447, 4509.777368280575, -20626.83798394656, 0.618, -0.772, 0.212, 192.0, 19.0, 80.0, 231.0, 224.0, 6.0, 160.0, 0.0, 0.0, 0.0, 1.6635906210441496E9, 0.0, 2022-09-19 17:30:21.044
19.0, -1531.2286056552657, -6341.994564771005, -24319.994368552492, -41515.10197104239, -187500.02235174447, -187500.02235174447, 4699.253106028212, -20671.988507746282, 0.618, -0.772, 0.212, 192.0, 0.0, 0.0, 0.0, 0.0, 0.0, 0.0, 0.0, 0.0, 0.0, 1.6635906210471563E9, 0.0, 2022-09-19 17:30:21.047
20.0, -1672.3798718905298, -6289.356206578756, -25103.557122177735, -41264.20363953157, -187500.02235174447, -187500.02235174447, 4646.190064691314, -21364.154978293776, 0.618, -0.772, 0.212, 192.0, 0.0, 0.0, 0.0, 0.0, 0.0, 0.0, 0.0, 0.0, 0.0, 1.6635906210511713E9, 0.0, 2022-09-19 17:30:21.051
21.0, -2168.432136587159, -6345.772009583951, -26085.40220086601, -40978.704807603935, -187500.02235174447, -187500.02235174447, 4334.9196714067075, -22315.13229788927, 0.618, -0.772, 0.212, 192.0, 0.0, 0.0, 0.0, 0.0, 0.0, 0.0, 0.0, 0.0, 0.0, 1.6635906210552769E9, 0.0, 2022-09-19 17:30:21.055
22.0, -2236.6720124092117, -6401.092577110837, -25189.633690075123, -41220.796551799365, -187500.02235174447, -187500.02235174447, 4248.530179086945, -21628.062025077586, 0.618, -0.772, 0.212, 192.0, 0.0, 0.0, 0.0, 0.0, 0.0, 0.0, 0.0, 0.0, 0.0, 1.6635906210591507E9, 0.0, 2022-09-19 17:30:21.059
23.0, -1777.9248092084897, -6335.803131556885, -24141.11335767667, -41538.12426783136, -187500.02235174447, -187500.02235174447, 4530.251566201636, -20626.88268743547, 0.618, -0.772, 0.212, 192.0, 0.0, 0.0, 0.0, 0.0, 0.0, 0.0, 0.0, 0.0, 0.0, 1.6635906210641336E9, 0.0, 2022-09-19 17:30:21.064
24.0, -1565.0914985050558, -6240.09296179926, -24349.409264255675, -41478.78038630252, -187500.02235174447, -187500.02235174447, 4693.843983870028, -20712.66868265494, 0.618, -0.772, 0.212, 192.0, 0.0, 0.0, 0.0, 0.0, 0.0, 0.0, 0.0, 0.0, 0.0, 1.6635906210682433E9, 0.0, 2022-09-19 17:30:21.068
25.0, -1694.6422093680155, -6189.935647241551, -25161.78341648381, -41221.06477273283, -187500.02235174447, -187500.02235174447, 4621.133759156914, -21415.295769607517, 0.618, -0.772, 0.212, 192.0, 0.0, 0.0, 0.0, 0.0, 0.0, 0.0, 0.0, 0.0, 0.0, 1.663590621072252E9, 0.0, 2022-09-19 17:30:21.072
26.0, -2191.186212442662, -6246.507912457933, -26105.652881342518, -40945.53481883226, -187500.02235174447, -187500.02235174447, 4308.589316438355, -22328.208068395623, 0.618, -0.772, 0.212, 192.0, 0.0, 0.0, 0.0, 0.0, 0.0, 0.0, 0.0, 0.0, 0.0, 1.6635906210751903E9, 0.0, 2022-09-19 17:30:21.075
27.0, -2231.3970007177595, -6301.001465439972, -25147.50065177687, -41208.63720281568, -187500.02235174447, -187500.02235174447, 4240.4164958496685, -21592.589806627013, 0.618, -0.772, 0.212, 192.0, 0.0, 0.0, 0.0, 0.0, 0.0, 0.0, 0.0, 0.0, 0.0, 1.663590621079215E9, 0.0, 2022-09-19 17:30:21.079
28.0, -1749.0910588611437, -6230.8840430836735, -24141.806261754784, -41519.3488024889, -187500.02235174447, -187500.02235174447, 4527.479949889177, -20619.68542572086, 0.624, -0.766, 0.216, 192.0, 19.0, 128.0, 232.0, 16.0, 6.0, 192.0, 0.0, 0.0, 0.0, 1.6635906210832596E9, 0.0, 2022-09-19 17:30:21.083
29.0, -1555.3908414114526, -6130.301193034791, -24382.333383838344, -41454.081708679405, -187500.02235174447, -187500.02235174447, 4686.400852966411, -20742.552964991686, 0.624, -0.766, 0.216, 192.0, 0.0, 0.0, 0.0, 0.0, 0.0, 0.0, 0.0, 0.0, 0.0, 1.6635906210871992E9, 0.0, 2022-09-19 17:30:21.087
30.0, -1730.4273522409621, -6074.578294107711, -25234.538344685836, -41196.477853831995, -187500.02235174447, -187500.02235174447, 4601.91125892535, -21489.81648562151, 0.624, -0.766, 0.216, 192.0, 0.0, 0.0, 0.0, 0.0, 0.0, 0.0, 0.0, 0.0, 0.0, 1.663590621091236E9, 0.0, 2022-09-19 17:30:21.091
31.0, -2226.7254861266, -6127.082541833227, -26123.489573417854, -40933.68839427095, -187500.02235174447, -187500.02235174447, 4300.967371579096, -22363.792045568473, 0.624, -0.766, 0.216, 192.0, 0.0, 0.0, 0.0, 0.0, 0.0, 0.0, 0.0, 0.0, 0.0, 1.6635906210961735E9, 0.0, 2022-09-19 17:30:21.096
32.0, -2254.7769254180107, -6195.568286844288, -25116.81170663973, -41215.09685696326, -187500.02235174447, -187500.02235174447, 4247.636109308733, -21561.900861489878, 0.624, -0.766, 0.216, 192.0, 0.0, 0.0, 0.0, 0.0, 0.0, 0.0, 0.0, 0.0, 0.0, 1.6635906211002138E9, 0.0, 2022-09-19 17:30:21.100
33.0, -1746.431201270962, -6120.108797563172, -24175.132712737646, -41521.74043914562, -187500.02235174447, -187500.02235174447, 4530.855063301929, -20610.70002444983, 0.624, -0.766, 0.216, 192.0, 0.0, 0.0, 0.0, 0.0, 0.0, 0.0, 0.0, 0.0, 0.0, 1.663590621103244E9, 0.0, 2022-09-19 17:30:21.103
34.0, -1528.7922655096372, -6010.406435776525, -24424.64523609224, -41457.59093255889, -187500.02235174447, -187500.02235174447, 4689.597152423519, -20767.810436226184, 0.624, -0.766, 0.216, 192.0, 0.0, 0.0, 0.0, 0.0, 0.0, 0.0, 0.0, 0.0, 0.0, 1.6635906211072505E9, 0.0, 2022-09-19 17:30:21.107
35.0, -1724.8170643826802, -5970.195647501427, -25350.879174575708, -41202.95985972403, -187500.02235174447, -187500.02235174447, 4575.044462090071, -21555.50826257566, 0.624, -0.766, 0.216, 192.0, 0.0, 0.0, 0.0, 0.0, 0.0, 0.0, 0.0, 0.0, 0.0, 1.6635906211112697E9, 0.0, 2022-09-19 17:30:21.111
36.0, -2240.024774077508, -6026.85731969563, -26235.76238581686, -40956.621284082095, -187500.02235174447, -187500.02235174447, 4234.917966713663, -22423.515906753055, 0.624, -0.766, 0.216, 192.0, 0.0, 0.0, 0.0, 0.0, 0.0, 0.0, 0.0, 0.0, 0.0, 1.6635906211152892E9, 0.0, 2022-09-19 17:30:21.115
37.0, -2229.675916394701, -6055.8475322541635, -25122.73491892039, -41252.98306381501, -187500.02235174447, -187500.02235174447, 4210.8898414242085, -21564.873643502433, 0.624, -0.766, 0.216, 192.0, 0.0, 0.0, 0.0, 0.0, 0.0, 0.0, 0.0, 0.0, 0.0, 1.66359062111928E9, 0.0, 2022-09-19 17:30:21.119
38.0, -1742.5867012246492, -5963.065441020184, -24125.981226680426, -41546.34970979091, -187500.02235174447, -187500.02235174447, 4503.004789710616, -20642.372446343, 0.622, -0.774, 0.22, 192.0, 19.0, 112.0, 231.0, 208.0, 6.0, 224.0, 0.0, 0.0, 0.0, 1.6635906211242473E9, 0.0, 2022-09-19 17:30:21.124
39.0, -1558.7436030797487, -5853.3407274890815, -24344.491880475507, -41466.21870591864, -187500.02235174447, -187500.02235174447, 4682.221076753268, -20792.620872571573, 0.622, -0.774, 0.22, 192.0, 0.0, 0.0, 0.0, 0.0, 0.0, 0.0, 0.0, 0.0, 0.0, 1.663590621128316E9, 0.0, 2022-09-19 17:30:21.128
40.0, -1754.4778292748726, -5807.7208170558, -25239.969818588474, -41198.8247869998, -187500.02235174447, -187500.02235174447, 4634.835378508017, -21599.6976613638, 0.622, -0.774, 0.22, 192.0, 0.0, 0.0, 0.0, 0.0, 0.0, 0.0, 0.0, 0.0, 0.0, 1.6635906211312952E9, 0.0, 2022-09-19 17:30:21.131
41.0, -2236.0238118200077, -5857.475800213314, -26066.336162845633, -40953.29087415825, -187500.02235174447, -187500.02235174447, 4334.226767328592, -22396.04561281748, 0.622, -0.774, 0.22, 192.0, 0.0, 0.0, 0.0, 0.0, 0.0, 0.0, 0.0, 0.0, 0.0, 1.663590621135295E9, 0.0, 2022-09-19 17:30:21.135
42.0, -2204.306686437927, -5901.464033301358, -24950.13474823651, -41263.33192149782, -187500.02235174447, -187500.02235174447, 4315.875985130785, -21479.6687936388, 0.622, -0.774, 0.22, 192.0, 0.0, 0.0, 0.0, 0.0, 0.0, 0.0, 0.0, 0.0, 0.0, 1.663590621139352E9, 0.0, 2022-09-19 17:30:21.139
43.0, -1708.5896979081272, -5818.516709627714, -24079.958984846948, -41553.211695338694, -187500.02235174447, -187500.02235174447, 4603.028846148115, -20619.730129209773, 0.622, -0.774, 0.22, 192.0, 0.0, 0.0, 0.0, 0.0, 0.0, 0.0, 0.0, 0.0, 0.0, 1.6635906211433127E9, 0.0, 2022-09-19 17:30:21.143
44.0, -1545.5560738511174, -5728.126255050452, -24392.212854887588, -41476.031121734515, -187500.02235174447, -187500.02235174447, 4735.015897156703, -20801.338052909145, 0.622, -0.774, 0.22, 192.0, 0.0, 0.0, 0.0, 0.0, 0.0, 0.0, 0.0, 0.0, 0.0, 1.6635906211473613E9, 0.0, 2022-09-19 17:30:21.147
45.0, -1741.7373349353475, -5690.575324365535, -25305.39337460916, -41200.88114748969, -187500.02235174447, -187500.02235174447, 4628.3533726159785, -21604.056251532587, 0.622, -0.774, 0.22, 192.0, 0.0, 0.0, 0.0, 0.0, 0.0, 0.0, 0.0, 0.0, 0.0, 1.6635906211523092E9, 0.0, 2022-09-19 17:30:21.152
46.0, -2243.0646113234297, -5741.939633123831, -26084.06109619869, -40965.897258031044, -187500.02235174447, -187500.02235174447, 4311.942078106651, -22409.724880424128, 0.622, -0.774, 0.22, 192.0, 0.0, 0.0, 0.0, 0.0, 0.0, 0.0, 0.0, 0.0, 0.0, 1.6635906211554313E9, 0.0, 2022-09-19 17:30:21.155
47.0, -2184.9500757396313, -5773.835572461555, -24932.990960239287, -41292.21037533407, -187500.02235174447, -187500.02235174447, 4292.496060430534, -21453.67371483728, 0.622, -0.774, 0.22, 192.0, 0.0, 0.0, 0.0, 0.0, 0.0, 0.0, 0.0, 0.0, 0.0, 1.663590621159338E9, 0.0, 2022-09-19 17:30:21.159
48.0, -1713.171805521465, -5691.514097632658, -24107.25046482688, -41569.81904146899, -187500.02235174447, -187500.02235174447, 4560.851104360951, -20594.427954486368, 0.624, -0.776, 0.22, 192.0, 19.0, 128.0, 231.0, 192.0, 6.0, 224.0, 0.0, 0.0, 0.0, 1.6635906211633487E9, 0.0, 2022-09-19 17:30:21.163
49.0, -1548.1712279523883, -5601.391863988861, -24399.812448002394, -41478.02042699104, -187500.02235174447, -187500.02235174447, 4712.59709746803, -20793.40318362751, 0.624, -0.776, 0.22, 192.0, 0.0, 0.0, 0.0, 0.0, 0.0, 0.0, 0.0, 0.0, 0.0, 1.663590621167388E9, 0.0, 2022-09-19 17:30:21.167
50.0, -1764.8713904465903, -5566.701956594224, -25318.267979415417, -41194.28738287537, -187500.02235174447, -187500.02235174447, 4639.01515472116, -21638.030903104653, 0.624, -0.776, 0.22, 192.0, 0.0, 0.0, 0.0, 0.0, 0.0, 0.0, 0.0, 0.0, 0.0, 1.663590621171363E9, 0.0, 2022-09-19 17:30:21.171
51.0, -2268.076213368918, -5634.830073694, -26113.632454113063, -40974.7709005798, -187500.02235174447, -187500.02235174447, 4315.85363338633, -22397.72199365163, 0.624, -0.776, 0.22, 192.0, 0.0, 0.0, 0.0, 0.0, 0.0, 0.0, 0.0, 0.0, 0.0, 1.6635906211754107E9, 0.0, 2022-09-19 17:30:21.175
52.0, -2175.897619235232, -5682.975731250731, -24885.64996548295, -41311.32111684336, -187500.02235174447, -187500.02235174447, 4318.7817119099755, -21393.592225741413, 0.624, -0.776, 0.22, 192.0, 0.0, 0.0, 0.0, 0.0, 0.0, 0.0, 0.0, 0.0, 0.0, 1.6635906211803863E9, 0.0, 2022-09-19 17:30:21.180
53.0, -1697.1009012580994, -5617.1945473187625, -24048.219507720412, -41567.51681179009, -187500.02235174447, -187500.02235174447, 4625.402942347878, -20579.4075822124, 0.624, -0.776, 0.22, 192.0, 0.0, 0.0, 0.0, 0.0, 0.0, 0.0, 0.0, 0.0, 0.0, 1.6635906211833704E9, 0.0, 2022-09-19 17:30:21.183
54.0, -1551.2334169427654, -5538.985793469643, -24393.06222117689, -41473.30420891097, -187500.02235174447, -187500.02235174447, 4756.361813111522, -20812.826849559173, 0.624, -0.776, 0.22, 192.0, 0.0, 0.0, 0.0, 0.0, 0.0, 0.0, 0.0, 0.0, 0.0, 1.6635906211863697E9, 0.0, 2022-09-19 17:30:21.186
55.0, -1788.1619081690203, -5519.360961837883, -25359.663410146644, -41183.37973158118, -187500.02235174447, -187500.02235174447, 4637.092904698004, -21660.069723137585, 0.624, -0.776, 0.22, 192.0, 0.0, 0.0, 0.0, 0.0, 0.0, 0.0, 0.0, 0.0, 0.0, 1.6635906211914003E9, 0.0, 2022-09-19 17:30:21.191
56.0, -2293.9371817037086, -5595.938038341766, -26069.30894485819, -40975.53085989128, -187500.02235174447, -187500.02235174447, 4323.676743945688, -22392.022298815526, 0.624, -0.776, 0.22, 192.0, 0.0, 0.0, 0.0, 0.0, 0.0, 0.0, 0.0, 0.0, 0.0, 1.6635906211954544E9, 0.0, 2022-09-19 17:30:21.195
57.0, -2166.085203419352, -5622.044875865564, -24831.804613090113, -41325.17919840565, -187500.02235174447, -187500.02235174447, 4346.274357590003, -21382.394001769306, 0.624, -0.776, 0.22, 192.0, 0.0, 0.0, 0.0, 0.0, 0.0, 0.0, 0.0, 0.0, 0.0, 1.663590621199405E9, 0.0, 2022-09-19 17:30:21.199
58.0, -1659.5052670842729, -5530.335668365439, -24075.66744991153, -41568.70145424622, -187500.02235174447, -187500.02235174447, 4640.87034951095, -20577.261814744692, 0.618, -0.776, 0.22, 192.0, 19.0, 80.0, 231.0, 192.0, 6.0, 224.0, 0.0, 0.0, 0.0, 1.6635906212034192E9, 0.0, 2022-09-19 17:30:21.203
59.0, -1534.760181279204, -5450.003498793066, -24440.894954311247, -41461.569543071935, -187500.02235174447, -187500.02235174447, 4754.104286921535, -20832.518736424296, 0.618, -0.776, 0.22, 192.0, 0.0, 0.0, 0.0, 0.0, 0.0, 0.0, 0.0, 0.0, 0.0, 1.6635906212084627E9, 0.0, 2022-09-19 17:30:21.208
60.0, -1796.7896815287688, -5435.40780966375, -25414.69340499561, -41159.686882458554, -187500.02235174447, -187500.02235174447, 4620.239689378702, -21719.190087221872, 0.618, -0.776, 0.22, 192.0, 0.0, 0.0, 0.0, 0.0, 0.0, 0.0, 0.0, 0.0, 0.0, 1.6635906212114275E9, 0.0, 2022-09-19 17:30:21.211
61.0, -2283.2083443651613, -5513.035418157032, -26069.331296602642, -40957.62711258258, -187500.02235174447, -187500.02235174447, 4307.605839682322, -22403.86872337684, 0.618, -0.776, 0.22, 192.0, 0.0, 0.0, 0.0, 0.0, 0.0, 0.0, 0.0, 0.0, 0.0, 1.6635906212144208E9, 0.0, 2022-09-19 17:30:21.214
62.0, -2151.221293356573, -5543.09851444942, -24792.71141203778, -41310.53880578742, -187500.02235174447, -187500.02235174447, 4336.305479562936, -21337.981085536612, 0.618, -0.776, 0.22, 192.0, 0.0, 0.0, 0.0, 0.0, 0.0, 0.0, 0.0, 0.0, 0.0, 1.6635906212194247E9, 0.0, 2022-09-19 17:30:21.219
63.0, -1687.1543749754876, -5457.1784087632195, -24096.54397923279, -41537.58782596443, -187500.02235174447, -187500.02235174447, 4623.1901196468025, -20607.391966270443, 0.618, -0.776, 0.22, 192.0, 0.0, 0.0, 0.0, 0.0, 0.0, 0.0, 0.0, 0.0, 0.0, 1.6635906212234566E9, 0.0, 2022-09-19 17:30:21.223
64.0, -1569.1818677403771, -5361.043555860943, -24482.1786263202, -41414.40736227124, -187500.02235174447, -187500.02235174447, 4727.483359275265, -20882.13960911508, 0.618, -0.776, 0.22, 192.0, 0.0, 0.0, 0.0, 0.0, 0.0, 0.0, 0.0, 0.0, 0.0, 1.6635906212274935E9, 0.0, 2022-09-19 17:30:21.227
65.0, -1844.55535942976, -5332.142750280232, -25517.24320855656, -41103.27107945336, -187500.02235174447, -187500.02235174447, 4572.6528254333525, -21799.432849816425, 0.618, -0.776, 0.22, 192.0, 0.0, 0.0, 0.0, 0.0, 0.0, 0.0, 0.0, 0.0, 0.0, 1.6635906212314415E9, 0.0, 2022-09-19 17:30:21.231
66.0, -2338.9759467811523, -5399.935591213178, -26101.182532451458, -40907.738018958335, -187500.02235174447, -187500.02235174447, 4259.616644336777, -22425.77343294304, 0.618, -0.776, 0.22, 192.0, 0.0, 0.0, 0.0, 0.0, 0.0, 0.0, 0.0, 0.0, 0.0, 1.663590621235475E9, 0.0, 2022-09-19 17:30:21.235
67.0, -2182.066700704897, -5422.734370557591, -24798.38875512943, -41264.65067442068, -187500.02235174447, -187500.02235174447, 4306.488252459557, -21355.013114811554, 0.618, -0.776, 0.22, 192.0, 0.0, 0.0, 0.0, 0.0, 0.0, 0.0, 0.0, 0.0, 0.0, 1.6635906212394583E9, 0.0, 2022-09-19 17:30:21.239
68.0, -1709.886099086535, -5330.19814851262, -24148.15415718009, -41477.66279907976, -187500.02235174447, -187500.02235174447, 4592.210601831746, -20670.937975756882, 0.614, -0.774, 0.216, 192.0, 19.0, 48.0, 231.0, 208.0, 6.0, 192.0, 0.0, 0.0, 0.0, 1.663590621242586E9, 0.0, 2022-09-19 17:30:21.242
69.0, -1597.4791762207958, -5241.595833491782, -24543.467109616653, -41348.246198683526, -187500.02235174447, -187500.02235174447, 4693.64281816993, -20968.171473523555, 0.614, -0.774, 0.216, 192.0, 0.0, 0.0, 0.0, 0.0, 0.0, 0.0, 0.0, 0.0, 0.0, 1.6635906212474592E9, 0.0, 2022-09-19 17:30:21.247
70.0, -1895.4055780655835, -5228.430656007607, -25591.607462359367, -41028.616252972635, -187500.02235174447, -187500.02235174447, 4530.5644906240095, -21888.482199726368, 0.614, -0.774, 0.216, 192.0, 0.0, 0.0, 0.0, 0.0, 0.0, 0.0, 0.0, 0.0, 0.0, 1.6635906212515235E9, 0.0, 2022-09-19 17:30:21.251
71.0, -2382.2489240466266, -5310.595668625316, -26153.262097032322, -40850.38344268602, -187500.02235174447, -187500.02235174447, 4211.649800735689, -22508.541942661042, 0.614, -0.774, 0.216, 192.0, 0.0, 0.0, 0.0, 0.0, 0.0, 0.0, 0.0, 0.0, 0.0, 1.6635906212555375E9, 0.0, 2022-09-19 17:30:21.255
72.0, -2216.0413522769636, -5341.709296907103, -24831.514040412196, -41214.31454590733, -187500.02235174447, -187500.02235174447, 4262.790592049431, -21395.62623448685, 0.614, -0.774, 0.216, 192.0, 0.0, 0.0, 0.0, 0.0, 0.0, 0.0, 0.0, 0.0, 0.0, 1.6635906212595203E9, 0.0, 2022-09-19 17:30:21.259
73.0, -1753.7625734523028, -5254.693955742593, -24247.731178728485, -41406.94187962316, -187500.02235174447, -187500.02235174447, 4529.603365612432, -20759.0485523997, 0.614, -0.774, 0.216, 192.0, 0.0, 0.0, 0.0, 0.0, 0.0, 0.0, 0.0, 0.0, 0.0, 1.6635906212635207E9, 0.0, 2022-09-19 17:30:21.263
74.0, -1658.4323833504181, -5172.97597801399, -24618.881895408857, -41256.82756386132, -187500.02235174447, -187500.02235174447, 4625.648811536886, -21049.0177332184, 0.614, -0.774, 0.216, 192.0, 0.0, 0.0, 0.0, 0.0, 0.0, 0.0, 0.0, 0.0, 0.0, 1.663590621267537E9, 0.0, 2022-09-19 17:30:21.267
75.0, -1972.0050063139208, -5163.387079642664, -25687.384687350357, -40915.33761207314, -187500.02235174447, -187500.02235174447, 4452.109867585882, -21986.561654396257, 0.614, -0.774, 0.216, 192.0, 0.0, 0.0, 0.0, 0.0, 0.0, 0.0, 0.0, 0.0, 0.0, 1.6635906212705653E9, 0.0, 2022-09-19 17:30:21.270
76.0, -2471.67825361231, -5231.358734531252, -26213.120068683635, -40728.32056621559, -187500.02235174447, -187500.02235174447, 4123.226299670494, -22553.625411227396, 0.614, -0.774, 0.216, 192.0, 0.0, 0.0, 0.0, 0.0, 0.0, 0.0, 0.0, 0.0, 0.0, 1.6635906212745335E9, 0.0, 2022-09-19 17:30:21.274
77.0, -2297.6922747722, -5240.522949757928, -24899.284529600685, -41070.905753482075, -187500.02235174447, -187500.02235174447, 4164.889951335186, -21442.47549086517, 0.614, -0.774, 0.216, 192.0, 0.0, 0.0, 0.0, 0.0, 0.0, 0.0, 0.0, 0.0, 0.0, 1.663590621279566E9, 0.0, 2022-09-19 17:30:21.279
78.0, -1856.4688392244386, -5144.857483489213, -24366.01661038597, -41205.485606847484, -187500.02235174447, -187500.02235174447, 4419.006934047572, -20851.80829188923, 0.614, -0.774, 0.216, 192.0, 0.0, 0.0, 0.0, 0.0, 0.0, 0.0, 0.0, 0.0, 0.0, 1.6635906212836452E9, 0.0, 2022-09-19 17:30:21.283
79.0, -1802.5340798537827, -5069.979139563935, -24847.227316764274, -40987.89137457507, -187500.02235174447, -187500.02235174447, 4469.477173027655, -21187.710307563582, 0.622, -0.774, 0.218, 192.0, 19.0, 112.0, 231.0, 208.0, 6.0, 208.0, 0.0, 0.0, 0.0, 1.66359062128754E9, 0.0, 2022-09-19 17:30:21.287
80.0, -2168.454488331615, -5065.329976717231, -25968.636687831484, -40573.445328884765, -187500.02235174447, -187500.02235174447, 4260.153086203705, -22192.175351640624, 0.622, -0.774, 0.218, 192.0, 0.0, 0.0, 0.0, 0.0, 0.0, 0.0, 0.0, 0.0, 0.0, 1.6635906212915893E9, 0.0, 2022-09-19 17:30:21.291
81.0, -2649.419325520912, -5145.572739311783, -26431.809536434357, -40399.079370388914, -187500.02235174447, -187500.02235174447, 3940.7913614262775, -22728.281942401165, 0.622, -0.774, 0.218, 192.0, 0.0, 0.0, 0.0, 0.0, 0.0, 0.0, 0.0, 0.0, 0.0, 1.663590621295574E9, 0.0, 2022-09-19 17:30:21.295
82.0, -2430.9310234702857, -5163.49883836494, -25079.39488642155, -40762.0717003431, -187500.02235174447, -187500.02235174447, 4008.0477604922967, -21584.230254200727, 0.622, -0.774, 0.218, 192.0, 0.0, 0.0, 0.0, 0.0, 0.0, 0.0, 0.0, 0.0, 0.0, 1.6635906212986162E9, 0.0, 2022-09-19 17:30:21.298
83.0, -2009.4888817654708, -5072.5272384318405, -24598.139476554334, -40875.439748220415, -187500.02235174447, -187500.02235174447, 4259.281368169948, -21000.313282050287, 0.622, -0.774, 0.218, 192.0, 0.0, 0.0, 0.0, 0.0, 0.0, 0.0, 0.0, 0.0, 0.0, 1.6635906213036048E9, 0.0, 2022-09-19 17:30:21.303
84.0, -1964.5171719213931, -4994.027911904802, -25084.938119046466, -40662.42762356134, -187500.02235174447, -187500.02235174447, 4304.051912313928, -21371.955737108678, 0.622, -0.774, 0.218, 192.0, 0.0, 0.0, 0.0, 0.0, 0.0, 0.0, 0.0, 0.0, 0.0, 1.663590621306661E9, 0.0, 2022-09-19 17:30:21.306
85.0, -2336.2937374465155, -5001.13576664159, -26194.32225159672, -40251.42374651715, -187500.02235174447, -187500.02235174447, 4080.3780055496704, -22375.14673175177, 0.622, -0.774, 0.218, 192.0, 0.0, 0.0, 0.0, 0.0, 0.0, 0.0, 0.0, 0.0, 0.0, 1.663590621311782E9, 0.0, 2022-09-19 17:30:21.311
86.0, -2836.5481301007426, -5101.5845062237395, -26606.086087952386, -40068.45236640601, -187500.02235174447, -187500.02235174447, 3745.951205009366, -22868.606194091582, 0.622, -0.774, 0.218, 192.0, 0.0, 0.0, 0.0, 0.0, 0.0, 0.0, 0.0, 0.0, 0.0, 1.663590621315694E9, 0.0, 2022-09-19 17:30:21.315
87.0, -2577.200839185815, -5134.665088017594, -25199.71432682447, -40492.80023489001, -187500.02235174447, -187500.02235174447, 3857.3746511190716, -21712.730433074288, 0.622, -0.774, 0.218, 192.0, 0.0, 0.0, 0.0, 0.0, 0.0, 0.0, 0.0, 0.0, 0.0, 1.663590621319676E9, 0.0, 2022-09-19 17:30:21.319
88.0, -2105.51197594547, -5064.882941828125, -24676.057657725534, -40710.662688095894, -187500.02235174447, -187500.02235174447, 4167.236884502993, -21140.414016296152, 0.622, -0.774, 0.218, 192.0, 0.0, 0.0, 0.0, 0.0, 0.0, 0.0, 0.0, 0.0, 0.0, 1.6635906213226953E9, 0.0, 2022-09-19 17:30:21.322
89.0, -2030.5889285312808, -5001.672208508517, -25109.726203647402, -40614.14785553788, -187500.02235174447, -187500.02235174447, 4262.164743204683, -21478.26063373812, 0.624, -0.772, 0.218, 192.0, 19.0, 128.0, 231.0, 224.0, 6.0, 208.0, 0.0, 0.0, 0.0, 1.6635906213267276E9, 0.0, 2022-09-19 17:30:21.326
90.0, -2344.899159061809, -4998.341798584676, -26149.417596986008, -40336.00274753603, -187500.02235174447, -187500.02235174447, 4107.870651229698, -22446.314686097467, 0.624, -0.772, 0.218, 192.0, 0.0, 0.0, 0.0, 0.0, 0.0, 0.0, 0.0, 0.0, 0.0, 1.6635906213306787E9, 0.0, 2022-09-19 17:30:21.330
91.0, -2776.1984200714137, -5081.043253069312, -26454.250687867487, -40276.323589840365, -187500.02235174447, -187500.02235174447, 3822.014191390776, -22827.814260460647, 0.624, -0.772, 0.218, 192.0, 0.0, 0.0, 0.0, 0.0, 0.0, 0.0, 0.0, 0.0, 0.0, 1.66359062133561E9, 0.0, 2022-09-19 17:30:21.335
92.0, -2481.3118554725474, -5082.67493041455, -25064.598031592137, -40695.17292918837, -187500.02235174447, -187500.02235174447, 3938.1538555805514, -21589.572321125546, 0.624, -0.772, 0.218, 192.0, 0.0, 0.0, 0.0, 0.0, 0.0, 0.0, 0.0, 0.0, 0.0, 1.6635906213397362E9, 0.0, 2022-09-19 17:30:21.339
93.0, -2024.5986610172583, -4981.55563849874, -24628.62725599137, -40859.368843957054, -187500.02235174447, -187500.02235174447, 4221.797492718398, -21078.007945776935, 0.624, -0.772, 0.218, 192.0, 0.0, 0.0, 0.0, 0.0, 0.0, 0.0, 0.0, 0.0, 0.0, 1.663590621343684E9, 0.0, 2022-09-19 17:30:21.343
94.0, -1958.1916282405411, -4902.8327945271485, -25060.48531061236, -40726.30890921461, -187500.02235174447, -187500.02235174447, 4317.909993876218, -21426.62810404636, 0.624, -0.772, 0.218, 192.0, 0.0, 0.0, 0.0, 0.0, 0.0, 0.0, 0.0, 0.0, 0.0, 1.6635906213466773E9, 0.0, 2022-09-19 17:30:21.346
95.0, -2300.441539340203, -4898.250686913811, -26128.183439753466, -40425.09680093489, -187500.02235174447, -187500.02235174447, 4152.037698273385, -22424.901714909283, 0.624, -0.772, 0.218, 192.0, 0.0, 0.0, 0.0, 0.0, 0.0, 0.0, 0.0, 0.0, 0.0, 1.6635906213506489E9, 0.0, 2022-09-19 17:30:21.350
96.0, -2709.29964891668, -4967.988129614369, -26354.740721552458, -40377.956971878644, -187500.02235174447, -187500.02235174447, 3883.7944130652445, -22716.05553818411, 0.624, -0.772, 0.218, 192.0, 0.0, 0.0, 0.0, 0.0, 0.0, 0.0, 0.0, 0.0, 0.0, 1.6635906213546467E9, 0.0, 2022-09-19 17:30:21.354
97.0, -2392.6871887072552, -4962.444896989453, -24925.07844270211, -40800.159072894945, -187500.02235174447, -187500.02235174447, 4033.1711212600617, -21461.04979050753, 0.624, -0.772, 0.218, 192.0, 0.0, 0.0, 0.0, 0.0, 0.0, 0.0, 0.0, 0.0, 0.0, 1.663590621358703E9, 0.0, 2022-09-19 17:30:21.358
98.0, -1948.3121571912955, -4860.699756228895, -24520.33305410541, -40945.87009499909, -187500.02235174447, -187500.02235174447, 4329.9352323931735, -21003.576636740763, 0.624, -0.772, 0.218, 192.0, 0.0, 0.0, 0.0, 0.0, 0.0, 0.0, 0.0, 0.0, 0.0, 1.663590621362676E9, 0.0, 2022-09-19 17:30:21.362
99.0, -1898.2442496114077, -4778.892371522471, -24996.313452281174, -40818.666317303934, -187500.02235174447, -187500.02235174447, 4412.770797344541, -21398.487257777128, 0.63, -0.768, 0.218, 192.0, 19.0, 176.0, 232.0, 0.0, 6.0, 208.0, 0.0, 0.0, 0.0, 1.6635906213677688E9, 0.0, 2022-09-19 17:30:21.367
100.0, -2235.9791083310974, -4774.936112753882, -26111.106706989613, -40530.440572552754, -187500.02235174447, -187500.02235174447, 4240.260033638481, -22371.257528216545, 0.63, -0.768, 0.218, 192.0, 0.0, 0.0, 0.0, 0.0, 0.0, 0.0, 0.0, 0.0, 0.0, 1.6635906213716552E9, 0.0, 2022-09-19 17:30:21.371
101.0, -2612.7624646142085, -4836.068133839147, -26234.778909060828, -40511.88862465485, -187500.02235174447, -187500.02235174447, 3989.2499434053834, -22611.874057277928, 0.63, -0.768, 0.218, 192.0, 0.0, 0.0, 0.0, 0.0, 0.0, 0.0, 0.0, 0.0, 0.0, 1.6635906213747241E9, 0.0, 2022-09-19 17:30:21.374
102.0, -2275.1617163612505, -4810.117758526535, -24753.215879585252, -40974.525031390796, -187500.02235174447, -187500.02235174447, 4164.487619934991, -21329.84505055488, 0.63, -0.768, 0.218, 192.0, 0.0, 0.0, 0.0, 0.0, 0.0, 0.0, 0.0, 0.0, 0.0, 1.6635906213787308E9, 0.0, 2022-09-19 17:30:21.378
103.0, -1819.5661091287268, -4690.044187312626, -24364.384933040732, -41167.934676162564, -187500.02235174447, -187500.02235174447, 4471.242960839625, -20878.250405579856, 0.63, -0.768, 0.218, 192.0, 0.0, 0.0, 0.0, 0.0, 0.0, 0.0, 0.0, 0.0, 0.0, 1.6635906213827243E9, 0.0, 2022-09-19 17:30:21.382
104.0, -1741.8043901687136, -4592.903505909861, -24833.99508404673, -41068.42470984754, -187500.02235174447, -187500.02235174447, 4566.439040474777, -21272.28930858246, 0.63, -0.768, 0.218, 192.0, 0.0, 0.0, 0.0, 0.0, 0.0, 0.0, 0.0, 0.0, 0.0, 1.6635906213867133E9, 0.0, 2022-09-19 17:30:21.386
105.0, -2076.1417837311965, -4568.294235264568, -25935.37729208199, -40794.19115712537, -187500.02235174447, -187500.02235174447, 4396.096395980882, -22254.492015182022, 0.63, -0.768, 0.218, 192.0, 0.0, 0.0, 0.0, 0.0, 0.0, 0.0, 0.0, 0.0, 0.0, 1.6635906213917491E9, 0.0, 2022-09-19 17:30:21.391
106.0, -2439.782314274587, -4605.889869438394, -26019.486906467308, -40807.84807298757, -187500.02235174447, -187500.02235174447, 4167.1027740362615, -22426.958075399172, 0.63, -0.768, 0.218, 192.0, 0.0, 0.0, 0.0, 0.0, 0.0, 0.0, 0.0, 0.0, 0.0, 1.6635906213958588E9, 0.0, 2022-09-19 17:30:21.395
107.0, -2082.4673274120482, -4566.506095708143, -24518.969597693635, -41273.54666871389, -187500.02235174447, -187500.02235174447, 4366.547389810967, -21129.126385346222, 0.63, -0.768, 0.218, 192.0, 0.0, 0.0, 0.0, 0.0, 0.0, 0.0, 0.0, 0.0, 0.0, 1.663590621399783E9, 0.0, 2022-09-19 17:30:21.399
108.0, -1633.0631533936446, -4453.40626876429, -24153.00448572689, -41439.597778272364, -187500.02235174447, -187500.02235174447, 4675.001463294204, -20725.699749672385, 0.63, -0.768, 0.218, 192.0, 0.0, 0.0, 0.0, 0.0, 0.0, 0.0, 0.0, 0.0, 0.0, 1.6635906214027743E9, 0.0, 2022-09-19 17:30:21.402
109.0, -1569.919475307402, -4369.162543912237, -24628.40373854682, -41319.81477973638, -187500.02235174447, -187500.02235174447, 4771.046909218659, -21085.249910980452, 0.63, -0.772, 0.218, 192.0, 19.0, 176.0, 231.0, 224.0, 6.0, 208.0, 0.0, 0.0, 0.0, 1.6635906214067805E9, 0.0, 2022-09-19 17:30:21.406
110.0, -1936.488084374438, -4371.397718357768, -25743.71108337773, -41029.62208147313, -187500.02235174447, -187500.02235174447, 4594.7810524441065, -22092.21835043649, 0.63, -0.772, 0.218, 192.0, 0.0, 0.0, 0.0, 0.0, 0.0, 0.0, 0.0, 0.0, 0.0, 1.663590621410728E9, 0.0, 2022-09-19 17:30:21.410
111.0, -2297.245239883094, -4428.908756841273, -25781.53023499611, -41044.01660490234, -187500.02235174447, -187500.02235174447, 4360.24419787457, -22222.640779333207, 0.63, -0.772, 0.218, 192.0, 0.0, 0.0, 0.0, 0.0, 0.0, 0.0, 0.0, 0.0, 0.0, 1.6635906214148347E9, 0.0, 2022-09-19 17:30:21.414
112.0, -1896.366703077162, -4383.042977218983, -24348.33638052182, -41490.8950317973, -187500.02235174447, -187500.02235174447, 4545.562511153521, -20931.872240528137, 0.63, -0.772, 0.218, 192.0, 0.0, 0.0, 0.0, 0.0, 0.0, 0.0, 0.0, 0.0, 0.0, 1.6635906214188E9, 0.0, 2022-09-19 17:30:21.418
113.0, -1466.989692090713, -4268.780859563453, -24046.74429258636, -41623.10560025044, -187500.02235174447, -187500.02235174447, 4830.636659936507, -20545.63409634043, 0.63, -0.772, 0.218, 192.0, 0.0, 0.0, 0.0, 0.0, 0.0, 0.0, 0.0, 0.0, 0.0, 1.6635906214238837E9, 0.0, 2022-09-19 17:30:21.423
114.0, -1427.0471247490793, -4188.024006846429, -24515.505077303063, -41488.43633990721, -187500.02235174447, -187500.02235174447, 4904.933858505948, -20966.763313622872, 0.63, -0.772, 0.218, 192.0, 0.0, 0.0, 0.0, 0.0, 0.0, 0.0, 0.0, 0.0, 0.0, 1.6635906214278035E9, 0.0, 2022-09-19 17:30:21.427
115.0, -1797.527289095794, -4189.633332447211, -25610.271168979547, -41194.19797589755, -187500.02235174447, -187500.02235174447, 4720.151987093925, -21976.92805253602, 0.63, -0.772, 0.218, 192.0, 0.0, 0.0, 0.0, 0.0, 0.0, 0.0, 0.0, 0.0, 0.0, 1.6635906214308577E9, 0.0, 2022-09-19 17:30:21.430
116.0, -2133.0716768588636, -4252.575844833355, -25549.988514183584, -41227.502075135955, -187500.02235174447, -187500.02235174447, 4499.294400131035, -22036.56250674278, 0.63, -0.772, 0.218, 192.0, 0.0, 0.0, 0.0, 0.0, 0.0, 0.0, 0.0, 0.0, 0.0, 1.6635906214347973E9, 0.0, 2022-09-19 17:30:21.434
117.0, -1738.3175180336855, -4221.059885151373, -24111.877275929128, -41672.72647294122, -187500.02235174447, -187500.02235174447, 4695.363902492989, -20746.71038946037, 0.63, -0.772, 0.218, 192.0, 0.0, 0.0, 0.0, 0.0, 0.0, 0.0, 0.0, 0.0, 0.0, 1.6635906214389126E9, 0.0, 2022-09-19 17:30:21.438
118.0, -1318.4176466962872, -4109.748197763944, -23873.898252713472, -41791.66010518791, -187500.02235174447, -187500.02235174447, 4972.950216883447, -20398.73843178015, 0.63, -0.772, 0.218, 192.0, 0.0, 0.0, 0.0, 0.0, 0.0, 0.0, 0.0, 0.0, 0.0, 1.66359062144285E9, 0.0, 2022-09-19 17:30:21.442
119.0, -1291.2379254386337, -4034.3110602272823, -24395.2079886446, -41647.044318562075, -187500.02235174447, -187500.02235174447, 5041.212444449955, -20838.285486493765, 0.632, -0.776, 0.21, 192.0, 19.0, 192.0, 231.0, 192.0, 6.0, 144.0, 0.0, 0.0, 0.0, 1.6635906214468677E9, 0.0, 2022-09-19 17:30:21.446
120.0, -1674.3468254025968, -4049.644356923623, -25472.696181857133, -41339.39490787923, -187500.02235174447, -187500.02235174447, 4859.068078883658, -21852.272373708773, 0.632, -0.776, 0.21, 192.0, 0.0, 0.0, 0.0, 0.0, 0.0, 0.0, 0.0, 0.0, 0.0, 1.6635906214518187E9, 0.0, 2022-09-19 17:30:21.451
121.0, -1997.418939759605, -4129.1271602066945, -25376.807198143866, -41381.796167110944, -187500.02235174447, -187500.02235174447, 4630.4097331058665, -21862.84474883613, 0.632, -0.776, 0.21, 192.0, 0.0, 0.0, 0.0, 0.0, 0.0, 0.0, 0.0, 0.0, 0.0, 1.6635906214558823E9, 0.0, 2022-09-19 17:30:21.455
122.0, -1582.3023417356424, -4105.121386661695, -23941.333465735133, -41811.77667519768, -187500.02235174447, -187500.02235174447, 4828.177968046423, -20599.83707664455, 0.632, -0.776, 0.21, 192.0, 0.0, 0.0, 0.0, 0.0, 0.0, 0.0, 0.0, 0.0, 0.0, 1.6635906214588356E9, 0.0, 2022-09-19 17:30:21.458
123.0, -1176.2829037049894, -3998.5929725877018, -23704.40497450888, -41897.24974599478, -187500.02235174447, -187500.02235174447, 5111.776901695359, -20292.29942468398, 0.632, -0.776, 0.21, 192.0, 0.0, 0.0, 0.0, 0.0, 0.0, 0.0, 0.0, 0.0, 0.0, 1.663590621462855E9, 0.0, 2022-09-19 17:30:21.462
124.0, -1164.4141273992213, -3917.5008437038477, -24247.686475239574, -41728.94111024632, -187500.02235174447, -187500.02235174447, 5173.266550691909, -20740.697770201896, 0.632, -0.776, 0.21, 192.0, 0.0, 0.0, 0.0, 0.0, 0.0, 0.0, 0.0, 0.0, 0.0, 1.6635906214668434E9, 0.0, 2022-09-19 17:30:21.466
125.0, -1581.4306237018852, -3922.328820506194, -25381.88104413522, -41410.58521396938, -187500.02235174447, -187500.02235174447, 4958.354527754132, -21768.185111067905, 0.632, -0.776, 0.21, 192.0, 0.0, 0.0, 0.0, 0.0, 0.0, 0.0, 0.0, 0.0, 0.0, 1.6635906214708316E9, 0.0, 2022-09-19 17:30:21.470
126.0, -1896.4114065660724, -3987.6853212935116, -25226.290550981827, -41454.55109531297, -187500.02235174447, -187500.02235174447, 4730.769065710195, -21745.92277359042, 0.632, -0.776, 0.21, 192.0, 0.0, 0.0, 0.0, 0.0, 0.0, 0.0, 0.0, 0.0, 0.0, 1.663590621474892E9, 0.0, 2022-09-19 17:30:21.474
127.0, -1466.252084523688, -3939.87493990361, -23833.083967338083, -41864.727957812305, -187500.02235174447, -187500.02235174447, 4932.448855930431, -20496.370851560932, 0.632, -0.776, 0.21, 192.0, 0.0, 0.0, 0.0, 0.0, 0.0, 0.0, 0.0, 0.0, 0.0, 1.6635906214788997E9, 0.0, 2022-09-19 17:30:21.478
128.0, -1091.9721236195712, -3818.9967058893094, -23683.014355065152, -41922.95425211838, -187500.02235174447, -187500.02235174447, 5194.79128060237, -20243.3267525824, 0.632, -0.776, 0.21, 192.0, 0.0, 0.0, 0.0, 0.0, 0.0, 0.0, 0.0, 0.0, 0.0, 1.6635906214839027E9, 0.0, 2022-09-19 17:30:21.483
129.0, -1114.301516330423, -3739.603309584059, -24267.490120826977, -41729.2987381576, -187500.02235174447, -187500.02235174447, 5236.007897377956, -20747.96208714987, 0.628, -0.778, 0.214, 192.0, 19.0, 160.0, 231.0, 176.0, 6.0, 176.0, 0.0, 0.0, 0.0, 1.6635906214869149E9, 0.0, 2022-09-19 17:30:21.486
130.0, -1540.9069110044136, -3746.7111643208464, -25415.229846862538, -41387.741731136055, -187500.02235174447, -187500.02235174447, 5003.393292831575, -21805.713690008368, 0.628, -0.778, 0.214, 192.0, 0.0, 0.0, 0.0, 0.0, 0.0, 0.0, 0.0, 0.0, 0.0, 1.6635906214908955E9, 0.0, 2022-09-19 17:30:21.490
131.0, -1856.781763646813, -3804.423368504449, -25210.309053696285, -41425.560882754435, -187500.02235174447, -187500.02235174447, 4765.36956612701, -21718.452479654847, 0.628, -0.778, 0.214, 192.0, 0.0, 0.0, 0.0, 0.0, 0.0, 0.0, 0.0, 0.0, 0.0, 1.663590621494896E9, 0.0, 2022-09-19 17:30:21.494
132.0, -1466.5203054571516, -3769.3534814540726, -23852.35117105856, -41811.06141937512, -187500.02235174447, -187500.02235174447, 4947.8492078601375, -20496.59436900549, 0.628, -0.778, 0.214, 192.0, 0.0, 0.0, 0.0, 0.0, 0.0, 0.0, 0.0, 0.0, 0.0, 1.6635906214988906E9, 0.0, 2022-09-19 17:30:21.498
133.0, -1128.2937083594452, -3665.149648803431, -23743.02878892765, -41839.31402436662, -187500.02235174447, -187500.02235174447, 5184.107146752733, -20291.964148517152, 0.628, -0.778, 0.214, 192.0, 0.0, 0.0, 0.0, 0.0, 0.0, 0.0, 0.0, 0.0, 0.0, 1.6635906215029593E9, 0.0, 2022-09-19 17:30:21.502
134.0, -1174.8970955487605, -3595.412206102873, -24362.82031092886, -41624.84903631795, -187500.02235174447, -187500.02235174447, 5195.595943402761, -20820.337035696153, 0.628, -0.778, 0.214, 192.0, 0.0, 0.0, 0.0, 0.0, 0.0, 0.0, 0.0, 0.0, 0.0, 1.6635906215070245E9, 0.0, 2022-09-19 17:30:21.507
135.0, -1627.6540312354603, -3623.307183183096, -25529.20139184015, -41280.296895539395, -187500.02235174447, -187500.02235174447, 4935.220472242889, -21900.798010921244, 0.628, -0.778, 0.214, 192.0, 0.0, 0.0, 0.0, 0.0, 0.0, 0.0, 0.0, 0.0, 0.0, 1.6635906215109167E9, 0.0, 2022-09-19 17:30:21.510
136.0, -1930.7883895383347, -3697.760843963724, -25263.729722944467, -41345.8098585379, -187500.02235174447, -187500.02235174447, 4697.420262982877, -21801.17628588394, 0.628, -0.778, 0.214, 192.0, 0.0, 0.0, 0.0, 0.0, 0.0, 0.0, 0.0, 0.0, 0.0, 1.6635906215139415E9, 0.0, 2022-09-19 17:30:21.513
137.0, -1527.7193817757825, -3661.081631312565, -23908.96813976385, -41729.85753176898, -187500.02235174447, -187500.02235174447, 4898.630666569551, -20559.581584880543, 0.628, -0.778, 0.214, 192.0, 0.0, 0.0, 0.0, 0.0, 0.0, 0.0, 0.0, 0.0, 0.0, 1.6635906215191052E9, 0.0, 2022-09-19 17:30:21.519
138.0, -1208.0000290870703, -3561.6834237198145, -23840.974133130807, -41749.01297676718, -187500.02235174447, -187500.02235174447, 5121.946945422524, -20401.532399837066, 0.628, -0.778, 0.214, 192.0, 0.0, 0.0, 0.0, 0.0, 0.0, 0.0, 0.0, 0.0, 0.0, 1.6635906215230176E9, 0.0, 2022-09-19 17:30:21.523
139.0, -1254.7822302320278, -3488.92849551779, -24473.88612912728, -41530.16704680527, -187500.02235174447, -187500.02235174447, 5125.433817557552, -20966.964479322967, 0.624, -0.774, 0.22, 192.0, 19.0, 128.0, 231.0, 208.0, 6.0, 224.0, 0.0, 0.0, 0.0, 1.6635906215269985E9, 0.0, 2022-09-19 17:30:21.526
140.0, -1722.8054073817025, -3520.9808970667004, -25638.25555303759, -41179.0211414124, -187500.02235174447, -187500.02235174447, 4848.316889800655, -22050.532347027343, 0.624, -0.774, 0.22, 192.0, 0.0, 0.0, 0.0, 0.0, 0.0, 0.0, 0.0, 0.0, 0.0, 1.6635906215310113E9, 0.0, 2022-09-19 17:30:21.531
141.0, -2018.7648557144232, -3608.9797149872443, -25328.10274697575, -41249.60795040226, -187500.02235174447, -187500.02235174447, 4600.011360646648, -21863.51530116979, 0.624, -0.774, 0.22, 192.0, 0.0, 0.0, 0.0, 0.0, 0.0, 0.0, 0.0, 0.0, 0.0, 1.663590621535011E9, 0.0, 2022-09-19 17:30:21.535
142.0, -1606.5539844696505, -3574.870952948446, -24006.868780478097, -41616.51183563612, -187500.02235174447, -187500.02235174447, 4791.386996672988, -20651.648420291953, 0.624, -0.774, 0.22, 192.0, 0.0, 0.0, 0.0, 0.0, 0.0, 0.0, 0.0, 0.0, 0.0, 1.6635906215390508E9, 0.0, 2022-09-19 17:30:21.539
143.0, -1293.7860243065388, -3469.795402264047, -23992.51896053779, -41611.594451855955, -187500.02235174447, -187500.02235174447, 5002.61098177564, -20531.06075895557, 0.624, -0.774, 0.22, 192.0, 0.0, 0.0, 0.0, 0.0, 0.0, 0.0, 0.0, 0.0, 0.0, 1.6635906215419948E9, 0.0, 2022-09-19 17:30:21.541
144.0, -1374.900504934848, -3408.797491645514, -24678.873977526902, -41377.23641124206, -187500.02235174447, -187500.02235174447, 4980.683920464983, -21117.056443340356, 0.624, -0.774, 0.22, 192.0, 0.0, 0.0, 0.0, 0.0, 0.0, 0.0, 0.0, 0.0, 0.0, 1.6635906215470417E9, 0.0, 2022-09-19 17:30:21.547
145.0, -1858.2793305253185, -3442.7944949620364, -25824.87026749495, -41018.22269180092, -187500.02235174447, -187500.02235174447, 4695.162736792891, -22197.49506682099, 0.624, -0.774, 0.22, 192.0, 0.0, 0.0, 0.0, 0.0, 0.0, 0.0, 0.0, 0.0, 0.0, 1.663590621551014E9, 0.0, 2022-09-19 17:30:21.551
146.0, -2118.923022618654, -3524.959507579745, -25430.585495303334, -41097.124349728154, -187500.02235174447, -187500.02235174447, 4475.020405652572, -21951.06708420123, 0.624, -0.774, 0.22, 192.0, 0.0, 0.0, 0.0, 0.0, 0.0, 0.0, 0.0, 0.0, 0.0, 1.663590621554992E9, 0.0, 2022-09-19 17:30:21.554
147.0, -1697.436177424929, -3503.613591624927, -24139.660494287076, -41455.15459241326, -187500.02235174447, -187500.02235174447, 4680.969379063771, -20777.935776464437, 0.624, -0.774, 0.22, 192.0, 0.0, 0.0, 0.0, 0.0, 0.0, 0.0, 0.0, 0.0, 0.0, 1.6635906215590556E9, 0.0, 2022-09-19 17:30:21.559
148.0, -1403.1978134152669, -3422.744980185626, -24149.025875213847, -41442.279987607006, -187500.02235174447, -187500.02235174447, 4896.909582246492, -20692.596816134075, 0.624, -0.774, 0.22, 192.0, 0.0, 0.0, 0.0, 0.0, 0.0, 0.0, 0.0, 0.0, 0.0, 1.6635906215630612E9, 0.0, 2022-09-19 17:30:21.563
149.0, -1499.578535506551, -3375.7169098516597, -24838.73365387126, -41206.8267115148, -187500.02235174447, -187500.02235174447, 4872.970863934858, -21251.010447861012, 0.612, -0.772, 0.214, 192.0, 19.0, 32.0, 231.0, 224.0, 6.0, 176.0, 0.0, 0.0, 0.0, 1.6635906215670373E9, 0.0, 2022-09-19 17:30:21.567
150.0, -1992.970942612999, -3419.7274946841594, -25971.430655888398, -40854.98790204381, -187500.02235174447, -187500.02235174447, 4585.14745058387, -22329.638580040762, 0.612, -0.772, 0.214, 192.0, 0.0, 0.0, 0.0, 0.0, 0.0, 0.0, 0.0, 0.0, 0.0, 1.6635906215700133E9, 0.0, 2022-09-19 17:30:21.570
151.0, -2239.5777391884017, -3493.6000101089494, -25507.721365418598, -40966.3666446646, -187500.02235174447, -187500.02235174447, 4369.877799734807, -22045.771425458363, 0.612, -0.772, 0.214, 192.0, 0.0, 0.0, 0.0, 0.0, 0.0, 0.0, 0.0, 0.0, 0.0, 1.6635906215740733E9, 0.0, 2022-09-19 17:30:21.574
152.0, -1806.8926700225677, -3451.6457857663377, -24223.300722038835, -41330.99065196403, -187500.02235174447, -187500.02235174447, 4586.421500017822, -20848.343771498654, 0.612, -0.772, 0.214, 192.0, 0.0, 0.0, 0.0, 0.0, 0.0, 0.0, 0.0, 0.0, 0.0, 1.6635906215790367E9, 0.0, 2022-09-19 17:30:21.579
153.0, -1507.379294321453, -3357.8578660318694, -24249.787539218374, -41314.58447153383, -187500.02235174447, -187500.02235174447, 4797.3325606981, -20757.305116332187, 0.612, -0.772, 0.214, 192.0, 0.0, 0.0, 0.0, 0.0, 0.0, 0.0, 0.0, 0.0, 0.0, 1.6635906215830631E9, 0.0, 2022-09-19 17:30:21.583
154.0, -1594.8863738639802, -3311.120368375822, -24947.631352857516, -41082.21573617646, -187500.02235174447, -187500.02235174447, 4769.3481766400555, -21365.630193427827, 0.612, -0.772, 0.214, 192.0, 0.0, 0.0, 0.0, 0.0, 0.0, 0.0, 0.0, 0.0, 0.0, 1.663590621587165E9, 0.0, 2022-09-19 17:30:21.587
155.0, -2089.575182148836, -3364.0716509904446, -26082.518825831274, -40751.49932521574, -187500.02235174447, -187500.02235174447, 4471.555885261999, -22443.364255829365, 0.612, -0.772, 0.214, 192.0, 0.0, 0.0, 0.0, 0.0, 0.0, 0.0, 0.0, 0.0, 0.0, 1.6635906215911193E9, 0.0, 2022-09-19 17:30:21.591
156.0, -2315.6183738253562, -3443.4650472956955, -25542.72419723561, -40890.66128619448, -187500.02235174447, -187500.02235174447, 4274.41349916619, -22081.154236931114, 0.612, -0.772, 0.214, 192.0, 0.0, 0.0, 0.0, 0.0, 0.0, 0.0, 0.0, 0.0, 0.0, 1.663590621595114E9, 0.0, 2022-09-19 17:30:21.595
157.0, -1861.877961382623, -3398.8286136184474, -24318.072118529337, -41257.18519177261, -187500.02235174447, -187500.02235174447, 4493.237077383647, -20915.95779847596, 0.612, -0.772, 0.214, 192.0, 0.0, 0.0, 0.0, 0.0, 0.0, 0.0, 0.0, 0.0, 0.0, 1.6635906215981245E9, 0.0, 2022-09-19 17:30:21.598
158.0, -1575.2615422322206, -3296.9270106467025, -24374.1526453677, -41239.43790667509, -187500.02235174447, -187500.02235174447, 4696.637951926941, -20860.23489954888, 0.612, -0.772, 0.214, 192.0, 0.0, 0.0, 0.0, 0.0, 0.0, 0.0, 0.0, 0.0, 0.0, 1.6635906216021276E9, 0.0, 2022-09-19 17:30:21.602
159.0, -1671.5975608345939, -3250.100106012834, -25002.594292473113, -41004.38696198308, -187500.02235174447, -187500.02235174447, 4701.108300818003, -21457.182938716764, 0.622, -0.778, 0.212, 192.0, 19.0, 112.0, 231.0, 176.0, 6.0, 160.0, 0.0, 0.0, 0.0, 1.6635906216071322E9, 0.0, 2022-09-19 17:30:21.607
160.0, -2159.1114591492965, -3317.1106358898446, -26118.773355337784, -40690.94844948631, -187500.02235174447, -187500.02235174447, 4419.409265447768, -22497.611939622395, 0.622, -0.778, 0.212, 192.0, 0.0, 0.0, 0.0, 0.0, 0.0, 0.0, 0.0, 0.0, 0.0, 1.6635906216111124E9, 0.0, 2022-09-19 17:30:21.611
161.0, -2345.9049875622973, -3397.420453717763, -25507.676661929687, -40867.72839638333, -187500.02235174447, -187500.02235174447, 4248.440772109124, -22064.50218731191, 0.622, -0.778, 0.212, 192.0, 0.0, 0.0, 0.0, 0.0, 0.0, 0.0, 0.0, 0.0, 0.0, 1.663590621615198E9, 0.0, 2022-09-19 17:30:21.615
162.0, -1881.4357377810168, -3352.5605025959617, -24261.455149824043, -41248.9373980686, -187500.02235174447, -187500.02235174447, 4498.601496052921, -20899.261045367843, 0.622, -0.778, 0.212, 192.0, 0.0, 0.0, 0.0, 0.0, 0.0, 0.0, 0.0, 0.0, 0.0, 1.663590621619148E9, 0.0, 2022-09-19 17:30:21.619
163.0, -1600.6084204445388, -3250.9494723021357, -24338.81453738386, -41248.22214224603, -187500.02235174447, -187500.02235174447, 4707.3667892654885, -20896.243559866376, 0.622, -0.778, 0.212, 192.0, 0.0, 0.0, 0.0, 0.0, 0.0, 0.0, 0.0, 0.0, 0.0, 1.663590621622167E9, 0.0, 2022-09-19 17:30:21.622
164.0, -1704.856956584091, -3189.5045267944965, -25058.63011582257, -41038.00398564387, -187500.02235174447, -187500.02235174447, 4683.115146531481, -21530.563715763536, 0.622, -0.778, 0.212, 192.0, 0.0, 0.0, 0.0, 0.0, 0.0, 0.0, 0.0, 0.0, 0.0, 1.66359062162615E9, 0.0, 2022-09-19 17:30:21.626
165.0, -2195.097767722341, -3215.141977684734, -26136.56534392421, -40739.80936286561, -187500.02235174447, -187500.02235174447, 4403.5395268844995, -22508.519590916585, 0.622, -0.778, 0.212, 192.0, 0.0, 0.0, 0.0, 0.0, 0.0, 0.0, 0.0, 0.0, 0.0, 1.6635906216301467E9, 0.0, 2022-09-19 17:30:21.630
166.0, -2350.174170753261, -3254.9951380485463, -25449.673885068165, -40934.20248439342, -187500.02235174447, -187500.02235174447, 4260.086030970339, -22012.6461401756, 0.622, -0.778, 0.212, 192.0, 0.0, 0.0, 0.0, 0.0, 0.0, 0.0, 0.0, 0.0, 0.0, 1.66359062163516E9, 0.0, 2022-09-19 17:30:21.635
167.0, -1870.7516039313798, -3189.0574919053906, -24233.89544891065, -41307.87894819724, -187500.02235174447, -187500.02235174447, 4525.17772021028, -20887.258158595345, 0.622, -0.778, 0.212, 192.0, 0.0, 0.0, 0.0, 0.0, 0.0, 0.0, 0.0, 0.0, 0.0, 1.6635906216391857E9, 0.0, 2022-09-19 17:30:21.639
168.0, -1599.4684814773182, -3087.46881335602, -24337.04874957189, -41293.082093367826, -187500.02235174447, -187500.02235174447, 4736.826388457584, -20889.068649896224, 0.622, -0.778, 0.212, 192.0, 0.0, 0.0, 0.0, 0.0, 0.0, 0.0, 0.0, 0.0, 0.0, 1.6635906216433053E9, 0.0, 2022-09-19 17:30:21.643
169.0, -1708.7685118637696, -3029.5554434723194, -25078.59022362116, -41065.22841039043, -187500.02235174447, -187500.02235174447, 4713.960553879804, -21538.78915772309, 0.624, -0.782, 0.21, 192.0, 19.0, 128.0, 231.0, 144.0, 6.0, 144.0, 0.0, 0.0, 0.0, 1.6635906216472335E9, 0.0, 2022-09-19 17:30:21.647
170.0, -2205.312514938416, -3065.7429177454615, -26141.303913748732, -40768.486651001775, -187500.02235174447, -187500.02235174447, 4428.506425441078, -22536.526326719086, 0.624, -0.782, 0.21, 192.0, 0.0, 0.0, 0.0, 0.0, 0.0, 0.0, 0.0, 0.0, 0.0, 1.6635906216511757E9, 0.0, 2022-09-19 17:30:21.651
171.0, -2348.7213073636663, -3116.6378398701954, -25398.868369921252, -40982.99634253935, -187500.02235174447, -187500.02235174447, 4288.428042939669, -21980.68314560451, 0.624, -0.782, 0.21, 192.0, 0.0, 0.0, 0.0, 0.0, 0.0, 0.0, 0.0, 0.0, 0.0, 1.6635906216542175E9, 0.0, 2022-09-19 17:30:21.654
172.0, -1851.752621144369, -3048.979109403981, -24210.60493118822, -41351.33073941836, -187500.02235174447, -187500.02235174447, 4552.804476357041, -20883.436010293488, 0.624, -0.782, 0.21, 192.0, 0.0, 0.0, 0.0, 0.0, 0.0, 0.0, 0.0, 0.0, 0.0, 1.6635906216582007E9, 0.0, 2022-09-19 17:30:21.658
173.0, -1578.9495800673462, -2950.7878960118173, -24336.78052863843, -41338.83611426784, -187500.02235174447, -187500.02235174447, 4749.589234541564, -20911.19687690698, 0.624, -0.782, 0.21, 192.0, 0.0, 0.0, 0.0, 0.0, 0.0, 0.0, 0.0, 0.0, 0.0, 1.6635906216622508E9, 0.0, 2022-09-19 17:30:21.662
174.0, -1700.2301454818423, -2908.8336716692056, -25091.06249702722, -41123.544111674324, -187500.02235174447, -187500.02235174447, 4721.381333038966, -21580.251643687683, 0.624, -0.782, 0.21, 192.0, 0.0, 0.0, 0.0, 0.0, 0.0, 0.0, 0.0, 0.0, 0.0, 1.6635906216672876E9, 0.0, 2022-09-19 17:30:21.667
175.0, -2185.6206280732904, -2958.856875760183, -26123.578980395676, -40845.01902401674, -187500.02235174447, -187500.02235174447, 4435.770742389052, -22555.190033339266, 0.624, -0.782, 0.21, 192.0, 0.0, 0.0, 0.0, 0.0, 0.0, 0.0, 0.0, 0.0, 0.0, 1.6635906216712232E9, 0.0, 2022-09-19 17:30:21.671
176.0, -2278.0003879070746, -3016.703190410518, -25314.445831113557, -41084.85324202219, -187500.02235174447, -187500.02235174447, 4319.698133432643, -21908.19643833595, 0.624, -0.782, 0.21, 192.0, 0.0, 0.0, 0.0, 0.0, 0.0, 0.0, 0.0, 0.0, 0.0, 1.6635906216752782E9, 0.0, 2022-09-19 17:30:21.675
177.0, -1782.9763034553891, -2954.878265247138, -24154.837328772228, -41453.47821157911, -187500.02235174447, -187500.02235174447, 4598.334979812501, -20825.477936920874, 0.624, -0.782, 0.21, 192.0, 0.0, 0.0, 0.0, 0.0, 0.0, 0.0, 0.0, 0.0, 0.0, 1.66359062167822E9, 0.0, 2022-09-19 17:30:21.678
178.0, -1532.0779719445673, -2853.7366215868738, -24307.656205613162, -41434.367470069825, -187500.02235174447, -187500.02235174447, 4796.8184705756275, -20891.750859230862, 0.624, -0.782, 0.21, 192.0, 0.0, 0.0, 0.0, 0.0, 0.0, 0.0, 0.0, 0.0, 0.0, 1.6635906216823754E9, 0.0, 2022-09-19 17:30:21.682
179.0, -1674.6373980805158, -2812.6541152780196, -25075.39392416405, -41211.11824645022, -187500.02235174447, -187500.02235174447, 4764.676662048896, -21574.440190129306, 0.626, -0.774, 0.20600000000000002, 192.0, 19.0, 144.0, 231.0, 208.0, 6.0, 112.0, 0.0, 0.0, 0.0, 1.663590621686278E9, 0.0, 2022-09-19 17:30:21.686
180.0, -2175.8752674907764, -2878.323540487712, -26090.16312243499, -40942.24911239733, -187500.02235174447, -187500.02235174447, 4470.013614894583, -22555.815882184015, 0.626, -0.774, 0.20600000000000002, 192.0, 0.0, 0.0, 0.0, 0.0, 0.0, 0.0, 0.0, 0.0, 0.0, 1.6635906216902745E9, 0.0, 2022-09-19 17:30:21.690
181.0, -2245.7691724025217, -2925.5527765217753, -25215.89698981011, -41196.09787417625, -187500.02235174447, -187500.02235174447, 4372.001215458062, -21881.888435112054, 0.626, -0.774, 0.20600000000000002, 192.0, 0.0, 0.0, 0.0, 0.0, 0.0, 0.0, 0.0, 0.0, 0.0, 1.6635906216953127E9, 0.0, 2022-09-19 17:30:21.695
182.0, -1748.0852303606548, -2844.728868571385, -24111.05026138428, -41542.48285800015, -187500.02235174447, -187500.02235174447, 4655.2425211957125, -20788.955186480904, 0.626, -0.774, 0.20600000000000002, 192.0, 0.0, 0.0, 0.0, 0.0, 0.0, 0.0, 0.0, 0.0, 0.0, 1.6635906216993127E9, 0.0, 2022-09-19 17:30:21.699
183.0, -1508.0945501440228, -2742.939024321917, -24310.67369111463, -41499.947488301696, -187500.02235174447, -187500.02235174447, 4839.443247251898, -20868.527396741796, 0.626, -0.774, 0.20600000000000002, 192.0, 0.0, 0.0, 0.0, 0.0, 0.0, 0.0, 0.0, 0.0, 0.0, 1.6635906217033155E9, 0.0, 2022-09-19 17:30:21.703
184.0, -1670.1223457005437, -2702.2364976688027, -25122.958436364945, -41251.86547659224, -187500.02235174447, -187500.02235174447, 4784.145031469468, -21588.387678669416, 0.626, -0.774, 0.20600000000000002, 192.0, 0.0, 0.0, 0.0, 0.0, 0.0, 0.0, 0.0, 0.0, 0.0, 1.6635906217063172E9, 0.0, 2022-09-19 17:30:21.706
185.0, -2177.305779135916, -2737.35108820809, -26072.01350593728, -40967.171307464996, -187500.02235174447, -187500.02235174447, 4495.136975662348, -22540.102605831937, 0.626, -0.774, 0.20600000000000002, 192.0, 0.0, 0.0, 0.0, 0.0, 0.0, 0.0, 0.0, 0.0, 0.0, 1.6635906217103753E9, 0.0, 2022-09-19 17:30:21.710
186.0, -2223.2386139915725, -2758.0264518292493, -25149.959343666953, -41220.14835121016, -187500.02235174447, -187500.02235174447, 4402.243125706092, -21801.824486473142, 0.626, -0.774, 0.20600000000000002, 192.0, 0.0, 0.0, 0.0, 0.0, 0.0, 0.0, 0.0, 0.0, 0.0, 1.6635906217143543E9, 0.0, 2022-09-19 17:30:21.714
187.0, -1726.9404801059343, -2664.998491406261, -24095.225226309925, -41553.278750572055, -187500.02235174447, -187500.02235174447, 4678.957722062793, -20768.212767626377, 0.626, -0.774, 0.20600000000000002, 192.0, 0.0, 0.0, 0.0, 0.0, 0.0, 0.0, 0.0, 0.0, 0.0, 1.663590621718321E9, 0.0, 2022-09-19 17:30:21.718
188.0, -1506.1499483764112, -2546.869521959963, -24302.47060089953, -41504.82016859295, -187500.02235174447, -187500.02235174447, 4858.106953872079, -20868.70621069744, 0.626, -0.774, 0.20600000000000002, 192.0, 0.0, 0.0, 0.0, 0.0, 0.0, 0.0, 0.0, 0.0, 0.0, 1.6635906217233288E9, 0.0, 2022-09-19 17:30:21.723
189.0, -1677.5878283486163, -2491.7054166442654, -25129.127517834608, -41257.11813653924, -187500.02235174447, -187500.02235174447, 4801.802909589161, -21598.445963674305, 0.626, -0.774, 0.20600000000000002, 192.0, 0.0, 0.0, 0.0, 0.0, 0.0, 0.0, 0.0, 0.0, 0.0, 1.6635906217274337E9, 0.0, 2022-09-19 17:30:21.727
190.0, -2166.2416656305395, -2531.1115421189716, -26033.613208963063, -40986.25969722983, -187500.02235174447, -187500.02235174447, 4514.001847982628, -22515.82861135347, 0.624, -0.77, 0.20800000000000002, 192.0, 19.0, 128.0, 231.0, 240.0, 6.0, 128.0, 0.0, 0.0, 0.0, 1.663590621731381E9, 0.0, 2022-09-19 17:30:21.731
191.0, -2167.828639486866, -2570.7858885271417, -25069.805988050222, -41262.92959009762, -187500.02235174447, -187500.02235174447, 4435.658983666776, -21759.40087549697, 0.624, -0.77, 0.20800000000000002, 192.0, 0.0, 0.0, 0.0, 0.0, 0.0, 0.0, 0.0, 0.0, 0.0, 1.663590621734378E9, 0.0, 2022-09-19 17:30:21.734
192.0, -1666.6131218210605, -2496.265172513148, -24052.175766489003, -41582.53718406406, -187500.02235174447, -187500.02235174447, 4715.88280390296, -20744.85519467058, 0.624, -0.77, 0.20800000000000002, 192.0, 0.0, 0.0, 0.0, 0.0, 0.0, 0.0, 0.0, 0.0, 0.0, 1.663590621738366E9, 0.0, 2022-09-19 17:30:21.738
193.0, -1465.5815321900288, -2391.659008462311, -24292.36761240573, -41515.41489546477, -187500.02235174447, -187500.02235174447, 4880.369291349565, -20875.098809611656, 0.624, -0.77, 0.20800000000000002, 192.0, 0.0, 0.0, 0.0, 0.0, 0.0, 0.0, 0.0, 0.0, 0.0, 1.6635906217424235E9, 0.0, 2022-09-19 17:30:21.742
194.0, -1652.1068396695662, -2338.41715316977, -25150.54048902279, -41245.87520907822, -187500.02235174447, -187500.02235174447, 4804.865098579538, -21634.812251903088, 0.624, -0.77, 0.20800000000000002, 192.0, 0.0, 0.0, 0.0, 0.0, 0.0, 0.0, 0.0, 0.0, 0.0, 1.6635906217464035E9, 0.0, 2022-09-19 17:30:21.746
195.0, -2159.670252760679, -2384.752319425621, -26074.87452922756, -40969.20531621043, -187500.02235174447, -187500.02235174447, 4499.428510597767, -22537.062768586013, 0.624, -0.77, 0.20800000000000002, 192.0, 0.0, 0.0, 0.0, 0.0, 0.0, 0.0, 0.0, 0.0, 0.0, 1.6635906217503977E9, 0.0, 2022-09-19 17:30:21.750
196.0, -2169.2367993875505, -2417.922308197297, -25055.500871598826, -41237.11332525174, -187500.02235174447, -187500.02235174447, 4430.585137675422, -21721.089985500574, 0.624, -0.77, 0.20800000000000002, 192.0, 0.0, 0.0, 0.0, 0.0, 0.0, 0.0, 0.0, 0.0, 0.0, 1.6635906217553697E9, 0.0, 2022-09-19 17:30:21.755
197.0, -1686.9085057864793, -2345.726173606655, -24080.741295902884, -41527.17191304826, -187500.02235174447, -187500.02235174447, 4704.237545041746, -20777.198168897412, 0.624, -0.77, 0.20800000000000002, 192.0, 0.0, 0.0, 0.0, 0.0, 0.0, 0.0, 0.0, 0.0, 0.0, 1.6635906217584293E9, 0.0, 2022-09-19 17:30:21.758
198.0, -1500.897288429414, -2249.3454515153708, -24345.698874676094, -41440.737717239586, -187500.02235174447, -187500.02235174447, 4858.129305616535, -20950.334781448222, 0.624, -0.77, 0.20800000000000002, 192.0, 0.0, 0.0, 0.0, 0.0, 0.0, 0.0, 0.0, 0.0, 0.0, 1.6635906217624202E9, 0.0, 2022-09-19 17:30:21.762
199.0, -1697.5479361472055, -2206.9441922836536, -25236.52764994236, -41157.7646324354, -187500.02235174447, -187500.02235174447, 4771.046909218659, -21735.663322885433, 0.624, -0.77, 0.20800000000000002, 192.0, 0.0, 0.0, 0.0, 0.0, 0.0, 0.0, 0.0, 0.0, 0.0, 1.6635906217664304E9, 0.0, 2022-09-19 17:30:21.766
200.0, -2215.4825586655807, -2266.9139226572424, -26130.619779899094, -40883.553431457694, -187500.02235174447, -187500.02235174447, 4451.4393152522225, -22608.90127526537, 0.62, -0.772, 0.20800000000000002, 192.0, 19.0, 96.0, 231.0, 224.0, 6.0, 128.0, 0.0, 0.0, 0.0, 1.6635906217704568E9, 0.0, 2022-09-19 17:30:21.770
201.0, -2212.8450528198546, -2297.021722438541, -25073.0693427407, -41155.82003066779, -187500.02235174447, -187500.02235174447, 4384.540544097489, -21748.9849625808, 0.62, -0.772, 0.20800000000000002, 192.0, 0.0, 0.0, 0.0, 0.0, 0.0, 0.0, 0.0, 0.0, 0.0, 1.663590621774416E9, 0.0, 2022-09-19 17:30:21.774
202.0, -1737.4905034888393, -2213.739122598067, -24151.1492909371, -41422.543397252964, -187500.02235174447, -187500.02235174447, 4655.041355495615, -20849.30489651023, 0.62, -0.772, 0.20800000000000002, 192.0, 0.0, 0.0, 0.0, 0.0, 0.0, 0.0, 0.0, 0.0, 0.0, 1.6635906217784696E9, 0.0, 2022-09-19 17:30:21.778
203.0, -1569.1818677403771, -2113.804473138389, -24454.75303587354, -41318.49602681351, -187500.02235174447, -187500.02235174447, 4792.795156573672, -21060.1712537016, 0.62, -0.772, 0.20800000000000002, 192.0, 0.0, 0.0, 0.0, 0.0, 0.0, 0.0, 0.0, 0.0, 0.0, 1.6635906217834897E9, 0.0, 2022-09-19 17:30:21.783
204.0, -1784.6973877784478, -2075.5382866309033, -25374.8402446318, -41018.60267145666, -187500.02235174447, -187500.02235174447, 4685.21621051028, -21878.870949610588, 0.62, -0.772, 0.20800000000000002, 192.0, 0.0, 0.0, 0.0, 0.0, 0.0, 0.0, 0.0, 0.0, 0.0, 1.663590621786471E9, 0.0, 2022-09-19 17:30:21.786
205.0, -2304.7107225311665, -2126.7237814335563, -26217.858638508158, -40741.79866812214, -187500.02235174447, -187500.02235174447, 4359.998328685561, -22701.92923568836, 0.62, -0.772, 0.20800000000000002, 192.0, 0.0, 0.0, 0.0, 0.0, 0.0, 0.0, 0.0, 0.0, 0.0, 1.6635906217904754E9, 0.0, 2022-09-19 17:30:21.790
206.0, -2275.899323928276, -2149.7013747336123, -25119.11393631863, -41012.36653475363, -187500.02235174447, -187500.02235174447, 4306.801176881931, -21798.918759693952, 0.62, -0.772, 0.20800000000000002, 192.0, 0.0, 0.0, 0.0, 0.0, 0.0, 0.0, 0.0, 0.0, 0.0, 1.6635906217944992E9, 0.0, 2022-09-19 17:30:21.794
207.0, -1806.6020973446487, -2066.150553959674, -24254.23553636498, -41247.32807246782, -187500.02235174447, -187500.02235174447, 4573.14456381137, -20942.981057522426, 0.62, -0.772, 0.20800000000000002, 192.0, 0.0, 0.0, 0.0, 0.0, 0.0, 0.0, 0.0, 0.0, 0.0, 1.6635906217984889E9, 0.0, 2022-09-19 17:30:21.798
208.0, -1656.666595538449, -1971.3344539802617, -24581.845054846413, -41118.20204474951, -187500.02235174447, -187500.02235174447, 4695.229792026257, -21170.499464332996, 0.62, -0.772, 0.20800000000000002, 192.0, 0.0, 0.0, 0.0, 0.0, 0.0, 0.0, 0.0, 0.0, 0.0, 1.6635906218025017E9, 0.0, 2022-09-19 17:30:21.802
209.0, -1890.9128774300668, -1944.4676571449827, -25537.404482055248, -40794.5264332922, -187500.02235174447, -187500.02235174447, 4576.206752801747, -22014.903666365586, 0.62, -0.772, 0.20800000000000002, 192.0, 0.0, 0.0, 0.0, 0.0, 0.0, 0.0, 0.0, 0.0, 0.0, 1.663590621806566E9, 0.0, 2022-09-19 17:30:21.806
210.0, -2409.5404040265566, -2015.2109283460295, -26342.0672824463, -40519.7117352142, -187500.02235174447, -187500.02235174447, 4248.88780699823, -22819.767632456736, 0.622, -0.772, 0.21, 192.0, 19.0, 112.0, 231.0, 224.0, 6.0, 144.0, 0.0, 0.0, 0.0, 1.6635906218115273E9, 0.0, 2022-09-19 17:30:21.811
211.0, -2352.208179498694, -2055.8911032546885, -25178.70368703648, -40803.06479967413, -187500.02235174447, -187500.02235174447, 4214.890803681708, -21844.628077105055, 0.622, -0.772, 0.21, 192.0, 0.0, 0.0, 0.0, 0.0, 0.0, 0.0, 0.0, 0.0, 0.0, 1.66359062181452E9, 0.0, 2022-09-19 17:30:21.814
212.0, -1871.8021359207794, -1974.3072359928176, -24337.2946187609, -41046.25177934788, -187500.02235174447, -187500.02235174447, 4495.4051965958115, -21020.854535204715, 0.622, -0.772, 0.21, 192.0, 0.0, 0.0, 0.0, 0.0, 0.0, 0.0, 0.0, 0.0, 0.0, 1.6635906218185215E9, 0.0, 2022-09-19 17:30:21.818
213.0, -1716.591622423127, -1881.9945313923993, -24654.465872581706, -40950.40749912352, -187500.02235174447, -187500.02235174447, 4630.2979743835895, -21251.97157287259, 0.622, -0.772, 0.21, 192.0, 0.0, 0.0, 0.0, 0.0, 0.0, 0.0, 0.0, 0.0, 0.0, 1.6635906218225436E9, 0.0, 2022-09-19 17:30:21.822
214.0, -1945.8534653012116, -1854.3230717567292, -25580.856273276364, -40677.58210630204, -187500.02235174447, -187500.02235174447, 4532.352630180434, -22096.57694060528, 0.622, -0.772, 0.21, 192.0, 0.0, 0.0, 0.0, 0.0, 0.0, 0.0, 0.0, 0.0, 0.0, 1.663590621826583E9, 0.0, 2022-09-19 17:30:21.826
215.0, -2423.398485588847, -1905.6873805150249, -26307.712651218495, -40468.54859215601, -187500.02235174447, -187500.02235174447, 4240.528254571946, -22815.654911476962, 0.622, -0.772, 0.21, 192.0, 0.0, 0.0, 0.0, 0.0, 0.0, 0.0, 0.0, 0.0, 0.0, 1.6635906218305435E9, 0.0, 2022-09-19 17:30:21.830
216.0, -2309.3151818889596, -1934.9234622625665, -25090.794276093755, -40815.045334702176, -187500.02235174447, -187500.02235174447, 4250.206559921094, -21817.068376191663, 0.622, -0.772, 0.21, 192.0, 0.0, 0.0, 0.0, 0.0, 0.0, 0.0, 0.0, 0.0, 0.0, 1.6635906218345315E9, 0.0, 2022-09-19 17:30:21.834
217.0, -1806.1550624555425, -1860.2686357818409, -24301.978862521515, -41095.06798923826, -187500.02235174447, -187500.02235174447, 4544.2437582306575, -21031.06928242079, 0.622, -0.772, 0.21, 192.0, 0.0, 0.0, 0.0, 0.0, 0.0, 0.0, 0.0, 0.0, 0.0, 1.663590621839629E9, 0.0, 2022-09-19 17:30:21.839
218.0, -1645.8483512220803, -1766.9948061698444, -24605.269683035574, -41017.5297877228, -187500.02235174447, -187500.02235174447, 4687.160812277891, -21226.49058419354, 0.622, -0.772, 0.21, 192.0, 0.0, 0.0, 0.0, 0.0, 0.0, 0.0, 0.0, 0.0, 0.0, 1.6635906218425703E9, 0.0, 2022-09-19 17:30:21.842
219.0, -1879.6028947356815, -1735.367087765585, -25515.678586444687, -40745.33024374607, -187500.02235174447, -187500.02235174447, 4593.149375098869, -22058.51191979789, 0.622, -0.772, 0.21, 192.0, 0.0, 0.0, 0.0, 0.0, 0.0, 0.0, 0.0, 0.0, 0.0, 1.6635906218455513E9, 0.0, 2022-09-19 17:30:21.845
220.0, -2363.6075691709007, -1790.7323587813805, -26209.812010504247, -40555.608636809426, -187500.02235174447, -187500.02235174447, 4298.866307600297, -22758.54620439365, 0.626, -0.782, 0.212, 192.0, 19.0, 144.0, 231.0, 144.0, 6.0, 160.0, 0.0, 0.0, 0.0, 1.6635906218505907E9, 0.0, 2022-09-19 17:30:21.850
221.0, -2241.2541200225496, -1806.9597252559336, -24972.642954903004, -40914.39883880602, -187500.02235174447, -187500.02235174447, 4314.132549063272, -21716.709043587332, 0.626, -0.782, 0.212, 192.0, 0.0, 0.0, 0.0, 0.0, 0.0, 0.0, 0.0, 0.0, 0.0, 1.6635906218545406E9, 0.0, 2022-09-19 17:30:21.854
222.0, -1755.5954164976379, -1721.2184335253758, -24219.545628970343, -41172.11445237571, -187500.02235174447, -187500.02235174447, 4612.282468352612, -20947.026723268835, 0.626, -0.782, 0.212, 192.0, 0.0, 0.0, 0.0, 0.0, 0.0, 0.0, 0.0, 0.0, 0.0, 1.6635906218585835E9, 0.0, 2022-09-19 17:30:21.858
223.0, -1605.212879802332, -1626.4470370348738, -24560.63324935833, -41079.68998905301, -187500.02235174447, -187500.02235174447, 4755.355984611033, -21187.263272674474, 0.626, -0.782, 0.212, 192.0, 0.0, 0.0, 0.0, 0.0, 0.0, 0.0, 0.0, 0.0, 0.0, 1.6635906218625932E9, 0.0, 2022-09-19 17:30:21.862
224.0, -1855.9547491019666, -1600.2507925332538, -25537.069205888416, -40801.14254965098, -187500.02235174447, -187500.02235174447, 4645.653622824386, -22061.819977977273, 0.626, -0.782, 0.212, 192.0, 0.0, 0.0, 0.0, 0.0, 0.0, 0.0, 0.0, 0.0, 0.0, 1.6635906218676972E9, 0.0, 2022-09-19 17:30:21.867
225.0, -2344.899159061809, -1661.2039996628762, -26169.981201884893, -40623.31207076455, -187500.02235174447, -187500.02235174447, 4350.1859128696815, -22730.137137190955, 0.626, -0.782, 0.212, 192.0, 0.0, 0.0, 0.0, 0.0, 0.0, 0.0, 0.0, 0.0, 0.0, 1.66359062187068E9, 0.0, 2022-09-19 17:30:21.870
226.0, -2190.4262531311815, -1672.7374998018147, -24887.63927073947, -40990.55123216525, -187500.02235174447, -187500.02235174447, 4380.718395795631, -21659.600336504023, 0.626, -0.782, 0.212, 192.0, 0.0, 0.0, 0.0, 0.0, 0.0, 0.0, 0.0, 0.0, 0.0, 1.6635906218736744E9, 0.0, 2022-09-19 17:30:21.873
227.0, -1688.8754592985463, -1573.2945887201536, -24172.98694526994, -41229.737249581485, -187500.02235174447, -187500.02235174447, 4677.035472039637, -20942.37756042213, 0.626, -0.782, 0.212, 192.0, 0.0, 0.0, 0.0, 0.0, 0.0, 0.0, 0.0, 0.0, 0.0, 1.663590621878687E9, 0.0, 2022-09-19 17:30:21.878
228.0, -1560.7552600807262, -1473.6058084494841, -24525.496307074583, -41130.897835600124, -187500.02235174447, -187500.02235174447, 4804.239249734789, -21189.76666805347, 0.626, -0.782, 0.212, 192.0, 0.0, 0.0, 0.0, 0.0, 0.0, 0.0, 0.0, 0.0, 0.0, 1.6635906218826776E9, 0.0, 2022-09-19 17:30:21.882
229.0, -1825.3775626871065, -1440.927558055825, -25515.499772489045, -40844.08025074962, -187500.02235174447, -187500.02235174447, 4686.222039010768, -22082.584748576253, 0.626, -0.782, 0.212, 192.0, 0.0, 0.0, 0.0, 0.0, 0.0, 0.0, 0.0, 0.0, 0.0, 1.663590621886674E9, 0.0, 2022-09-19 17:30:21.886
230.0, -2294.495975315091, -1499.1538523619, -26106.032860998257, -40678.654990035895, -187500.02235174447, -187500.02235174447, 4392.0954337233825, -22715.563799806096, 0.628, -0.774, 0.214, 192.0, 19.0, 160.0, 231.0, 208.0, 6.0, 176.0, 0.0, 0.0, 0.0, 1.663590621890653E9, 0.0, 2022-09-19 17:30:21.890
231.0, -2120.666458686168, -1506.7087419877937, -24805.04957497711, -41059.03697717631, -187500.02235174447, -187500.02235174447, 4430.987469075617, -21609.823001602057, 0.628, -0.774, 0.214, 192.0, 0.0, 0.0, 0.0, 0.0, 0.0, 0.0, 0.0, 0.0, 0.0, 1.6635906218946888E9, 0.0, 2022-09-19 17:30:21.894
232.0, -1645.624833777527, -1401.2308599031999, -24134.67605527354, -41286.39892177569, -187500.02235174447, -187500.02235174447, 4724.801149940628, -20913.00736820786, 0.628, -0.774, 0.214, 192.0, 0.0, 0.0, 0.0, 0.0, 0.0, 0.0, 0.0, 0.0, 0.0, 1.6635906218986409E9, 0.0, 2022-09-19 17:30:21.898
233.0, -1535.0954574460338, -1297.8987452863153, -24515.482725558606, -41179.758748979424, -187500.02235174447, -187500.02235174447, 4844.807665921172, -21167.191406153608, 0.628, -0.774, 0.214, 192.0, 0.0, 0.0, 0.0, 0.0, 0.0, 0.0, 0.0, 0.0, 0.0, 1.6635906219017103E9, 0.0, 2022-09-19 17:30:21.901
234.0, -1792.140518682065, -1265.421660592754, -25515.075089344395, -40884.268687280266, -187500.02235174447, -187500.02235174447, 4723.102417362024, -22081.89184449814, 0.628, -0.774, 0.214, 192.0, 0.0, 0.0, 0.0, 0.0, 0.0, 0.0, 0.0, 0.0, 0.0, 1.6635906219066143E9, 0.0, 2022-09-19 17:30:21.906
235.0, -2250.3959835047704, -1319.4458269412312, -26045.549040502196, -40729.885188327455, -187500.02235174447, -187500.02235174447, 4432.753256887586, -22651.30253449709, 0.628, -0.774, 0.214, 192.0, 0.0, 0.0, 0.0, 0.0, 0.0, 0.0, 0.0, 0.0, 0.0, 1.6635906219106193E9, 0.0, 2022-09-19 17:30:21.910
236.0, -2056.8969317551773, -1320.4963589306305, -24729.81360314055, -41111.76474234638, -187500.02235174447, -187500.02235174447, 4483.335254589946, -21514.045776611063, 0.628, -0.774, 0.214, 192.0, 0.0, 0.0, 0.0, 0.0, 0.0, 0.0, 0.0, 0.0, 0.0, 1.663590621914607E9, 0.0, 2022-09-19 17:30:21.914
237.0, -1597.7697488987149, -1221.2322618046119, -24096.789848421795, -41325.33566061684, -187500.02235174447, -187500.02235174447, 4775.763127298728, -20865.73342868488, 0.628, -0.774, 0.214, 192.0, 0.0, 0.0, 0.0, 0.0, 0.0, 0.0, 0.0, 0.0, 0.0, 1.6635906219186769E9, 0.0, 2022-09-19 17:30:21.918
238.0, -1495.018779637668, -1125.723257747085, -24496.148466604765, -41214.76158079643, -187500.02235174447, -187500.02235174447, 4881.799802994705, -21150.24878385649, 0.628, -0.774, 0.214, 192.0, 0.0, 0.0, 0.0, 0.0, 0.0, 0.0, 0.0, 0.0, 0.0, 1.6635906219216795E9, 0.0, 2022-09-19 17:30:21.921
239.0, -1777.8577539751238, -1100.2869725569456, -25534.4764035316, -40914.7564667173, -187500.02235174447, -187500.02235174447, 4744.6942025058515, -22073.062905438295, 0.628, -0.774, 0.214, 192.0, 0.0, 0.0, 0.0, 0.0, 0.0, 0.0, 0.0, 0.0, 0.0, 1.6635906219256804E9, 0.0, 2022-09-19 17:30:21.925
240.0, -2218.947079056153, -1155.2946156614562, -25988.75325784126, -40773.940476648866, -187500.02235174447, -187500.02235174447, 4466.280873570547, -22582.95089995276, 0.63, -0.77, 0.216, 192.0, 19.0, 176.0, 231.0, 240.0, 6.0, 192.0, 0.0, 0.0, 0.0, 1.663590621929644E9, 0.0, 2022-09-19 17:30:21.929
241.0, -1992.0545210903313, -1158.625025585297, -24620.558276243006, -41160.603303981225, -187500.02235174447, -187500.02235174447, 4546.4118774428225, -21420.973112699165, 0.63, -0.77, 0.216, 192.0, 0.0, 0.0, 0.0, 0.0, 0.0, 0.0, 0.0, 0.0, 0.0, 1.6635906219346867E9, 0.0, 2022-09-19 17:30:21.934
242.0, -1526.0430009416343, -1079.8798298692502, -24051.125234499603, -41361.6125418678, -187500.02235174447, -187500.02235174447, 4838.817398407149, -20821.029939774267, 0.63, -0.77, 0.216, 192.0, 0.0, 0.0, 0.0, 0.0, 0.0, 0.0, 0.0, 0.0, 0.0, 1.663590621938668E9, 0.0, 2022-09-19 17:30:21.938
243.0, -1435.6301946199173, -1015.5291575824211, -24468.61111743583, -41250.502020180465, -187500.02235174447, -187500.02235174447, 4943.222396757888, -21142.80565295287, 0.63, -0.77, 0.216, 192.0, 0.0, 0.0, 0.0, 0.0, 0.0, 0.0, 0.0, 0.0, 0.0, 1.6635906219427965E9, 0.0, 2022-09-19 17:30:21.942
244.0, -1736.9317098774566, -1014.4115703596557, -25508.771897407998, -40949.334615389664, -187500.02235174447, -187500.02235174447, 4806.161499757945, -22068.79372224733, 0.63, -0.77, 0.216, 192.0, 0.0, 0.0, 0.0, 0.0, 0.0, 0.0, 0.0, 0.0, 0.0, 1.6635906219466665E9, 0.0, 2022-09-19 17:30:21.946
245.0, -2179.5856570703577, -1080.5056787139988, -25919.015815140705, -40829.41750638694, -187500.02235174447, -187500.02235174447, 4521.623792841887, -22534.60407669593, 0.63, -0.77, 0.216, 192.0, 0.0, 0.0, 0.0, 0.0, 0.0, 0.0, 0.0, 0.0, 0.0, 1.663590621949725E9, 0.0, 2022-09-19 17:30:21.949
246.0, -1930.1178372046754, -1071.2520565095017, -24541.231935171123, -41228.59731061427, -187500.02235174447, -187500.02235174447, 4608.169747372835, -21336.572925635926, 0.63, -0.77, 0.216, 192.0, 0.0, 0.0, 0.0, 0.0, 0.0, 0.0, 0.0, 0.0, 0.0, 1.6635906219537237E9, 0.0, 2022-09-19 17:30:21.953
247.0, -1472.8234973935482, -974.2231338290136, -24021.88915275206, -41419.481208262594, -187500.02235174447, -187500.02235174447, 4894.182669422945, -20734.975723621337, 0.63, -0.77, 0.216, 192.0, 0.0, 0.0, 0.0, 0.0, 0.0, 0.0, 0.0, 0.0, 0.0, 1.663590621958774E9, 0.0, 2022-09-19 17:30:21.958
248.0, -1389.809118486538, -892.9521909895171, -24455.691809140662, -41305.71082898508, -187500.02235174447, -187500.02235174447, 4986.473022278908, -21080.064306266824, 0.63, -0.77, 0.216, 192.0, 0.0, 0.0, 0.0, 0.0, 0.0, 0.0, 0.0, 0.0, 0.0, 1.6635906219627883E9, 0.0, 2022-09-19 17:30:21.962
249.0, -1689.3671976765631, -871.6509785236095, -25499.18299903667, -41006.376267239604, -187500.02235174447, -187500.02235174447, 4844.4276862654315, -22021.07274783525, 0.63, -0.77, 0.216, 192.0, 0.0, 0.0, 0.0, 0.0, 0.0, 0.0, 0.0, 0.0, 0.0, 1.663590621966716E9, 0.0, 2022-09-19 17:30:21.966
250.0, -2115.994944095009, -924.825778582785, -25832.715729798765, -40902.28419331124, -187500.02235174447, -187500.02235174447, 4581.034729604093, -22422.10774685237, 0.626, -0.774, 0.202, 192.0, 19.0, 144.0, 231.0, 208.0, 6.0, 80.0, 0.0, 0.0, 0.0, 1.6635906219697227E9, 0.0, 2022-09-19 17:30:21.969
251.0, -1846.0976297971763, -917.404999423623, -24438.525669398987, -41307.767189474966, -187500.02235174447, -187500.02235174447, 4687.898419844916, -21211.67137761967, 0.626, -0.774, 0.202, 192.0, 0.0, 0.0, 0.0, 0.0, 0.0, 0.0, 0.0, 0.0, 0.0, 1.6635906219737961E9, 0.0, 2022-09-19 17:30:21.973
252.0, -1398.638057546384, -817.8726813641407, -23957.493776976324, -41486.4917381396, -187500.02235174447, -187500.02235174447, 4972.659644205528, -20677.24116769328, 0.626, -0.774, 0.202, 192.0, 0.0, 0.0, 0.0, 0.0, 0.0, 0.0, 0.0, 0.0, 0.0, 1.6635906219787571E9, 0.0, 2022-09-19 17:30:21.978
253.0, -1330.2864230020552, -727.1469506200493, -24405.02040446048, -41361.70194884562, -187500.02235174447, -187500.02235174447, 5055.38345043462, -21027.045968418835, 0.626, -0.774, 0.202, 192.0, 0.0, 0.0, 0.0, 0.0, 0.0, 0.0, 0.0, 0.0, 0.0, 1.6635906219827464E9, 0.0, 2022-09-19 17:30:21.982
254.0, -1659.9299502289236, -711.7018952014322, -25479.17818774917, -41055.97478818593, -187500.02235174447, -187500.02235174447, 4889.175878664956, -21997.134029523615, 0.626, -0.774, 0.202, 192.0, 0.0, 0.0, 0.0, 0.0, 0.0, 0.0, 0.0, 0.0, 0.0, 1.663590621986757E9, 0.0, 2022-09-19 17:30:21.986
255.0, -2086.669455369646, -757.9253027350072, -25764.67701967681, -40969.98762726637, -187500.02235174447, -187500.02235174447, 4609.756721229162, -22356.415969898222, 0.626, -0.774, 0.202, 192.0, 0.0, 0.0, 0.0, 0.0, 0.0, 0.0, 0.0, 0.0, 0.0, 1.6635906219907987E9, 0.0, 2022-09-19 17:30:21.990
0.0, -1797.3261233956962, -724.4423895409572, -24353.700799191094, -41377.19170775315, -187500.02235174447, -187500.02235174447, 4726.477530774776, -21127.070024856333, 0.626, -0.774, 0.202, 192.0, 0.0, 0.0, 0.0, 0.0, 0.0, 0.0, 0.0, 0.0, 0.0, 1.6635906219937932E9, 0.0, 2022-09-19 17:30:21.993
1.0, -1354.5827692249738, -614.807082987676, -23921.708634103376, -41538.72776493165, -187500.02235174447, -187500.02235174447, 5010.2329266349, -20625.251010090233, 0.626, -0.774, 0.202, 192.0, 0.0, 0.0, 0.0, 0.0, 0.0, 0.0, 0.0, 0.0, 0.0, 1.6635906219977832E9, 0.0, 2022-09-19 17:30:21.997
2.0, -1298.7034080867063, -527.6576313564339, -24390.20119788661, -41406.51719647851, -187500.02235174447, -187500.02235174447, 5092.4873462304295, -20980.844912629713, 0.626, -0.774, 0.202, 192.0, 0.0, 0.0, 0.0, 0.0, 0.0, 0.0, 0.0, 0.0, 0.0, 1.6635906220017743E9, 0.0, 2022-09-19 17:30:22.001
3.0, -1643.7472872432813, -522.069695242607, -25486.777780863977, -41096.74437007241, -187500.02235174447, -187500.02235174447, 4918.814291812693, -21971.11659897764, 0.626, -0.774, 0.202, 192.0, 0.0, 0.0, 0.0, 0.0, 0.0, 0.0, 0.0, 0.0, 0.0, 1.663590622006794E9, 0.0, 2022-09-19 17:30:22.006
4.0, -2051.5325130859032, -576.6079517135563, -25688.07759142847, -41026.3363750382, -187500.02235174447, -187500.02235174447, 4657.187122963324, -22274.98856484754, 0.63, -0.774, 0.202, 192.0, 19.0, 176.0, 231.0, 208.0, 6.0, 80.0, 0.0, 0.0, 0.0, 1.663590622010785E9, 0.0, 2022-09-19 17:30:22.010
5.0, -1743.816047169691, -559.77708813871, -24271.22286215101, -41443.41992657422, -187500.02235174447, -187500.02235174447, 4784.703825080851, -21044.41327386061, 0.63, -0.774, 0.202, 192.0, 0.0, 0.0, 0.0, 0.0, 0.0, 0.0, 0.0, 0.0, 0.0, 1.66359062201479E9, 0.0, 2022-09-19 17:30:22.014
6.0, -1313.9920012941363, -464.06691838108526, -23886.30347088617, -41600.37387613939, -187500.02235174447, -187500.02235174447, 5060.658462126072, -20603.860390646507, 0.63, -0.774, 0.202, 192.0, 0.0, 0.0, 0.0, 0.0, 0.0, 0.0, 0.0, 0.0, 0.0, 1.663590622017806E9, 0.0, 2022-09-19 17:30:22.017
7.0, -1268.1038699273909, -386.1263854654295, -24372.900947678205, -41463.89412449529, -187500.02235174447, -187500.02235174447, 5134.106294406211, -20976.91100560558, 0.63, -0.774, 0.202, 192.0, 0.0, 0.0, 0.0, 0.0, 0.0, 0.0, 0.0, 0.0, 0.0, 1.6635906220218048E9, 0.0, 2022-09-19 17:30:22.021
8.0, -1634.5160167832396, -385.20996394276193, -25474.372562691282, -41152.80254516632, -187500.02235174447, -187500.02235174447, 4952.543074195752, -21983.29829970578, 0.63, -0.774, 0.202, 192.0, 0.0, 0.0, 0.0, 0.0, 0.0, 0.0, 0.0, 0.0, 0.0, 1.6635906220258095E9, 0.0, 2022-09-19 17:30:22.025
9.0, -2023.7269429835014, -439.18942680232846, -25617.93781732772, -41103.561652131284, -187500.02235174447, -187500.02235174447, 4696.794414138129, -22218.148078697694, 0.63, -0.774, 0.202, 192.0, 0.0, 0.0, 0.0, 0.0, 0.0, 0.0, 0.0, 0.0, 0.0, 1.6635906220298128E9, 0.0, 2022-09-19 17:30:22.029
10.0, -1697.9949710363117, -411.4732636777477, -24207.542742197842, -41522.07571531245, -187500.02235174447, -187500.02235174447, 4830.860177381061, -20961.48830193142, 0.63, -0.774, 0.202, 192.0, 0.0, 0.0, 0.0, 0.0, 0.0, 0.0, 0.0, 0.0, 0.0, 1.6635906220338717E9, 0.0, 2022-09-19 17:30:22.033
11.0, -1286.4993556141087, -305.6377536818688, -23866.499825298768, -41655.87325762192, -187500.02235174447, -187500.02235174447, 5096.1530323211, -20531.261924655668, 0.63, -0.774, 0.202, 192.0, 0.0, 0.0, 0.0, 0.0, 0.0, 0.0, 0.0, 0.0, 0.0, 1.663590622038912E9, 0.0, 2022-09-19 17:30:22.038
12.0, -1253.1729046312457, -222.86924396386672, -24368.29648832041, -41504.37313370385, -187500.02235174447, -187500.02235174447, 5156.390983628152, -20934.219173695943, 0.63, -0.774, 0.202, 192.0, 0.0, 0.0, 0.0, 0.0, 0.0, 0.0, 0.0, 0.0, 0.0, 1.6635906220428512E9, 0.0, 2022-09-19 17:30:22.042
13.0, -1643.0990866540774, -231.60877604589177, -25495.22674026808, -41183.737359492465, -187500.02235174447, -187500.02235174447, 4957.013423086813, -21954.129273191604, 0.63, -0.774, 0.202, 192.0, 0.0, 0.0, 0.0, 0.0, 0.0, 0.0, 0.0, 0.0, 0.0, 1.663590622045844E9, 0.0, 2022-09-19 17:30:22.045
14.0, -2036.1768646451076, -315.9642596202206, -25607.588959644912, -41153.49544924444, -187500.02235174447, -187500.02235174447, 4685.5291349326535, -22164.503892004956, 0.628, -0.774, 0.202, 192.0, 19.0, 160.0, 231.0, 208.0, 6.0, 80.0, 0.0, 0.0, 0.0, 1.6635906220499685E9, 0.0, 2022-09-19 17:30:22.049
15.0, -1682.885191784524, -306.50947171562575, -24190.108381522703, -41566.287465845046, -187500.02235174447, -187500.02235174447, 4830.122569814035, -20917.365958376642, 0.628, -0.774, 0.202, 192.0, 0.0, 0.0, 0.0, 0.0, 0.0, 0.0, 0.0, 0.0, 0.0, 1.6635906220538976E9, 0.0, 2022-09-19 17:30:22.053
16.0, -1266.6063030488854, -208.92175542375512, -23896.406459379967, -41673.37467353042, -187500.02235174447, -187500.02235174447, 5088.173459550555, -20543.30951491708, 0.628, -0.774, 0.202, 192.0, 0.0, 0.0, 0.0, 0.0, 0.0, 0.0, 0.0, 0.0, 0.0, 1.6635906220579045E9, 0.0, 2022-09-19 17:30:22.057
17.0, -1249.48486679612, -133.17169346471948, -24421.538343612952, -41501.69092436921, -187500.02235174447, -187500.02235174447, 5136.408524085107, -20967.992659567914, 0.628, -0.774, 0.202, 192.0, 0.0, 0.0, 0.0, 0.0, 0.0, 0.0, 0.0, 0.0, 0.0, 1.6635906220618894E9, 0.0, 2022-09-19 17:30:22.061
18.0, -1651.5480460581834, -146.00159478206572, -25562.23727014509, -41166.37005405069, -187500.02235174447, -187500.02235174447, 4920.40126566902, -22007.326424995237, 0.628, -0.774, 0.202, 192.0, 0.0, 0.0, 0.0, 0.0, 0.0, 0.0, 0.0, 0.0, 0.0, 1.6635906220659287E9, 0.0, 2022-09-19 17:30:22.065
19.0, -2044.7152310270349, -226.46787482117116, -25607.410145689268, -41148.0639753418, -187500.02235174447, -187500.02235174447, 4647.486465869721, -22155.183214567092, 0.628, -0.774, 0.202, 192.0, 0.0, 0.0, 0.0, 0.0, 0.0, 0.0, 0.0, 0.0, 0.0, 1.6635906220708938E9, 0.0, 2022-09-19 17:30:22.070
20.0, -1711.204852009398, -209.8381769464227, -24193.93052982456, -41562.442965798735, -187500.02235174447, -187500.02235174447, 4800.685322366396, -20924.160888691054, 0.628, -0.774, 0.202, 192.0, 0.0, 0.0, 0.0, 0.0, 0.0, 0.0, 0.0, 0.0, 0.0, 1.6635906220739155E9, 0.0, 2022-09-19 17:30:22.073
21.0, -1333.6838881592619, -109.27767864199623, -23935.522012176756, -41656.6332169334, -187500.02235174447, -187500.02235174447, 5067.162819762566, -20591.209303284802, 0.628, -0.774, 0.202, 192.0, 0.0, 0.0, 0.0, 0.0, 0.0, 0.0, 0.0, 0.0, 0.0, 1.663590622077916E9, 0.0, 2022-09-19 17:30:22.077
22.0, -1327.939489834248, -21.703543866103157, -24474.64608843876, -41476.85813627936, -187500.02235174447, -187500.02235174447, 5121.589317511239, -21029.59406728674, 0.628, -0.774, 0.202, 192.0, 0.0, 0.0, 0.0, 0.0, 0.0, 0.0, 0.0, 0.0, 0.0, 1.6635906220819695E9, 0.0, 2022-09-19 17:30:22.081
23.0, -1722.1348550480432, -11.555851883393752, -25608.863009078865, -41138.653890926114, -187500.02235174447, -187500.02235174447, 4910.432387641953, -22085.46812361099, 0.628, -0.774, 0.202, 192.0, 0.0, 0.0, 0.0, 0.0, 0.0, 0.0, 0.0, 0.0, 0.0, 1.6635906220859487E9, 0.0, 2022-09-19 17:30:22.085
24.0, -2082.087347756308, -64.8871141537564, -25583.940814011195, -41139.03387058185, -187500.02235174447, -187500.02235174447, 4645.698326313296, -22170.740028707987, 0.636, -0.776, 0.196, 192.0, 19.0, 224.0, 231.0, 192.0, 6.0, 32.0, 0.0, 0.0, 0.0, 1.663590622089948E9, 0.0, 2022-09-19 17:30:22.089
25.0, -1712.4118462099848, -27.805570102401987, -24187.716744865986, -41550.79770693752, -187500.02235174447, -187500.02235174447, 4797.824299076116, -20923.646798568585, 0.636, -0.776, 0.196, 192.0, 0.0, 0.0, 0.0, 0.0, 0.0, 0.0, 0.0, 0.0, 0.0, 1.6635906220949657E9, 0.0, 2022-09-19 17:30:22.094
26.0, -1335.4049724823205, 75.54889625893787, -23978.638527231044, -41626.19014098527, -187500.02235174447, -187500.02235174447, 5052.298909699787, -20623.440518789354, 0.636, -0.776, 0.196, 192.0, 0.0, 0.0, 0.0, 0.0, 0.0, 0.0, 0.0, 0.0, 0.0, 1.663590622099042E9, 0.0, 2022-09-19 17:30:22.099
27.0, -1354.3816035248763, 149.13083900580872, -24544.80821428397, -41436.91556893773, -187500.02235174447, -187500.02235174447, 5090.565096207273, -21076.21980622051, 0.636, -0.776, 0.196, 192.0, 0.0, 0.0, 0.0, 0.0, 0.0, 0.0, 0.0, 0.0, 0.0, 1.6635906221019633E9, 0.0, 2022-09-19 17:30:22.101
28.0, -1774.817916729202, 141.799466824468, -25697.018289210595, -41090.351771158195, -187500.02235174447, -187500.02235174447, 4860.878570184537, -22124.181345007582, 0.636, -0.776, 0.196, 192.0, 0.0, 0.0, 0.0, 0.0, 0.0, 0.0, 0.0, 0.0, 0.0, 1.6635906221060133E9, 0.0, 2022-09-19 17:30:22.106
29.0, -2131.261185557984, 76.35355905932893, -25609.891189323807, -41104.45572190949, -187500.02235174447, -187500.02235174447, 4599.720787968729, -22175.545653765876, 0.636, -0.776, 0.196, 192.0, 0.0, 0.0, 0.0, 0.0, 0.0, 0.0, 0.0, 0.0, 0.0, 1.6635906221100347E9, 0.0, 2022-09-19 17:30:22.110
30.0, -1751.0803641176658, 104.27088788400745, -24227.435794763067, -41511.14571227381, -187500.02235174447, -187500.02235174447, 4762.128563180991, -20952.05586577128, 0.636, -0.776, 0.196, 192.0, 0.0, 0.0, 0.0, 0.0, 0.0, 0.0, 0.0, 0.0, 0.0, 1.6635906221140416E9, 0.0, 2022-09-19 17:30:22.114
31.0, -1373.5594002675296, 196.2036128286854, -24054.656810123543, -41575.20581188271, -187500.02235174447, -187500.02235174447, 5008.713008011939, -20701.649272638475, 0.636, -0.776, 0.196, 192.0, 0.0, 0.0, 0.0, 0.0, 0.0, 0.0, 0.0, 0.0, 0.0, 1.663590622118022E9, 0.0, 2022-09-19 17:30:22.118
32.0, -1391.1502231538564, 260.84485779343345, -24621.988787888145, -41383.7184171341, -187500.02235174447, -187500.02235174447, 5044.09581948469, -21156.082589159323, 0.636, -0.776, 0.196, 192.0, 0.0, 0.0, 0.0, 0.0, 0.0, 0.0, 0.0, 0.0, 0.0, 1.6635906221221128E9, 0.0, 2022-09-19 17:30:22.122
33.0, -1820.2366614623859, 247.97025298717656, -25775.24939480417, -41040.39562230058, -187500.02235174447, -187500.02235174447, 4811.391807960487, -22205.87697099173, 0.636, -0.776, 0.196, 192.0, 0.0, 0.0, 0.0, 0.0, 0.0, 0.0, 0.0, 0.0, 0.0, 1.6635906221271198E9, 0.0, 2022-09-19 17:30:22.127
34.0, -2149.477857289059, 190.7944906705011, -25620.508267940077, -41081.880460009634, -187500.02235174447, -187500.02235174447, 4560.873456105406, -22197.316252865345, 0.636, -0.776, 0.196, 192.0, 0.0, 0.0, 0.0, 0.0, 0.0, 0.0, 0.0, 0.0, 0.0, 1.6635906221300192E9, 0.0, 2022-09-19 17:30:22.130
35.0, -1764.11143113511, 233.44161909122695, -24230.028597119883, -41495.119511499346, -187500.02235174447, -187500.02235174447, 4738.5921762695525, -20965.601022911196, 0.636, -0.776, 0.194, 192.0, 19.0, 224.0, 231.0, 192.0, 6.0, 16.0, 0.0, 0.0, 0.0, 1.6635906221340337E9, 0.0, 2022-09-19 17:30:22.134
36.0, -1407.9140314953365, 337.5783965085026, -24092.095982086183, -41553.0552331275, -187500.02235174447, -187500.02235174447, 4979.208705330933, -20742.597668480597, 0.636, -0.776, 0.194, 192.0, 0.0, 0.0, 0.0, 0.0, 0.0, 0.0, 0.0, 0.0, 0.0, 1.6635906221380274E9, 0.0, 2022-09-19 17:30:22.138
37.0, -1446.00140404718, 413.46256893427005, -24690.049849754556, -41361.05374825642, -187500.02235174447, -187500.02235174447, 4999.548792785263, -21228.278723749965, 0.636, -0.776, 0.194, 192.0, 0.0, 0.0, 0.0, 0.0, 0.0, 0.0, 0.0, 0.0, 0.0, 1.663590622142171E9, 0.0, 2022-09-19 17:30:22.142
38.0, -1885.615513994159, 407.53935665361365, -25851.06651199657, -41019.34027902369, -187500.02235174447, -187500.02235174447, 4753.590196799064, -22292.713498200595, 0.636, -0.776, 0.194, 192.0, 0.0, 0.0, 0.0, 0.0, 0.0, 0.0, 0.0, 0.0, 0.0, 1.6635906221461084E9, 0.0, 2022-09-19 17:30:22.146
39.0, -2197.087072978863, 357.73967000718955, -25625.939741842718, -41070.637532548615, -187500.02235174447, -187500.02235174447, 4518.919231762795, -22220.472660121046, 0.636, -0.776, 0.194, 192.0, 0.0, 0.0, 0.0, 0.0, 0.0, 0.0, 0.0, 0.0, 0.0, 1.6635906221501408E9, 0.0, 2022-09-19 17:30:22.150
40.0, -1787.9607424689225, 409.61806888795724, -24273.56979531882, -41469.34795014238, -187500.02235174447, -187500.02235174447, 4704.103434575014, -21004.470706518976, 0.636, -0.776, 0.194, 192.0, 0.0, 0.0, 0.0, 0.0, 0.0, 0.0, 0.0, 0.0, 0.0, 1.663590622155131E9, 0.0, 2022-09-19 17:30:22.155
41.0, -1451.9022645833809, 521.4214946534031, -24173.054000503304, -41501.51211041357, -187500.02235174447, -187500.02235174447, 4933.544091408741, -20786.116514935078, 0.636, -0.776, 0.194, 192.0, 0.0, 0.0, 0.0, 0.0, 0.0, 0.0, 0.0, 0.0, 0.0, 1.6635906221582768E9, 0.0, 2022-09-19 17:30:22.158
42.0, -1508.9215646888692, 597.1939083568941, -24785.76001951218, -41290.623401477744, -187500.02235174447, -187500.02235174447, 4946.038716559257, -21282.369945331808, 0.636, -0.776, 0.194, 192.0, 0.0, 0.0, 0.0, 0.0, 0.0, 0.0, 0.0, 0.0, 0.0, 1.66359062216213E9, 0.0, 2022-09-19 17:30:22.162
43.0, -1962.7960875983345, 590.1084053645618, -25941.792242740663, -40945.713632787905, -187500.02235174447, -187500.02235174447, 4692.257010013701, -22349.911612261727, 0.636, -0.776, 0.194, 192.0, 0.0, 0.0, 0.0, 0.0, 0.0, 0.0, 0.0, 0.0, 0.0, 1.663590622166165E9, 0.0, 2022-09-19 17:30:22.166
44.0, -2251.2006463051616, 542.3427274635706, -25641.496555983613, -41016.50160747786, -187500.02235174447, -187500.02235174447, 4468.292530571524, -22209.989691971507, 0.636, -0.776, 0.194, 192.0, 0.0, 0.0, 0.0, 0.0, 0.0, 0.0, 0.0, 0.0, 0.0, 1.6635906221700962E9, 0.0, 2022-09-19 17:30:22.170
45.0, -1837.2910424817853, 587.6944169633886, -24293.66401358414, -41419.905891407245, -187500.02235174447, -187500.02235174447, 4663.557370133087, -20983.214197541976, 0.636, -0.78, 0.19, 192.0, 19.0, 224.0, 231.0, 160.0, 5.0, 240.0, 0.0, 0.0, 0.0, 1.6635906221741188E9, 0.0, 2022-09-19 17:30:22.174
46.0, -1508.9439164333246, 697.2626682833038, -24214.337672512254, -41461.50248783857, -187500.02235174447, -187500.02235174447, 4892.9086199889925, -20839.961867327915, 0.636, -0.78, 0.19, 192.0, 0.0, 0.0, 0.0, 0.0, 0.0, 0.0, 0.0, 0.0, 0.0, 1.6635906221781092E9, 0.0, 2022-09-19 17:30:22.178
47.0, -1569.606550885028, 772.0069017418506, -24831.044653778634, -41267.22112503304, -187500.02235174447, -187500.02235174447, 4908.443082385431, -21367.75360915108, 0.636, -0.78, 0.19, 192.0, 0.0, 0.0, 0.0, 0.0, 0.0, 0.0, 0.0, 0.0, 0.0, 1.663590622183122E9, 0.0, 2022-09-19 17:30:22.183
48.0, -2008.5054050094373, 759.9593114804401, -25962.71347555083, -40943.67962404247, -187500.02235174447, -187500.02235174447, 4666.5078004011875, -22408.227313545623, 0.636, -0.78, 0.19, 192.0, 0.0, 0.0, 0.0, 0.0, 0.0, 0.0, 0.0, 0.0, 0.0, 1.6635906221861384E9, 0.0, 2022-09-19 17:30:22.186
49.0, -2244.0704398239186, 719.3238400606919, -25567.892261492285, -41054.52192479634, -187500.02235174447, -187500.02235174447, 4478.797850465518, -22194.611691786253, 0.636, -0.78, 0.19, 192.0, 0.0, 0.0, 0.0, 0.0, 0.0, 0.0, 0.0, 0.0, 0.0, 1.6635906221891541E9, 0.0, 2022-09-19 17:30:22.189
50.0, -1797.7955100292577, 775.8290500437081, -24218.673910936584, -41474.354740900366, -187500.02235174447, -187500.02235174447, 4704.17048980838, -20972.686525903526, 0.636, -0.78, 0.19, 192.0, 0.0, 0.0, 0.0, 0.0, 0.0, 0.0, 0.0, 0.0, 0.0, 1.6635906221941304E9, 0.0, 2022-09-19 17:30:22.194
51.0, -1468.7554799026823, 884.570286818777, -24174.26099470389, -41515.70546814269, -187500.02235174447, -187500.02235174447, 4943.490617691353, -20819.442965917944, 0.636, -0.78, 0.19, 192.0, 0.0, 0.0, 0.0, 0.0, 0.0, 0.0, 0.0, 0.0, 0.0, 1.6635906221981945E9, 0.0, 2022-09-19 17:30:22.198
52.0, -1526.668849786383, 965.9976918694606, -24815.398432659917, -41322.876968726756, -187500.02235174447, -187500.02235174447, 4954.085344563168, -21380.337641279417, 0.636, -0.78, 0.19, 192.0, 0.0, 0.0, 0.0, 0.0, 0.0, 0.0, 0.0, 0.0, 0.0, 1.663590622202174E9, 0.0, 2022-09-19 17:30:22.202
53.0, -1981.7280151519794, 960.6556249446422, -25947.84956548805, -41003.090560804674, -187500.02235174447, -187500.02235174447, 4697.308504260601, -22438.044540649003, 0.636, -0.78, 0.19, 192.0, 0.0, 0.0, 0.0, 0.0, 0.0, 0.0, 0.0, 0.0, 0.0, 1.663590622206174E9, 0.0, 2022-09-19 17:30:22.206
54.0, -2214.476730165092, 918.567290135299, -25504.748583406043, -41130.00376582191, -187500.02235174447, -187500.02235174447, 4503.049493199527, -22150.221127298013, 0.636, -0.78, 0.19, 192.0, 0.0, 0.0, 0.0, 0.0, 0.0, 0.0, 0.0, 0.0, 0.0, 1.6635906222101796E9, 0.0, 2022-09-19 17:30:22.210
55.0, -1760.915131678001, 983.3202938223236, -24179.98304128445, -41537.0513840975, -187500.02235174447, -187500.02235174447, 4727.952745908827, -20948.412531425063, 0.63, -0.78, 0.182, 192.0, 19.0, 176.0, 231.0, 160.0, 5.0, 176.0, 0.0, 0.0, 0.0, 1.6635906222132132E9, 0.0, 2022-09-19 17:30:22.213
56.0, -1443.7215261127385, 1096.1518998327138, -24167.01902950037, -41559.559590764, -187500.02235174447, -187500.02235174447, 4950.911396850514, -20843.649905163038, 0.63, -0.78, 0.182, 192.0, 0.0, 0.0, 0.0, 0.0, 0.0, 0.0, 0.0, 0.0, 0.0, 1.663590622218222E9, 0.0, 2022-09-19 17:30:22.218
57.0, -1516.051771170112, 1166.291673933467, -24829.748252600224, -41353.65532084171, -187500.02235174447, -187500.02235174447, 4953.280681762777, -21373.632117942827, 0.63, -0.78, 0.182, 192.0, 0.0, 0.0, 0.0, 0.0, 0.0, 0.0, 0.0, 0.0, 0.0, 1.6635906222222488E9, 0.0, 2022-09-19 17:30:22.222
58.0, -1992.970942612999, 1155.2275604280903, -25945.502632320244, -41031.99136638539, -187500.02235174447, -187500.02235174447, 4696.369730993478, -22414.239932804103, 0.63, -0.78, 0.182, 192.0, 0.0, 0.0, 0.0, 0.0, 0.0, 0.0, 0.0, 0.0, 0.0, 1.6635906222262535E9, 0.0, 2022-09-19 17:30:22.226
59.0, -2207.525337639491, 1117.0507808984257, -25430.183163903137, -41175.847193699745, -187500.02235174447, -187500.02235174447, 4518.852176529429, -22077.64501305163, 0.63, -0.78, 0.182, 192.0, 0.0, 0.0, 0.0, 0.0, 0.0, 0.0, 0.0, 0.0, 0.0, 1.6635906222302065E9, 0.0, 2022-09-19 17:30:22.230
60.0, -1744.8442274146353, 1185.2459532315677, -24149.40585486959, -41576.6139717834, -187500.02235174447, -187500.02235174447, 4750.930339208882, -20902.882027969605, 0.63, -0.78, 0.182, 192.0, 0.0, 0.0, 0.0, 0.0, 0.0, 0.0, 0.0, 0.0, 0.0, 1.6635906222342482E9, 0.0, 2022-09-19 17:30:22.234
61.0, -1446.962529058758, 1296.6917510857286, -24185.436866931545, -41588.818024256, -187500.02235174447, -187500.02235174447, 4968.03283310328, -20826.282599721268, 0.63, -0.78, 0.182, 192.0, 0.0, 0.0, 0.0, 0.0, 0.0, 0.0, 0.0, 0.0, 0.0, 1.663590622237224E9, 0.0, 2022-09-19 17:30:22.237
62.0, -1525.5959660525282, 1370.2289903436888, -24850.043636565642, -41373.88364957376, -187500.02235174447, -187500.02235174447, 4969.418641259509, -21404.321063079962, 0.63, -0.78, 0.182, 192.0, 0.0, 0.0, 0.0, 0.0, 0.0, 0.0, 0.0, 0.0, 0.0, 1.6635906222412832E9, 0.0, 2022-09-19 17:30:22.241
63.0, -1987.6512274326358, 1353.4651820022086, -25956.879670247996, -41058.56759054275, -187500.02235174447, -187500.02235174447, 4704.952800864316, -22446.851127964394, 0.63, -0.78, 0.182, 192.0, 0.0, 0.0, 0.0, 0.0, 0.0, 0.0, 0.0, 0.0, 0.0, 1.6635906222452836E9, 0.0, 2022-09-19 17:30:22.245
64.0, -2182.156107682718, 1307.7558645911056, -25382.439837746602, -41220.662441332635, -187500.02235174447, -187500.02235174447, 4531.547967380044, -22042.105739367693, 0.63, -0.78, 0.182, 192.0, 0.0, 0.0, 0.0, 0.0, 0.0, 0.0, 0.0, 0.0, 0.0, 1.6635906222502744E9, 0.0, 2022-09-19 17:30:22.250
65.0, -1712.143625276521, 1372.2629990891219, -24129.982188937927, -41606.90058552034, -187500.02235174447, -187500.02235174447, 4769.392880128966, -20873.623594477605, 0.624, -0.782, 0.18, 192.0, 19.0, 128.0, 231.0, 144.0, 5.0, 160.0, 0.0, 0.0, 0.0, 1.6635906222542636E9, 0.0, 2022-09-19 17:30:22.254
66.0, -1421.3250781685208, 1488.2238493232549, -24181.301794207313, -41598.94336449425, -187500.02235174447, -187500.02235174447, 4988.350568813154, -20834.597448658642, 0.624, -0.782, 0.18, 192.0, 0.0, 0.0, 0.0, 0.0, 0.0, 0.0, 0.0, 0.0, 0.0, 1.6635906222583184E9, 0.0, 2022-09-19 17:30:22.258
67.0, -1518.2645938711876, 1565.2032572273324, -24886.186407349876, -41372.09551001734, -187500.02235174447, -187500.02235174447, 4967.854019147637, -21440.217964675187, 0.624, -0.782, 0.18, 192.0, 0.0, 0.0, 0.0, 0.0, 0.0, 0.0, 0.0, 0.0, 0.0, 1.6635906222623055E9, 0.0, 2022-09-19 17:30:22.262
68.0, -2002.291620050862, 1547.7241930632822, -25978.80673155865, -41053.9407794405, -187500.02235174447, -187500.02235174447, 4697.755539149706, -22473.427352121755, 0.624, -0.782, 0.18, 192.0, 0.0, 0.0, 0.0, 0.0, 0.0, 0.0, 0.0, 0.0, 0.0, 1.663590622266297E9, 0.0, 2022-09-19 17:30:22.266
69.0, -2171.5390290664473, 1511.5367187901402, -25343.279581460905, -41233.02295601642, -187500.02235174447, -187500.02235174447, 4534.587804625965, -22031.086329351227, 0.624, -0.782, 0.18, 192.0, 0.0, 0.0, 0.0, 0.0, 0.0, 0.0, 0.0, 0.0, 0.0, 1.6635906222693405E9, 0.0, 2022-09-19 17:30:22.269
70.0, -1695.6480378685044, 1585.1410132814663, -24102.824819424728, -41611.41563790031, -187500.02235174447, -187500.02235174447, 4783.6756448359065, -20867.40980951903, 0.624, -0.782, 0.18, 192.0, 0.0, 0.0, 0.0, 0.0, 0.0, 0.0, 0.0, 0.0, 0.0, 1.663590622273328E9, 0.0, 2022-09-19 17:30:22.273
71.0, -1419.3804764009092, 1693.211697722876, -24188.342593710735, -41595.70236154823, -187500.02235174447, -187500.02235174447, 4993.603228760151, -20837.324361482188, 0.624, -0.782, 0.18, 192.0, 0.0, 0.0, 0.0, 0.0, 0.0, 0.0, 0.0, 0.0, 0.0, 1.663590622278324E9, 0.0, 2022-09-19 17:30:22.278
72.0, -1528.3228788760757, 1768.0900416481545, -24912.181486151396, -41364.89824830273, -187500.02235174447, -187500.02235174447, 4974.98422562888, -21463.843758564446, 0.624, -0.782, 0.18, 192.0, 0.0, 0.0, 0.0, 0.0, 0.0, 0.0, 0.0, 0.0, 0.0, 1.6635906222823207E9, 0.0, 2022-09-19 17:30:22.282
73.0, -2025.4927307954706, 1760.3339863221631, -25986.04869676217, -41055.17012538554, -187500.02235174447, -187500.02235174447, 4696.347379249022, -22482.83743653744, 0.624, -0.782, 0.18, 192.0, 0.0, 0.0, 0.0, 0.0, 0.0, 0.0, 0.0, 0.0, 0.0, 1.6635906222863219E9, 0.0, 2022-09-19 17:30:22.286
74.0, -2168.767412753989, 1743.9725093808784, -25282.72870573148, -41259.33095924032, -187500.02235174447, -187500.02235174447, 4547.596519898953, -21970.289584432794, 0.624, -0.782, 0.18, 192.0, 0.0, 0.0, 0.0, 0.0, 0.0, 0.0, 0.0, 0.0, 0.0, 1.6635906222903583E9, 0.0, 2022-09-19 17:30:22.290
75.0, -1684.4945173853062, 1834.2512052358634, -24075.131008044602, -41638.215379502224, -187500.02235174447, -187500.02235174447, 4807.592011403085, -20838.754873127327, 0.62, -0.784, 0.182, 192.0, 19.0, 96.0, 231.0, 128.0, 5.0, 176.0, 0.0, 0.0, 0.0, 1.6635906222932937E9, 0.0, 2022-09-19 17:30:22.293
76.0, -1417.6370403333951, 1959.3092154633066, -24181.480608162954, -41627.95592879724, -187500.02235174447, -187500.02235174447, 5018.950106972469, -20852.65765817853, 0.62, -0.784, 0.182, 192.0, 0.0, 0.0, 0.0, 0.0, 0.0, 0.0, 0.0, 0.0, 0.0, 1.6635906222974205E9, 0.0, 2022-09-19 17:30:22.297
77.0, -1538.8505505145254, 2034.9922221889763, -24921.569218822628, -41409.95936512463, -187500.02235174447, -187500.02235174447, 5001.493394552875, -21487.380145475883, 0.62, -0.784, 0.182, 192.0, 0.0, 0.0, 0.0, 0.0, 0.0, 0.0, 0.0, 0.0, 0.0, 1.6635906223013973E9, 0.0, 2022-09-19 17:30:22.301
78.0, -2031.1700738871186, 2016.7308469689904, -25965.462740118834, -41124.393477963626, -187500.02235174447, -187500.02235174447, 4729.807940698617, -22472.555634087996, 0.62, -0.784, 0.182, 192.0, 0.0, 0.0, 0.0, 0.0, 0.0, 0.0, 0.0, 0.0, 0.0, 1.66359062230542E9, 0.0, 2022-09-19 17:30:22.305
79.0, -2137.6314327277464, 1996.0778350922867, -25193.299376165793, -41366.32875994787, -187500.02235174447, -187500.02235174447, 4605.95692467176, -21895.590054463155, 0.62, -0.784, 0.182, 192.0, 0.0, 0.0, 0.0, 0.0, 0.0, 0.0, 0.0, 0.0, 0.0, 1.6635906223104E9, 0.0, 2022-09-19 17:30:22.310
80.0, -1624.435380033896, 2098.7841008644227, -24014.08839393716, -41748.07420350006, -187500.02235174447, -187500.02235174447, 4878.782317493238, -20789.849256259116, 0.62, -0.784, 0.182, 192.0, 0.0, 0.0, 0.0, 0.0, 0.0, 0.0, 0.0, 0.0, 0.0, 1.6635906223143787E9, 0.0, 2022-09-19 17:30:22.314
81.0, -1349.5312749780746, 2233.6768786522007, -24140.86748848766, -41721.11799968696, -187500.02235174447, -187500.02235174447, 5082.965503092469, -20828.383663700064, 0.62, -0.784, 0.182, 192.0, 0.0, 0.0, 0.0, 0.0, 0.0, 0.0, 0.0, 0.0, 0.0, 1.6635906223184369E9, 0.0, 2022-09-19 17:30:22.318
82.0, -1494.705855215294, 2307.728208032633, -24915.69071003088, -41482.82605204893, -187500.02235174447, -187500.02235174447, 5045.861607296659, -21503.272235783606, 0.62, -0.784, 0.182, 192.0, 0.0, 0.0, 0.0, 0.0, 0.0, 0.0, 0.0, 0.0, 0.0, 1.66359062232139E9, 0.0, 2022-09-19 17:30:22.321
83.0, -2007.454873020038, 2297.0664259274517, -25962.154681939446, -41180.49635654645, -187500.02235174447, -187500.02235174447, 4750.03626943067, -22488.3583174179, 0.62, -0.784, 0.182, 192.0, 0.0, 0.0, 0.0, 0.0, 0.0, 0.0, 0.0, 0.0, 0.0, 1.6635906223254476E9, 0.0, 2022-09-19 17:30:22.325
84.0, -2113.066865571364, 2288.5504112899794, -25146.673637232023, -41410.20523431364, -187500.02235174447, -187500.02235174447, 4619.524433556132, -21869.304402983715, 0.62, -0.784, 0.182, 192.0, 0.0, 0.0, 0.0, 0.0, 0.0, 0.0, 0.0, 0.0, 0.0, 1.6635906223294451E9, 0.0, 2022-09-19 17:30:22.329
85.0, -1619.3838857869966, 2386.8980868933304, -24021.151545185036, -41752.388090179935, -187500.02235174447, -187500.02235174447, 4882.492707072819, -20800.891018020036, 0.61, -0.78, 0.178, 192.0, 19.0, 16.0, 231.0, 160.0, 5.0, 144.0, 0.0, 0.0, 0.0, 1.6635906223334296E9, 0.0, 2022-09-19 17:30:22.333
86.0, -1385.4952318066637, 2512.6042977099773, -24202.133620039658, -41693.178319117826, -187500.02235174447, -187500.02235174447, 5060.6137586371615, -20870.248481064857, 0.61, -0.78, 0.178, 192.0, 0.0, 0.0, 0.0, 0.0, 0.0, 0.0, 0.0, 0.0, 0.0, 1.6635906223384385E9, 0.0, 2022-09-19 17:30:22.338
87.0, -1537.73296329176, 2580.6653595763873, -25018.978121158856, -41426.58906299938, -187500.02235174447, -187500.02235174447, 4999.660551507539, -21573.993155240198, 0.61, -0.78, 0.178, 192.0, 0.0, 0.0, 0.0, 0.0, 0.0, 0.0, 0.0, 0.0, 0.0, 1.6635906223424747E9, 0.0, 2022-09-19 17:30:22.342
88.0, -2054.5947020762806, 2554.98320519724, -26016.380013988022, -41120.16899826157, -187500.02235174447, -187500.02235174447, 4699.431919983855, -22530.156079549324, 0.61, -0.78, 0.178, 192.0, 0.0, 0.0, 0.0, 0.0, 0.0, 0.0, 0.0, 0.0, 0.0, 1.6635906223464534E9, 0.0, 2022-09-19 17:30:22.346
89.0, -2133.272842558961, 2536.006574154684, -25139.02934062831, -41366.418166925694, -187500.02235174447, -187500.02235174447, 4586.935590140294, -21872.835978607654, 0.61, -0.78, 0.178, 192.0, 0.0, 0.0, 0.0, 0.0, 0.0, 0.0, 0.0, 0.0, 0.0, 1.6635906223493948E9, 0.0, 2022-09-19 17:30:22.349
90.0, -1649.6257960350272, 2618.5292146836778, -24052.935725800482, -41710.791493748606, -187500.02235174447, -187500.02235174447, 4859.470410283853, -20855.60808844663, 0.61, -0.78, 0.178, 192.0, 0.0, 0.0, 0.0, 0.0, 0.0, 0.0, 0.0, 0.0, 0.0, 1.663590622353491E9, 0.0, 2022-09-19 17:30:22.353
91.0, -1434.222034719233, 2715.4687303863443, -24245.116024627212, -41658.5331152121, -187500.02235174447, -187500.02235174447, 5044.632261351617, -20923.155060190566, 0.61, -0.78, 0.178, 192.0, 0.0, 0.0, 0.0, 0.0, 0.0, 0.0, 0.0, 0.0, 0.0, 1.6635906223574858E9, 0.0, 2022-09-19 17:30:22.357
92.0, -1587.6891121493713, 2765.000196099305, -25056.797272777236, -41402.627992943286, -187500.02235174447, -187500.02235174447, 4990.317522325221, -21646.524565997668, 0.61, -0.78, 0.178, 192.0, 0.0, 0.0, 0.0, 0.0, 0.0, 0.0, 0.0, 0.0, 0.0, 1.663590622361481E9, 0.0, 2022-09-19 17:30:22.361
93.0, -2099.1417287757076, 2725.2140909688583, -26039.692883454907, -41123.23118725195, -187500.02235174447, -187500.02235174447, 4685.462079699288, -22592.986833213192, 0.61, -0.78, 0.178, 192.0, 0.0, 0.0, 0.0, 0.0, 0.0, 0.0, 0.0, 0.0, 0.0, 1.6635906223665195E9, 0.0, 2022-09-19 17:30:22.366
94.0, -2147.153275865707, 2695.7544917767636, -25098.39386920856, -41398.80584464143, -187500.02235174447, -187500.02235174447, 4587.2708663071235, -21859.581394145658, 0.61, -0.78, 0.178, 192.0, 0.0, 0.0, 0.0, 0.0, 0.0, 0.0, 0.0, 0.0, 0.0, 1.6635906223705437E9, 0.0, 2022-09-19 17:30:22.370
95.0, -1647.7706012452365, 2786.0331876317487, -24042.18453671748, -41731.95859574778, -187500.02235174447, -187500.02235174447, 4861.750288218294, -20850.668352922006, 0.624, -0.782, 0.18, 192.0, 19.0, 128.0, 231.0, 144.0, 5.0, 160.0, 0.0, 0.0, 0.0, 1.6635906223745384E9, 0.0, 2022-09-19 17:30:22.374
96.0, -1432.836226563004, 2905.4585582564546, -24260.918707957117, -41671.25125780717, -187500.02235174447, -187500.02235174447, 5037.479703125919, -20965.802188611295, 0.624, -0.782, 0.18, 192.0, 0.0, 0.0, 0.0, 0.0, 0.0, 0.0, 0.0, 0.0, 0.0, 1.6635906223774652E9, 0.0, 2022-09-19 17:30:22.377
97.0, -1609.1914903153768, 2976.045367246314, -25103.624177411104, -41408.61826045731, -187500.02235174447, -187500.02235174447, 4979.02989137529, -21709.176505705895, 0.624, -0.782, 0.18, 192.0, 0.0, 0.0, 0.0, 0.0, 0.0, 0.0, 0.0, 0.0, 0.0, 1.6635906223815978E9, 0.0, 2022-09-19 17:30:22.381
98.0, -2126.6343744557353, 2957.4263641150433, -26043.67149396795, -41136.15049554712, -187500.02235174447, -187500.02235174447, 4679.829440096551, -22626.894429551892, 0.624, -0.782, 0.18, 192.0, 0.0, 0.0, 0.0, 0.0, 0.0, 0.0, 0.0, 0.0, 0.0, 1.6635906223855157E9, 0.0, 2022-09-19 17:30:22.385
99.0, -2147.7567729660004, 2947.144561665602, -25036.05485392271, -41434.70274623665, -187500.02235174447, -187500.02235174447, 4607.610953761453, -21844.337504427138, 0.624, -0.782, 0.18, 192.0, 0.0, 0.0, 0.0, 0.0, 0.0, 0.0, 0.0, 0.0, 0.0, 1.663590622389505E9, 0.0, 2022-09-19 17:30:22.389
100.0, -1651.503342569273, 3043.3241180567884, -24026.627722576588, -41768.88367758795, -187500.02235174447, -187500.02235174447, 4888.415919353476, -20859.921975126505, 0.624, -0.782, 0.18, 192.0, 0.0, 0.0, 0.0, 0.0, 0.0, 0.0, 0.0, 0.0, 0.0, 1.6635906223935316E9, 0.0, 2022-09-19 17:30:22.393
101.0, -1440.8381510780039, 3174.2829888204324, -24254.883736954183, -41709.62920303693, -187500.02235174447, -187500.02235174447, 5067.587502907218, -20997.385203526643, 0.624, -0.782, 0.18, 192.0, 0.0, 0.0, 0.0, 0.0, 0.0, 0.0, 0.0, 0.0, 0.0, 1.6635906223985636E9, 0.0, 2022-09-19 17:30:22.398
102.0, -1621.9319846549017, 3253.363460703309, -25108.809782124732, -41454.75226101306, -187500.02235174447, -187500.02235174447, 5008.623601034117, -21759.043247585687, 0.624, -0.782, 0.18, 192.0, 0.0, 0.0, 0.0, 0.0, 0.0, 0.0, 0.0, 0.0, 0.0, 1.663590622401558E9, 0.0, 2022-09-19 17:30:22.401
103.0, -2128.6013279678023, 3240.5112076415076, -26009.182752273413, -41208.50309234895, -187500.02235174447, -187500.02235174447, 4710.272516044679, -22625.82154581804, 0.624, -0.782, 0.18, 192.0, 0.0, 0.0, 0.0, 0.0, 0.0, 0.0, 0.0, 0.0, 0.0, 1.6635906224056048E9, 0.0, 2022-09-19 17:30:22.405
104.0, -2111.055208570386, 3249.1166292568005, -24948.436015657906, -41536.023203852565, -187500.02235174447, -187500.02235174447, 4651.241558938213, -21789.329861322625, 0.624, -0.782, 0.18, 192.0, 0.0, 0.0, 0.0, 0.0, 0.0, 0.0, 0.0, 0.0, 0.0, 1.6635906224095905E9, 0.0, 2022-09-19 17:30:22.409
105.0, -1594.9757808418015, 3369.5031248930845, -23970.994230627326, -41869.17595495891, -187500.02235174447, -187500.02235174447, 4940.584890912162, -20832.74225386885, 0.626, -0.774, 0.184, 192.0, 19.0, 144.0, 231.0, 208.0, 5.0, 192.0, 0.0, 0.0, 0.0, 1.6635906224135106E9, 0.0, 2022-09-19 17:30:22.413
106.0, -1387.2386678741775, 3509.9167835613234, -24220.104422581724, -41810.88260541947, -187500.02235174447, -187500.02235174447, 5116.940154664535, -20963.656421143583, 0.626, -0.774, 0.184, 192.0, 0.0, 0.0, 0.0, 0.0, 0.0, 0.0, 0.0, 0.0, 0.0, 1.6635906224175067E9, 0.0, 2022-09-19 17:30:22.417
107.0, -1571.5958561415503, 3592.1041479234873, -25100.651395398545, -41556.89973317382, -187500.02235174447, -187500.02235174447, 5050.533121887818, -21767.64866920098, 0.626, -0.774, 0.184, 192.0, 0.0, 0.0, 0.0, 0.0, 0.0, 0.0, 0.0, 0.0, 0.0, 1.6635906224215477E9, 0.0, 2022-09-19 17:30:22.421
108.0, -2081.6626646116574, 3574.7368424817137, -25938.573591539098, -41323.05578268239, -187500.02235174447, -187500.02235174447, 4758.261711390222, -22594.394993113878, 0.626, -0.774, 0.184, 192.0, 0.0, 0.0, 0.0, 0.0, 0.0, 0.0, 0.0, 0.0, 0.0, 1.663590622426612E9, 0.0, 2022-09-19 17:30:22.426
109.0, -2044.581120560303, 3572.27815059163, -24829.457679922307, -41670.29013279559, -187500.02235174447, -187500.02235174447, 4717.26861205919, -21691.093944441553, 0.626, -0.774, 0.184, 192.0, 0.0, 0.0, 0.0, 0.0, 0.0, 0.0, 0.0, 0.0, 0.0, 1.663590622429639E9, 0.0, 2022-09-19 17:30:22.429
110.0, -1534.1790359233662, 3686.2273438247853, -23902.843761783097, -41996.156215209514, -187500.02235174447, -187500.02235174447, 5008.713008011939, -20778.651032287005, 0.626, -0.774, 0.184, 192.0, 0.0, 0.0, 0.0, 0.0, 0.0, 0.0, 0.0, 0.0, 0.0, 1.663590622433628E9, 0.0, 2022-09-19 17:30:22.433
111.0, -1342.8257516414824, 3819.846072178611, -24168.293078934323, -41927.82693240964, -187500.02235174447, -187500.02235174447, 5179.994425772957, -20951.0947407597, 0.626, -0.774, 0.184, 192.0, 0.0, 0.0, 0.0, 0.0, 0.0, 0.0, 0.0, 0.0, 0.0, 1.6635906224376588E9, 0.0, 2022-09-19 17:30:22.437
112.0, -1545.824294784581, 3897.898363816543, -25070.7671130618, -41653.81689713203, -187500.02235174447, -187500.02235174447, 5104.311419047287, -21737.362055464037, 0.626, -0.774, 0.184, 192.0, 0.0, 0.0, 0.0, 0.0, 0.0, 0.0, 0.0, 0.0, 0.0, 1.6635906224417274E9, 0.0, 2022-09-19 17:30:22.441
113.0, -2056.0475654658753, 3885.8284218106774, -25895.524131718175, -41419.43650477368, -187500.02235174447, -187500.02235174447, 4796.885525808993, -22549.535041992076, 0.626, -0.774, 0.184, 192.0, 0.0, 0.0, 0.0, 0.0, 0.0, 0.0, 0.0, 0.0, 0.0, 1.6635906224456813E9, 0.0, 2022-09-19 17:30:22.445
114.0, -1994.647323447147, 3900.424110939993, -24743.045835858087, -41757.59604663802, -187500.02235174447, -187500.02235174447, 4765.570731827108, -21605.620873644457, 0.626, -0.774, 0.184, 192.0, 0.0, 0.0, 0.0, 0.0, 0.0, 0.0, 0.0, 0.0, 0.0, 1.6635906224496539E9, 0.0, 2022-09-19 17:30:22.449
115.0, -1493.2753435701543, 4012.9874960169195, -23869.53966254469, -42041.99964308735, -187500.02235174447, -187500.02235174447, 5050.220197465444, -20736.138014333013, 0.626, -0.778, 0.178, 192.0, 19.0, 144.0, 231.0, 176.0, 5.0, 144.0, 0.0, 0.0, 0.0, 1.6635906224547353E9, 0.0, 2022-09-19 17:30:22.454
116.0, -1331.6275276693736, 4133.061067230829, -24177.345535438722, -41941.975586649845, -187500.02235174447, -187500.02235174447, 5197.987580059478, -20940.790586565803, 0.626, -0.778, 0.178, 192.0, 0.0, 0.0, 0.0, 0.0, 0.0, 0.0, 0.0, 0.0, 0.0, 1.663590622457645E9, 0.0, 2022-09-19 17:30:22.457
117.0, -1569.1371642514664, 4192.539059226401, -25114.241256027373, -41640.56231267003, -187500.02235174447, -187500.02235174447, 5099.751663178404, -21773.549529737178, 0.626, -0.778, 0.178, 192.0, 0.0, 0.0, 0.0, 0.0, 0.0, 0.0, 0.0, 0.0, 0.0, 1.6635906224616475E9, 0.0, 2022-09-19 17:30:22.461
118.0, -2090.6927693716016, 4162.855942589753, -25905.247140556236, -41401.443350487156, -187500.02235174447, -187500.02235174447, 4784.189734958379, -22558.498091518653, 0.626, -0.778, 0.178, 192.0, 0.0, 0.0, 0.0, 0.0, 0.0, 0.0, 0.0, 0.0, 0.0, 1.6635906224656727E9, 0.0, 2022-09-19 17:30:22.465
119.0, -2009.7347509544793, 4167.72862288101, -24730.953542107767, -41743.715613331275, -187500.02235174447, -187500.02235174447, 4756.853551489538, -21593.84150431651, 0.626, -0.778, 0.178, 192.0, 0.0, 0.0, 0.0, 0.0, 0.0, 0.0, 0.0, 0.0, 0.0, 1.663590622469618E9, 0.0, 2022-09-19 17:30:22.469
120.0, -1507.1110733879893, 4280.85080156932, -23899.803924537173, -42008.00263977083, -187500.02235174447, -187500.02235174447, 5043.201749706477, -20773.77835199575, 0.626, -0.778, 0.178, 192.0, 0.0, 0.0, 0.0, 0.0, 0.0, 0.0, 0.0, 0.0, 0.0, 1.6635906224736168E9, 0.0, 2022-09-19 17:30:22.473
121.0, -1350.7606209231164, 4404.67946585172, -24225.088861595257, -41892.980562803816, -187500.02235174447, -187500.02235174447, 5182.654283363138, -21001.788497184338, 0.626, -0.778, 0.178, 192.0, 0.0, 0.0, 0.0, 0.0, 0.0, 0.0, 0.0, 0.0, 0.0, 1.663590622477636E9, 0.0, 2022-09-19 17:30:22.477
122.0, -1611.6501822054604, 4471.198257350714, -25185.90094875109, -41583.00657069762, -187500.02235174447, -187500.02235174447, 5072.90721808758, -21837.14024271253, 0.626, -0.778, 0.178, 192.0, 0.0, 0.0, 0.0, 0.0, 0.0, 0.0, 0.0, 0.0, 0.0, 1.6635906224826891E9, 0.0, 2022-09-19 17:30:22.482
123.0, -2113.111569060274, 4453.182751319737, -25934.170297881403, -41357.43276565466, -187500.02235174447, -187500.02235174447, 4750.326842108589, -22591.08693493449, 0.626, -0.778, 0.178, 192.0, 0.0, 0.0, 0.0, 0.0, 0.0, 0.0, 0.0, 0.0, 0.0, 1.6635906224856696E9, 0.0, 2022-09-19 17:30:22.485
124.0, -2002.6939514510575, 4470.17007710577, -24709.004129052657, -41714.61364205046, -187500.02235174447, -187500.02235174447, 4739.754466981229, -21585.97369026824, 0.626, -0.778, 0.178, 192.0, 0.0, 0.0, 0.0, 0.0, 0.0, 0.0, 0.0, 0.0, 0.0, 1.6635906224896889E9, 0.0, 2022-09-19 17:30:22.489
125.0, -1512.8554717130032, 4590.780090186607, -23923.295607959702, -41973.5586015652, -187500.02235174447, -187500.02235174447, 5025.99090647589, -20789.290462647732, 0.628, -0.774, 0.178, 192.0, 19.0, 160.0, 231.0, 208.0, 5.0, 144.0, 0.0, 0.0, 0.0, 1.6635906224936728E9, 0.0, 2022-09-19 17:30:22.493
126.0, -1379.8625922039262, 4712.284173045656, -24274.5309203304, -41862.51513511123, -187500.02235174447, -187500.02235174447, 5153.462905104507, -21037.84186099075, 0.628, -0.774, 0.178, 192.0, 0.0, 0.0, 0.0, 0.0, 0.0, 0.0, 0.0, 0.0, 0.0, 1.6635906224977112E9, 0.0, 2022-09-19 17:30:22.497
127.0, -1642.987327931801, 4781.70869132384, -25253.112644328197, -41551.7588319491, -187500.02235174447, -187500.02235174447, 5037.993793248391, -21912.66678722701, 0.628, -0.774, 0.178, 192.0, 0.0, 0.0, 0.0, 0.0, 0.0, 0.0, 0.0, 0.0, 0.0, 1.6635906225016787E9, 0.0, 2022-09-19 17:30:22.501
128.0, -2145.9462816651203, 4767.3588713835325, -25937.724225249796, -41345.07225097087, -187500.02235174447, -187500.02235174447, 4727.013972641704, -22596.406650114855, 0.628, -0.774, 0.178, 192.0, 0.0, 0.0, 0.0, 0.0, 0.0, 0.0, 0.0, 0.0, 0.0, 1.663590622505782E9, 0.0, 2022-09-19 17:30:22.505
129.0, -2003.453910762538, 4791.632865861996, -24681.489131628172, -41721.96736597626, -187500.02235174447, -187500.02235174447, 4732.400743055433, -21552.64723928538, 0.628, -0.774, 0.178, 192.0, 0.0, 0.0, 0.0, 0.0, 0.0, 0.0, 0.0, 0.0, 0.0, 1.6635906225107355E9, 0.0, 2022-09-19 17:30:22.510
130.0, -1505.4346925538414, 4915.3944749110315, -23939.25475350079, -41971.12226141957, -187500.02235174447, -187500.02235174447, 5022.727551785416, -20793.96197723889, 0.628, -0.774, 0.178, 192.0, 0.0, 0.0, 0.0, 0.0, 0.0, 0.0, 0.0, 0.0, 0.0, 1.6635906225137217E9, 0.0, 2022-09-19 17:30:22.513
131.0, -1370.8771909328927, 5031.198862933978, -24283.628080323706, -41872.61812360503, -187500.02235174447, -187500.02235174447, 5156.770963283892, -21042.222802903987, 0.628, -0.774, 0.178, 192.0, 0.0, 0.0, 0.0, 0.0, 0.0, 0.0, 0.0, 0.0, 0.0, 1.6635906225177422E9, 0.0, 2022-09-19 17:30:22.517
132.0, -1636.5276737842173, 5081.870267614158, -25261.606307221213, -41596.417617370804, -187500.02235174447, -187500.02235174447, 5048.09678174219, -21915.796031450755, 0.628, -0.774, 0.178, 192.0, 0.0, 0.0, 0.0, 0.0, 0.0, 0.0, 0.0, 0.0, 0.0, 1.6635906225217469E9, 0.0, 2022-09-19 17:30:22.521
133.0, -2118.8559673852883, 5056.590444635206, -25881.241367011236, -41438.4801910496, -187500.02235174447, -187500.02235174447, 4753.5007898212425, -22569.606908512942, 0.628, -0.774, 0.178, 192.0, 0.0, 0.0, 0.0, 0.0, 0.0, 0.0, 0.0, 0.0, 0.0, 1.6635906225257752E9, 0.0, 2022-09-19 17:30:22.525
134.0, -1941.3384129212395, 5081.758508891882, -24579.855749589893, -41839.80576274464, -187500.02235174447, -187500.02235174447, 4785.687301836884, -21479.691145383258, 0.628, -0.774, 0.178, 192.0, 0.0, 0.0, 0.0, 0.0, 0.0, 0.0, 0.0, 0.0, 0.0, 1.663590622529751E9, 0.0, 2022-09-19 17:30:22.529
135.0, -1449.6670901378502, 5209.588135431783, -23895.579444835123, -42062.96557938642, -187500.02235174447, -187500.02235174447, 5072.7060523874825, -20758.333296577133, 0.628, -0.774, 0.178, 192.0, 0.0, 0.0, 0.0, 0.0, 0.0, 0.0, 0.0, 0.0, 0.0, 1.663590622533766E9, 0.0, 2022-09-19 17:30:22.533
136.0, -1340.1211905623902, 5327.5159391779835, -24295.09452522928, -41911.55486244617, -187500.02235174447, -187500.02235174447, 5180.128536239688, -21029.616419031194, 0.636, -0.776, 0.18, 192.0, 19.0, 224.0, 231.0, 192.0, 5.0, 160.0, 0.0, 0.0, 0.0, 1.6635906225388408E9, 0.0, 2022-09-19 17:30:22.538
137.0, -1640.886263953002, 5383.328245082885, -25323.945322507065, -41555.06689012848, -187500.02235174447, -187500.02235174447, 5036.920909514536, -21937.588982294677, 0.636, -0.776, 0.18, 192.0, 0.0, 0.0, 0.0, 0.0, 0.0, 0.0, 0.0, 0.0, 0.0, 1.663590622541774E9, 0.0, 2022-09-19 17:30:22.541
138.0, -2147.1309241212516, 5359.143657582243, -25928.068271645105, -41346.16748644918, -187500.02235174447, -187500.02235174447, 4706.852699143016, -22563.61664099892, 0.636, -0.776, 0.18, 192.0, 0.0, 0.0, 0.0, 0.0, 0.0, 0.0, 0.0, 0.0, 0.0, 1.6635906225448053E9, 0.0, 2022-09-19 17:30:22.544
139.0, -1991.1157478232085, 5380.847201448346, -24619.239523320142, -41718.21227290777, -187500.02235174447, -187500.02235174447, 4724.287059818156, -21463.843758564446, 0.636, -0.776, 0.18, 192.0, 0.0, 0.0, 0.0, 0.0, 0.0, 0.0, 0.0, 0.0, 0.0, 1.6635906225498056E9, 0.0, 2022-09-19 17:30:22.549
140.0, -1530.5804050660618, 5503.535926763526, -23991.490780292843, -41923.62480445204, -187500.02235174447, -187500.02235174447, 4992.887972937581, -20805.49547737783, 0.636, -0.776, 0.18, 192.0, 0.0, 0.0, 0.0, 0.0, 0.0, 0.0, 0.0, 0.0, 0.0, 1.6635906225537865E9, 0.0, 2022-09-19 17:30:22.553
141.0, -1413.7478367981716, 5627.5210532571145, -24390.089439164334, -41781.78063413866, -187500.02235174447, -187500.02235174447, 5097.851764899703, -21119.761004419448, 0.636, -0.776, 0.18, 192.0, 0.0, 0.0, 0.0, 0.0, 0.0, 0.0, 0.0, 0.0, 0.0, 1.663590622557764E9, 0.0, 2022-09-19 17:30:22.557
142.0, -1718.2232997683645, 5670.659920055857, -25431.74778601501, -41450.59483654438, -187500.02235174447, -187500.02235174447, 4956.275815519788, -22047.514861525877, 0.636, -0.776, 0.18, 192.0, 0.0, 0.0, 0.0, 0.0, 0.0, 0.0, 0.0, 0.0, 0.0, 1.6635906225617757E9, 0.0, 2022-09-19 17:30:22.561
143.0, -2218.3659337003155, 5628.370419546416, -25960.768873783218, -41286.82360492034, -187500.02235174447, -187500.02235174447, 4642.658489067375, -22615.76326081315, 0.636, -0.776, 0.18, 192.0, 0.0, 0.0, 0.0, 0.0, 0.0, 0.0, 0.0, 0.0, 0.0, 1.6635906225668695E9, 0.0, 2022-09-19 17:30:22.566
144.0, -2017.289640580373, 5646.0730011550195, -24619.485392509152, -41687.61273474845, -187500.02235174447, -187500.02235174447, 4690.379463479455, -21475.354906958928, 0.636, -0.776, 0.18, 192.0, 0.0, 0.0, 0.0, 0.0, 0.0, 0.0, 0.0, 0.0, 0.0, 1.6635906225698535E9, 0.0, 2022-09-19 17:30:22.569
145.0, -1535.564844079595, 5761.922092666876, -24026.962998743416, -41885.47037666683, -187500.02235174447, -187500.02235174447, 4974.201914572945, -20829.54595441174, 0.636, -0.776, 0.18, 192.0, 0.0, 0.0, 0.0, 0.0, 0.0, 0.0, 0.0, 0.0, 0.0, 1.6635906225728512E9, 0.0, 2022-09-19 17:30:22.572
