%OpenBCI Raw EEG Data
%Number of channels = 8
%Sample Rate = 250 Hz
%Board = OpenBCI_GUI$BoardCytonSerial
Sample Index, EXG Channel 0, EXG Channel 1, EXG Channel 2, EXG Channel 3, EXG Channel 4, EXG Channel 5, EXG Channel 6, EXG Channel 7, Accel Channel 0, Accel Channel 1, Accel Channel 2, Other, Other, Other, Other, Other, Other, Other, Analog Channel 0, Analog Channel 1, Analog Channel 2, Timestamp, Other, Timestamp (Formatted)
186.0, -38478.103396666455, -21764.273555788226, -66187.44923918834, -20460.742170899175, -74467.94354533477, 187500.0, -53877.27068391689, -16332.71024617079, 0.61, -0.538, 0.6, 192.0, 19.0, 16.0, 239.0, 48.0, 18.0, 192.0, 0.0, 0.0, 0.0, 1.663592969794577E9, 0.0, 2022-09-19 18:09:29.794
187.0, -38179.461738999096, -21733.942238562377, -66281.37126938955, -20509.446622067288, -74376.77077970158, 187500.0, -53903.55633539634, -16350.94926964632, 0.61, -0.538, 0.6, 192.0, 0.0, 0.0, 0.0, 0.0, 0.0, 0.0, 0.0, 0.0, 0.0, 1.6635929697946043E9, 0.0, 2022-09-19 18:09:29.794
188.0, -38138.02160477896, -21771.336707036106, -66257.67842026692, -20522.67885478483, -74349.65811367729, 187500.0, -54015.046836739406, -16354.32438305907, 0.61, -0.538, 0.6, 192.0, 0.0, 0.0, 0.0, 0.0, 0.0, 0.0, 0.0, 0.0, 0.0, 1.66359296979462E9, 0.0, 2022-09-19 18:09:29.794
0.0, 0.0, 0.0, 0.0, 0.0, 0.0, 0.0, 0.0, 0.0, 0.618, -0.554, 0.5760000000000001, 192.0, 19.0, 80.0, 238.0, 176.0, 18.0, 0.0, 0.0, 0.0, 0.0, 1.6635929698717823E9, 0.0, 2022-09-19 18:09:29.871
1.0, -35905.75288602745, -21397.72729846565, -66706.65791114068, -20757.930965176936, -53865.714832033496, 187500.0, -54732.247261076845, -17029.972914454094, 0.618, -0.554, 0.5760000000000001, 192.0, 0.0, 0.0, 0.0, 0.0, 0.0, 0.0, 0.0, 0.0, 0.0, 1.66359296988879E9, 0.0, 2022-09-19 18:09:29.888
2.0, -36191.76580807755, -21422.649493533314, -66610.3665960272, -20704.890275584494, -53949.15389408516, 187500.0, -54676.032623771745, -17002.70378621862, 0.618, -0.554, 0.5760000000000001, 192.0, 0.0, 0.0, 0.0, 0.0, 0.0, 0.0, 0.0, 0.0, 0.0, 1.663592969891832E9, 0.0, 2022-09-19 18:09:29.891
3.0, -36265.30304733551, -21405.28218809154, -66619.64256997616, -20694.742583601783, -53979.86519096675, 187500.0, -54605.40111129297, -16997.831105927362, 0.618, -0.554, 0.5760000000000001, 192.0, 0.0, 0.0, 0.0, 0.0, 0.0, 0.0, 0.0, 0.0, 0.0, 1.663592969894782E9, 0.0, 2022-09-19 18:09:29.894
4.0, -36128.71153696913, -21375.152036565785, -66679.47818988303, -20718.614246680052, -53943.320088782326, 187500.0, -54578.19903829087, -17005.855382186815, 0.618, -0.554, 0.5760000000000001, 192.0, 0.0, 0.0, 0.0, 0.0, 0.0, 0.0, 0.0, 0.0, 0.0, 1.663592969898787E9, 0.0, 2022-09-19 18:09:29.898
5.0, -35842.85507713021, -21357.069475301443, -66761.79966471191, -20767.765732737273, -53855.790657495345, 187500.0, -54627.55169004818, -17030.26348713201, 0.618, -0.554, 0.5760000000000001, 192.0, 0.0, 0.0, 0.0, 0.0, 0.0, 0.0, 0.0, 0.0, 0.0, 1.6635929699018764E9, 0.0, 2022-09-19 18:09:29.901
6.0, -35912.950147742056, -21401.61650200087, -66700.4441261821, -20759.87556694455, -53867.86059950121, 187500.0, -54736.158816356525, -17028.98943769806, 0.618, -0.554, 0.5760000000000001, 192.0, 0.0, 0.0, 0.0, 0.0, 0.0, 0.0, 0.0, 0.0, 0.0, 1.6635929699048562E9, 0.0, 2022-09-19 18:09:29.904
7.0, -36201.55587214898, -21426.203420901707, -66603.61636920171, -20705.359662218056, -53954.004222631964, 187500.0, -54680.77119359627, -17005.050719386425, 0.618, -0.554, 0.5760000000000001, 192.0, 0.0, 0.0, 0.0, 0.0, 0.0, 0.0, 0.0, 0.0, 0.0, 1.6635929699098299E9, 0.0, 2022-09-19 18:09:29.909
8.0, -36274.84724221793, -21404.29871133551, -66609.62898846019, -20688.349984687567, -53983.35206310178, 187500.0, -54606.07166362664, -16994.92537914817, 0.624, -0.558, 0.578, 192.0, 19.0, 128.0, 238.0, 144.0, 18.0, 16.0, 0.0, 0.0, 0.0, 1.6635929699137976E9, 0.0, 2022-09-19 18:09:29.913
9.0, -36142.234342364594, -21371.732219664125, -66671.09628571228, -20707.013691307748, -53948.08101035131, 187500.0, -54579.13781155799, -16998.300492560924, 0.624, -0.558, 0.578, 192.0, 0.0, 0.0, 0.0, 0.0, 0.0, 0.0, 0.0, 0.0, 0.0, 1.6635929699178424E9, 0.0, 2022-09-19 18:09:29.917
10.0, -35848.15244056612, -21359.595222424894, -66762.9619554236, -20761.082561145136, -53859.18812265255, 187500.0, -54631.507948816776, -17023.781481239974, 0.624, -0.558, 0.578, 192.0, 0.0, 0.0, 0.0, 0.0, 0.0, 0.0, 0.0, 0.0, 0.0, 1.6635929699218023E9, 0.0, 2022-09-19 18:09:29.921
11.0, -35917.554607099846, -21409.976054427156, -66703.77453610594, -20763.273032101755, -53873.73910829295, 187500.0, -54739.221005346895, -17027.335408608367, 0.624, -0.558, 0.578, 192.0, 0.0, 0.0, 0.0, 0.0, 0.0, 0.0, 0.0, 0.0, 0.0, 1.6635929699258516E9, 0.0, 2022-09-19 18:09:29.925
12.0, -36206.897939073795, -21438.20630767421, -66608.51140123743, -20717.72017690184, -53960.218007590534, 187500.0, -54688.14726926652, -17004.514277519498, 0.624, -0.558, 0.578, 192.0, 0.0, 0.0, 0.0, 0.0, 0.0, 0.0, 0.0, 0.0, 0.0, 1.6635929699298632E9, 0.0, 2022-09-19 18:09:29.929
13.0, -36281.39630334333, -21415.228714374152, -66611.46183150553, -20703.795040106183, -53990.012882949464, 187500.0, -54612.15133811848, -16996.13237334876, 0.624, -0.558, 0.578, 192.0, 0.0, 0.0, 0.0, 0.0, 0.0, 0.0, 0.0, 0.0, 0.0, 1.6635929699329014E9, 0.0, 2022-09-19 18:09:29.932
14.0, -36145.184772632696, -21380.85173140189, -66666.24595716548, -20717.071976312636, -53950.53970224139, 187500.0, -54576.09797431207, -16999.21691408359, 0.624, -0.558, 0.578, 192.0, 0.0, 0.0, 0.0, 0.0, 0.0, 0.0, 0.0, 0.0, 0.0, 1.663592969937905E9, 0.0, 2022-09-19 18:09:29.937
15.0, -35855.819088914286, -21373.743876665103, -66764.75009498002, -20776.237043885834, -53865.156038422116, 187500.0, -54634.27956512923, -17027.693036519653, 0.624, -0.558, 0.578, 192.0, 0.0, 0.0, 0.0, 0.0, 0.0, 0.0, 0.0, 0.0, 0.0, 1.6635929699418037E9, 0.0, 2022-09-19 18:09:29.941
16.0, -35921.44381063507, -21418.00033068661, -66707.68609138562, -20770.96203219438, -53875.68371006056, 187500.0, -54741.59029025916, -17022.552135294933, 0.624, -0.558, 0.578, 192.0, 0.0, 0.0, 0.0, 0.0, 0.0, 0.0, 0.0, 0.0, 0.0, 1.6635929699458127E9, 0.0, 2022-09-19 18:09:29.945
17.0, -36208.864892585865, -21436.127595439862, -66614.05463386234, -20721.944656603893, -53960.665042479646, 187500.0, -54687.96845531088, -17003.73196646356, 0.624, -0.558, 0.578, 192.0, 0.0, 0.0, 0.0, 0.0, 0.0, 0.0, 0.0, 0.0, 0.0, 1.663592969949873E9, 0.0, 2022-09-19 18:09:29.949
18.0, -36281.351599854424, -21408.076156148454, -66614.14404084015, -20702.789211605694, -53987.978874204025, 187500.0, -54605.915201415446, -16993.74073669204, 0.622, -0.5680000000000001, 0.5760000000000001, 192.0, 19.0, 112.0, 238.0, 64.0, 18.0, 0.0, 0.0, 0.0, 0.0, 1.663592969954909E9, 0.0, 2022-09-19 18:09:29.954
19.0, -36150.45978432414, -21386.57377798245, -66673.75614330247, -20723.06224382666, -53948.86332140724, 187500.0, -54578.713128413336, -16999.03810012795, 0.622, -0.5680000000000001, 0.5760000000000001, 192.0, 0.0, 0.0, 0.0, 0.0, 0.0, 0.0, 0.0, 0.0, 0.0, 1.6635929699578705E9, 0.0, 2022-09-19 18:09:29.957
20.0, -35856.33317903676, -21381.119952335353, -66761.97847866756, -20776.639375286028, -53859.67986103056, 187500.0, -54628.31164935967, -17022.954466695126, 0.622, -0.5680000000000001, 0.5760000000000001, 192.0, 0.0, 0.0, 0.0, 0.0, 0.0, 0.0, 0.0, 0.0, 0.0, 1.663592969960982E9, 0.0, 2022-09-19 18:09:29.960
21.0, -35919.14158095617, -21422.649493533314, -66697.0466610249, -20770.045610671714, -53870.7663262804, 187500.0, -54732.40372328803, -17024.74260625155, 0.622, -0.5680000000000001, 0.5760000000000001, 192.0, 0.0, 0.0, 0.0, 0.0, 0.0, 0.0, 0.0, 0.0, 0.0, 1.6635929699659247E9, 0.0, 2022-09-19 18:09:29.965
22.0, -36208.95429956369, -21448.823386290478, -66602.09645057874, -20720.178868791925, -53955.25592032146, 187500.0, -54677.999577283816, -17004.626036241774, 0.622, -0.5680000000000001, 0.5760000000000001, 192.0, 0.0, 0.0, 0.0, 0.0, 0.0, 0.0, 0.0, 0.0, 0.0, 1.6635929699698594E9, 0.0, 2022-09-19 18:09:29.969
23.0, -36278.57998354197, -21413.1052986509, -66604.71160468002, -20698.207103992358, -53977.9429409436, 187500.0, -54592.32534078662, -16991.50556224651, 0.622, -0.5680000000000001, 0.5760000000000001, 192.0, 0.0, 0.0, 0.0, 0.0, 0.0, 0.0, 0.0, 0.0, 0.0, 1.6635929699739435E9, 0.0, 2022-09-19 18:09:29.973
24.0, -36146.235304622096, -21382.23753955812, -66664.45781760906, -20718.927171102427, -53939.36383001374, 187500.0, -54569.14658178647, -16998.546361749934, 0.622, -0.5680000000000001, 0.5760000000000001, 192.0, 0.0, 0.0, 0.0, 0.0, 0.0, 0.0, 0.0, 0.0, 0.0, 1.6635929699779575E9, 0.0, 2022-09-19 18:09:29.977
25.0, -35848.197144055026, -21363.55148119348, -66751.94254540713, -20770.313831605177, -53846.71584924649, 187500.0, -54618.990971921805, -17019.93698119366, 0.622, -0.5680000000000001, 0.5760000000000001, 192.0, 0.0, 0.0, 0.0, 0.0, 0.0, 0.0, 0.0, 0.0, 0.0, 1.6635929699819448E9, 0.0, 2022-09-19 18:09:29.981
26.0, -35915.00650823194, -21416.838039974933, -66700.62294013773, -20771.744343250317, -53860.77509650888, 187500.0, -54731.196729087445, -17026.821318485894, 0.622, -0.5680000000000001, 0.5760000000000001, 192.0, 0.0, 0.0, 0.0, 0.0, 0.0, 0.0, 0.0, 0.0, 0.0, 1.6635929699858902E9, 0.0, 2022-09-19 18:09:29.985
27.0, -36204.61806113936, -21438.943915241234, -66604.01870060191, -20723.621037438043, -53947.03047836191, 187500.0, -54681.53115290775, -17008.247018843536, 0.622, -0.5680000000000001, 0.5760000000000001, 192.0, 0.0, 0.0, 0.0, 0.0, 0.0, 0.0, 0.0, 0.0, 0.0, 1.6635929699890246E9, 0.0, 2022-09-19 18:09:29.989
28.0, -36276.79184398554, -21418.313255108984, -66609.15960182663, -20710.791136120693, -53973.24907460798, 187500.0, -54609.91616367295, -17002.45791702961, 0.622, -0.562, 0.578, 192.0, 19.0, 112.0, 238.0, 112.0, 18.0, 16.0, 0.0, 0.0, 0.0, 1.6635929699930298E9, 0.0, 2022-09-19 18:09:29.993
29.0, -36149.789231990486, -21384.718583192658, -66666.60358507677, -20732.20410730888, -53937.642745690675, 187500.0, -54583.92108487143, -17011.37626306728, 0.622, -0.562, 0.578, 192.0, 0.0, 0.0, 0.0, 0.0, 0.0, 0.0, 0.0, 0.0, 0.0, 1.6635929699979892E9, 0.0, 2022-09-19 18:09:29.997
30.0, -35855.550867980826, -21369.050010329487, -66753.14953960771, -20780.39446835452, -53846.42527656857, 187500.0, -54629.65275402698, -17032.99039995556, 0.622, -0.562, 0.578, 192.0, 0.0, 0.0, 0.0, 0.0, 0.0, 0.0, 0.0, 0.0, 0.0, 1.6635929700020056E9, 0.0, 2022-09-19 18:09:30.002
31.0, -35915.028859976395, -21413.686444006737, -66694.2973964569, -20774.29244211822, -53853.1084481607, 187500.0, -54728.55922324172, -17031.2693156325, 0.622, -0.562, 0.578, 192.0, 0.0, 0.0, 0.0, 0.0, 0.0, 0.0, 0.0, 0.0, 0.0, 1.663592970006066E9, 0.0, 2022-09-19 18:09:30.006
32.0, -36201.48881691561, -21435.30058089502, -66599.95068311103, -20718.748357146786, -53934.96053635604, 187500.0, -54674.17742898196, -17006.45887928711, 0.622, -0.562, 0.578, 192.0, 0.0, 0.0, 0.0, 0.0, 0.0, 0.0, 0.0, 0.0, 0.0, 1.6635929700100467E9, 0.0, 2022-09-19 18:09:30.010
33.0, -36275.60720152941, -21411.987711428133, -66609.36076752673, -20699.592912148586, -53961.71557446904, 187500.0, -54602.31657055814, -16995.573579737375, 0.622, -0.562, 0.578, 192.0, 0.0, 0.0, 0.0, 0.0, 0.0, 0.0, 0.0, 0.0, 0.0, 1.6635929700139987E9, 0.0, 2022-09-19 18:09:30.013
34.0, -36140.557961530445, -21379.734144179125, -66669.93399500061, -20717.362548990553, -53918.73316988149, 187500.0, -54573.63928242199, -16995.97591113757, 0.622, -0.562, 0.578, 192.0, 0.0, 0.0, 0.0, 0.0, 0.0, 0.0, 0.0, 0.0, 0.0, 1.6635929700170124E9, 0.0, 2022-09-19 18:09:30.017
35.0, -35843.860905630696, -21370.257004530074, -66758.26808908799, -20770.35853509409, -53826.10754085869, 187500.0, -54624.891832458, -17020.249905616034, 0.622, -0.562, 0.578, 192.0, 0.0, 0.0, 0.0, 0.0, 0.0, 0.0, 0.0, 0.0, 0.0, 1.663592970021082E9, 0.0, 2022-09-19 18:09:30.021
36.0, -35907.608080817234, -21421.71072026619, -66708.37899546373, -20773.711296762383, -53837.75279971991, 187500.0, -54741.07620013669, -17026.821318485894, 0.622, -0.562, 0.578, 192.0, 0.0, 0.0, 0.0, 0.0, 0.0, 0.0, 0.0, 0.0, 0.0, 1.6635929700260327E9, 0.0, 2022-09-19 18:09:30.026
37.0, -36198.11370350286, -21452.064389236497, -66619.66492172061, -20732.002941608782, -53923.15881528364, 187500.0, -54694.96455132539, -17009.02932989947, 0.622, -0.562, 0.578, 192.0, 0.0, 0.0, 0.0, 0.0, 0.0, 0.0, 0.0, 0.0, 0.0, 1.6635929700300004E9, 0.0, 2022-09-19 18:09:30.030
38.0, -36269.50517529311, -21422.828307488955, -66622.59300024426, -20717.474307712833, -53946.51638823943, 187500.0, -54617.314591087656, -16999.708652461606, 0.62, -0.56, 0.5740000000000001, 192.0, 19.0, 96.0, 238.0, 128.0, 17.0, 240.0, 0.0, 0.0, 0.0, 1.663592970034092E9, 0.0, 2022-09-19 18:09:30.034
39.0, -36136.981682417594, -21388.67484196125, -66688.30712894286, -20743.178813836435, -53908.071387776305, 187500.0, -54593.77820417622, -17010.99628341154, 0.62, -0.56, 0.5740000000000001, 192.0, 0.0, 0.0, 0.0, 0.0, 0.0, 0.0, 0.0, 0.0, 0.0, 1.6635929700381012E9, 0.0, 2022-09-19 18:09:30.038
40.0, -35837.80358288331, -21376.448437744195, -66777.13296140826, -20787.03293645775, -53813.478805241444, 187500.0, -54638.682858786924, -17028.341237108856, 0.62, -0.56, 0.5740000000000001, 192.0, 0.0, 0.0, 0.0, 0.0, 0.0, 0.0, 0.0, 0.0, 0.0, 1.6635929700420647E9, 0.0, 2022-09-19 18:09:30.042
41.0, -35898.35445861274, -21428.438595347237, -66726.81918463936, -20786.25062540181, -53821.9054129011, 187500.0, -54757.59413928916, -17030.397597598745, 0.62, -0.56, 0.5740000000000001, 192.0, 0.0, 0.0, 0.0, 0.0, 0.0, 0.0, 0.0, 0.0, 0.0, 1.6635929700450127E9, 0.0, 2022-09-19 18:09:30.045
42.0, -36185.03793299651, -21443.436615876748, -66623.95645665604, -20737.85909865607, -53904.2715912189, 187500.0, -54705.42516773047, -17008.13526012126, 0.62, -0.56, 0.5740000000000001, 192.0, 0.0, 0.0, 0.0, 0.0, 0.0, 0.0, 0.0, 0.0, 0.0, 1.6635929700492203E9, 0.0, 2022-09-19 18:09:30.049
43.0, -36257.658750731796, -21412.412394572784, -66621.4307095326, -20720.04475832519, -53928.05384731935, 187500.0, -54623.66248651296, -16997.98756813855, 0.62, -0.56, 0.5740000000000001, 192.0, 0.0, 0.0, 0.0, 0.0, 0.0, 0.0, 0.0, 0.0, 0.0, 1.663592970053185E9, 0.0, 2022-09-19 18:09:30.053
44.0, -36126.18578984568, -21378.638908700814, -66676.34894565928, -20732.852307898083, -53888.42420440009, 187500.0, -54597.13096584451, -17001.608550740308, 0.62, -0.56, 0.5740000000000001, 192.0, 0.0, 0.0, 0.0, 0.0, 0.0, 0.0, 0.0, 0.0, 0.0, 1.6635929700581489E9, 0.0, 2022-09-19 18:09:30.058
45.0, -35823.81139085429, -21359.572870680437, -66753.52951926345, -20772.370192095066, -53789.4953834409, 187500.0, -54635.061876185166, -17016.09248114735, 0.62, -0.56, 0.5740000000000001, 192.0, 0.0, 0.0, 0.0, 0.0, 0.0, 0.0, 0.0, 0.0, 0.0, 1.663592970062216E9, 0.0, 2022-09-19 18:09:30.062
46.0, -35882.37296132719, -21412.211228872686, -66700.17590524863, -20776.77348575276, -53797.51965970036, 187500.0, -54749.41340081852, -17020.674588760685, 0.62, -0.56, 0.5740000000000001, 192.0, 0.0, 0.0, 0.0, 0.0, 0.0, 0.0, 0.0, 0.0, 0.0, 1.6635929700661588E9, 0.0, 2022-09-19 18:09:30.066
47.0, -36173.03504622401, -21444.308333910507, -66610.65716870513, -20736.741511433305, -53882.59039909726, 187500.0, -54710.566068955195, -17005.095422875336, 0.62, -0.56, 0.5740000000000001, 192.0, 0.0, 0.0, 0.0, 0.0, 0.0, 0.0, 0.0, 0.0, 0.0, 1.6635929700701184E9, 0.0, 2022-09-19 18:09:30.070
48.0, -36243.040709858025, -21418.46971732017, -66616.44627051905, -20715.127374545023, -53904.785681341375, 187500.0, -54637.43116109743, -16991.818486668883, 0.63, -0.5660000000000001, 0.5720000000000001, 192.0, 19.0, 176.0, 238.0, 80.0, 17.0, 224.0, 0.0, 0.0, 0.0, 1.6635929700731926E9, 0.0, 2022-09-19 18:09:30.073
49.0, -36107.544434969954, -21382.90809189178, -66674.62786133622, -20733.835784654115, -53860.90920697561, 187500.0, -54603.99295139229, -16993.964254136594, 0.63, -0.5660000000000001, 0.5720000000000001, 192.0, 0.0, 0.0, 0.0, 0.0, 0.0, 0.0, 0.0, 0.0, 0.0, 1.6635929700771651E9, 0.0, 2022-09-19 18:09:30.077
50.0, -35806.734658090434, -21363.216205026652, -66766.38177232526, -20785.60242481261, -53764.08144999522, 187500.0, -54649.746972292305, -17018.70763524862, 0.63, -0.5660000000000001, 0.5720000000000001, 192.0, 0.0, 0.0, 0.0, 0.0, 0.0, 0.0, 0.0, 0.0, 0.0, 1.6635929700821557E9, 0.0, 2022-09-19 18:09:30.082
51.0, -35860.356493038715, -21412.85942946189, -66713.98928332202, -20786.87647424656, -53770.429345420525, 187500.0, -54760.969252701914, -17025.3684550963, 0.63, -0.5660000000000001, 0.5720000000000001, 192.0, 0.0, 0.0, 0.0, 0.0, 0.0, 0.0, 0.0, 0.0, 0.0, 1.663592970086171E9, 0.0, 2022-09-19 18:09:30.086
52.0, -36146.212952877635, -21431.61254305989, -66609.83015416029, -20728.091386329103, -53852.03556442685, 187500.0, -54706.81097588671, -16998.881637916762, 0.63, -0.5660000000000001, 0.5720000000000001, 192.0, 0.0, 0.0, 0.0, 0.0, 0.0, 0.0, 0.0, 0.0, 0.0, 1.6635929700901682E9, 0.0, 2022-09-19 18:09:30.090
53.0, -36219.88430260233, -21409.260798604584, -66615.88747690768, -20709.76295587575, -53877.248332172436, 187500.0, -54628.691629015404, -16987.68341394465, 0.63, -0.5660000000000001, 0.5720000000000001, 192.0, 0.0, 0.0, 0.0, 0.0, 0.0, 0.0, 0.0, 0.0, 0.0, 1.6635929700961983E9, 0.0, 2022-09-19 18:09:30.096
54.0, -36091.272365006495, -21391.535865251528, -66683.09917248478, -20734.81926141015, -53838.80333170931, 187500.0, -54606.63045723802, -17000.155687350714, 0.63, -0.5660000000000001, 0.5720000000000001, 192.0, 0.0, 0.0, 0.0, 0.0, 0.0, 0.0, 0.0, 0.0, 0.0, 1.663592970099192E9, 0.0, 2022-09-19 18:09:30.099
55.0, -35785.25463166888, -21369.474693474138, -66766.20295836961, -20780.662689287983, -53740.90269099506, 187500.0, -54644.29314664521, -17023.177984139682, 0.63, -0.5660000000000001, 0.5720000000000001, 192.0, 0.0, 0.0, 0.0, 0.0, 0.0, 0.0, 0.0, 0.0, 0.0, 1.6635929701021645E9, 0.0, 2022-09-19 18:09:30.102
56.0, -35838.18356253905, -21408.254970104095, -66708.17782976363, -20779.410991598488, -53749.105781210164, 187500.0, -54748.74284848486, -17029.3694173538, 0.63, -0.5660000000000001, 0.5720000000000001, 192.0, 0.0, 0.0, 0.0, 0.0, 0.0, 0.0, 0.0, 0.0, 0.0, 1.6635929701052518E9, 0.0, 2022-09-19 18:09:30.105
57.0, -36129.024461391506, -21431.76900527108, -66612.40060477264, -20728.270200284744, -53834.26592758488, 187500.0, -54698.898458349526, -17008.515239777, 0.63, -0.5660000000000001, 0.5720000000000001, 192.0, 0.0, 0.0, 0.0, 0.0, 0.0, 0.0, 0.0, 0.0, 0.0, 1.6635929701092205E9, 0.0, 2022-09-19 18:09:30.109
58.0, -36204.48395067262, -21413.686444006737, -66620.69310196556, -20713.76391813325, -53861.78092500936, 187500.0, -54623.729541746325, -17002.45791702961, 0.626, -0.562, 0.5660000000000001, 192.0, 19.0, 144.0, 238.0, 112.0, 17.0, 176.0, 0.0, 0.0, 0.0, 1.6635929701141782E9, 0.0, 2022-09-19 18:09:30.114
59.0, -36069.65822811821, -21384.450362259195, -66681.26632943944, -20731.891182886506, -53819.22320356646, 187500.0, -54595.342826288084, -17001.474440273578, 0.626, -0.562, 0.5660000000000001, 192.0, 0.0, 0.0, 0.0, 0.0, 0.0, 0.0, 0.0, 0.0, 0.0, 1.6635929701181867E9, 0.0, 2022-09-19 18:09:30.118
60.0, -35765.9427244595, -21365.004344583078, -66769.75688573801, -20780.327413121155, -53721.702542507956, 187500.0, -54637.98995470881, -17019.266428860003, 0.626, -0.562, 0.5660000000000001, 192.0, 0.0, 0.0, 0.0, 0.0, 0.0, 0.0, 0.0, 0.0, 0.0, 1.6635929701212783E9, 0.0, 2022-09-19 18:09:30.121
61.0, -35820.27981523035, -21408.657301504292, -66721.65593167019, -20783.635471300542, -53729.83857748969, 187500.0, -54750.66509850801, -17024.250867873536, 0.626, -0.562, 0.5660000000000001, 192.0, 0.0, 0.0, 0.0, 0.0, 0.0, 0.0, 0.0, 0.0, 0.0, 1.663592970125264E9, 0.0, 2022-09-19 18:09:30.125
62.0, -36109.28787103747, -21428.684464536247, -66632.33836082678, -20739.33431379012, -53815.62457270916, 187500.0, -54705.26870551929, -17005.83303044236, 0.626, -0.562, 0.5660000000000001, 192.0, 0.0, 0.0, 0.0, 0.0, 0.0, 0.0, 0.0, 0.0, 0.0, 1.6635929701292417E9, 0.0, 2022-09-19 18:09:30.129
63.0, -36183.138034717806, -21413.127650395352, -66639.06623590783, -20720.80471763667, -53842.20079686651, 187500.0, -54631.10561741658, -16993.338405291845, 0.626, -0.562, 0.5660000000000001, 192.0, 0.0, 0.0, 0.0, 0.0, 0.0, 0.0, 0.0, 0.0, 0.0, 1.6635929701332304E9, 0.0, 2022-09-19 18:09:30.133
64.0, -36049.34049240834, -21390.194760584207, -66700.68999537111, -20737.523822489242, -53801.02888357984, 187500.0, -54598.5391257452, -16995.864152415295, 0.626, -0.562, 0.5660000000000001, 192.0, 0.0, 0.0, 0.0, 0.0, 0.0, 0.0, 0.0, 0.0, 0.0, 1.6635929701372137E9, 0.0, 2022-09-19 18:09:30.137
65.0, -35745.17795386052, -21358.85761485787, -66786.3642318683, -20783.791933511726, -53701.89889692055, 187500.0, -54633.11727441756, -17017.724158492587, 0.626, -0.562, 0.5660000000000001, 192.0, 0.0, 0.0, 0.0, 0.0, 0.0, 0.0, 0.0, 0.0, 0.0, 1.663592970142276E9, 0.0, 2022-09-19 18:09:30.142
66.0, -35795.67054458506, -21404.43282180224, -66727.98147535104, -20781.377945110555, -53704.02231264381, 187500.0, -54734.08010412218, -17018.729986993076, 0.626, -0.562, 0.5660000000000001, 192.0, 0.0, 0.0, 0.0, 0.0, 0.0, 0.0, 0.0, 0.0, 0.0, 1.6635929701461997E9, 0.0, 2022-09-19 18:09:30.146
67.0, -36083.583364913866, -21433.132461682853, -66635.44525330607, -20734.282819543223, -53785.06973803875, 187500.0, -54684.123955264564, -16999.2616175725, 0.626, -0.562, 0.5660000000000001, 192.0, 0.0, 0.0, 0.0, 0.0, 0.0, 0.0, 0.0, 0.0, 0.0, 1.6635929701492257E9, 0.0, 2022-09-19 18:09:30.149
68.0, -36161.07686294042, -21408.99257767112, -66640.74261674198, -20716.53553444571, -53813.52350873036, 187500.0, -54609.35737006157, -16994.45599251461, 0.62, -0.56, 0.5700000000000001, 192.0, 19.0, 96.0, 238.0, 128.0, 17.0, 208.0, 0.0, 0.0, 0.0, 1.6635929701532185E9, 0.0, 2022-09-19 18:09:30.153
69.0, -36027.793410753424, -21376.33667902192, -66698.83480058132, -20733.142880576, -53772.91038905506, 187500.0, -54582.93760811539, -16994.70186170362, 0.62, -0.56, 0.5700000000000001, 192.0, 0.0, 0.0, 0.0, 0.0, 0.0, 0.0, 0.0, 0.0, 0.0, 1.66359297015728E9, 0.0, 2022-09-19 18:09:30.157
70.0, -35720.92631112651, -21354.36491422235, -66785.09018243435, -20779.701564276405, -53671.992262839354, 187500.0, -54624.578908035626, -17013.41027181271, 0.62, -0.56, 0.5700000000000001, 192.0, 0.0, 0.0, 0.0, 0.0, 0.0, 0.0, 0.0, 0.0, 0.0, 1.663592970163283E9, 0.0, 2022-09-19 18:09:30.163
71.0, -35775.33045713073, -21396.67676647625, -66728.4061584957, -20775.521788063263, -53678.45191698694, 187500.0, -54727.37458078559, -17017.545344536942, 0.62, -0.56, 0.5700000000000001, 192.0, 0.0, 0.0, 0.0, 0.0, 0.0, 0.0, 0.0, 0.0, 0.0, 1.6635929701672583E9, 0.0, 2022-09-19 18:09:30.167
72.0, -36070.88757406325, -21430.405548859304, -66641.36846558673, -20730.10304333008, -53768.37298493063, 187500.0, -54687.54377216623, -17001.832068184864, 0.62, -0.56, 0.5700000000000001, 192.0, 0.0, 0.0, 0.0, 0.0, 0.0, 0.0, 0.0, 0.0, 0.0, 1.6635929701702533E9, 0.0, 2022-09-19 18:09:30.170
73.0, -36143.79896447647, -21399.42603104425, -66642.15077664265, -20709.51708668674, -53794.41276722107, 187500.0, -54611.011399151255, -16990.075050601372, 0.62, -0.56, 0.5700000000000001, 192.0, 0.0, 0.0, 0.0, 0.0, 0.0, 0.0, 0.0, 0.0, 0.0, 1.663592970174448E9, 0.0, 2022-09-19 18:09:30.174
74.0, -36012.84009371282, -21366.680725417224, -66700.242960482, -20729.611304952065, -53755.54308361329, 187500.0, -54579.070756324625, -16999.283969316955, 0.62, -0.56, 0.5700000000000001, 192.0, 0.0, 0.0, 0.0, 0.0, 0.0, 0.0, 0.0, 0.0, 0.0, 1.6635929701773334E9, 0.0, 2022-09-19 18:09:30.177
75.0, -35715.74070641288, -21350.9898008096, -66786.38658361275, -20778.651032287005, -53661.48694294536, 187500.0, -54623.05898941267, -17022.999170184037, 0.62, -0.56, 0.5700000000000001, 192.0, 0.0, 0.0, 0.0, 0.0, 0.0, 0.0, 0.0, 0.0, 0.0, 1.6635929701813335E9, 0.0, 2022-09-19 18:09:30.181
76.0, -35764.78043374782, -21403.516400279572, -66732.38476900873, -20778.2039973979, -53665.95729183642, 187500.0, -54732.62724073258, -17024.56379229591, 0.62, -0.56, 0.5700000000000001, 192.0, 0.0, 0.0, 0.0, 0.0, 0.0, 0.0, 0.0, 0.0, 0.0, 1.6635929701853216E9, 0.0, 2022-09-19 18:09:30.185
77.0, -36059.957571024606, -21433.981827972155, -66639.28975335238, -20730.95240961938, -53754.31373766825, 187500.0, -54690.225981500866, -17007.08472813186, 0.62, -0.56, 0.5700000000000001, 192.0, 0.0, 0.0, 0.0, 0.0, 0.0, 0.0, 0.0, 0.0, 0.0, 1.663592970189345E9, 0.0, 2022-09-19 18:09:30.189
78.0, -36134.32182482741, -21407.115031136876, -66645.86116622224, -20709.38297622001, -53777.15722050157, 187500.0, -54618.47688179933, -16993.07018435838, 0.624, -0.556, 0.5680000000000001, 192.0, 19.0, 128.0, 238.0, 160.0, 17.0, 192.0, 0.0, 0.0, 0.0, 1.6635929701933265E9, 0.0, 2022-09-19 18:09:30.193
79.0, -36002.558291263376, -21378.907129634277, -66707.23905649652, -20733.545211976198, -53734.44303684748, 187500.0, -54595.56634373264, -17000.02157688398, 0.624, -0.556, 0.5680000000000001, 192.0, 0.0, 0.0, 0.0, 0.0, 0.0, 0.0, 0.0, 0.0, 0.0, 1.6635929701973257E9, 0.0, 2022-09-19 18:09:30.197
80.0, -35697.5240346818, -21357.762379379557, -66785.24664464554, -20780.81915149917, -53635.156587977006, 187500.0, -54629.20571913788, -17018.864097459806, 0.624, -0.556, 0.5680000000000001, 192.0, 0.0, 0.0, 0.0, 0.0, 0.0, 0.0, 0.0, 0.0, 0.0, 1.6635929702025344E9, 0.0, 2022-09-19 18:09:30.202
81.0, -35742.51809627034, -21402.063536889975, -66731.4012922527, -20778.360459609088, -53635.82714031066, 187500.0, -54736.89642392355, -17017.299475347936, 0.624, -0.556, 0.5680000000000001, 192.0, 0.0, 0.0, 0.0, 0.0, 0.0, 0.0, 0.0, 0.0, 0.0, 1.663592970205346E9, 0.0, 2022-09-19 18:09:30.205
82.0, -36038.2540271585, -21441.737883298145, -66645.10120691075, -20737.210898066867, -53721.79194948578, 187500.0, -54706.20747878641, -17004.067242630394, 0.624, -0.556, 0.5680000000000001, 192.0, 0.0, 0.0, 0.0, 0.0, 0.0, 0.0, 0.0, 0.0, 0.0, 1.6635929702093077E9, 0.0, 2022-09-19 18:09:30.209
83.0, -36114.65228970674, -21424.527040067558, -66644.8776894662, -20715.350891989576, -53746.84825502017, 187500.0, -54627.5963935371, -16990.96912037958, 0.624, -0.556, 0.5680000000000001, 192.0, 0.0, 0.0, 0.0, 0.0, 0.0, 0.0, 0.0, 0.0, 0.0, 1.663592970213341E9, 0.0, 2022-09-19 18:09:30.213
84.0, -35988.52139574545, -21402.488220034626, -66707.68609138562, -20741.05539811318, -53709.72200747991, 187500.0, -54603.50121301427, -16995.350062292822, 0.624, -0.556, 0.5680000000000001, 192.0, 0.0, 0.0, 0.0, 0.0, 0.0, 0.0, 0.0, 0.0, 0.0, 1.663592970217383E9, 0.0, 2022-09-19 18:09:30.217
85.0, -35687.39869444355, -21375.95669936618, -66792.0192232155, -20797.046517973726, -53615.7552737898, 187500.0, -54634.86071048507, -17020.384016082768, 0.624, -0.556, 0.5680000000000001, 192.0, 0.0, 0.0, 0.0, 0.0, 0.0, 0.0, 0.0, 0.0, 0.0, 1.6635929702214568E9, 0.0, 2022-09-19 18:09:30.221
86.0, -35732.97390138792, -21420.66018827679, -66742.46540575808, -20797.02416622927, -53622.25963142629, 187500.0, -54746.19474961695, -17028.117719664304, 0.624, -0.556, 0.5680000000000001, 192.0, 0.0, 0.0, 0.0, 0.0, 0.0, 0.0, 0.0, 0.0, 0.0, 1.66359297022542E9, 0.0, 2022-09-19 18:09:30.225
87.0, -36019.545617049414, -21443.05663622101, -66643.20130863205, -20739.379017279032, -53705.72104522241, 187500.0, -54700.73130139486, -17001.161515851203, 0.624, -0.556, 0.5680000000000001, 192.0, 0.0, 0.0, 0.0, 0.0, 0.0, 0.0, 0.0, 0.0, 0.0, 1.663592970230445E9, 0.0, 2022-09-19 18:09:30.230
88.0, -36091.45117896213, -21409.216095115673, -66641.70374175355, -20715.462650711856, -53729.033914689295, 187500.0, -54621.82964346762, -16982.6095679533, 0.624, -0.556, 0.5680000000000001, 192.0, 0.0, 0.0, 0.0, 0.0, 0.0, 0.0, 0.0, 0.0, 0.0, 1.6635929702334037E9, 0.0, 2022-09-19 18:09:30.233
89.0, -35963.889773355695, -21382.10342909139, -66703.84159133931, -20739.311962045667, -53691.95237063794, 187500.0, -54598.136794345, -16990.097402345826, 0.63, -0.56, 0.5700000000000001, 192.0, 19.0, 176.0, 238.0, 128.0, 17.0, 208.0, 0.0, 0.0, 0.0, 1.6635929702384095E9, 0.0, 2022-09-19 18:09:30.238
90.0, -35661.470670875395, -21361.18219628122, -66785.44781034563, -20790.855084759605, -53598.164450903474, 187500.0, -54632.73729476181, -17016.204239869625, 0.63, -0.56, 0.5700000000000001, 192.0, 0.0, 0.0, 0.0, 0.0, 0.0, 0.0, 0.0, 0.0, 0.0, 1.6635929702424295E9, 0.0, 2022-09-19 18:09:30.242
91.0, -35701.99438357286, -21398.867237432867, -66725.43337648314, -20781.73557302184, -53604.33353237314, 187500.0, -54736.87407217909, -17013.074995645882, 0.63, -0.56, 0.5700000000000001, 192.0, 0.0, 0.0, 0.0, 0.0, 0.0, 0.0, 0.0, 0.0, 0.0, 1.6635929702454755E9, 0.0, 2022-09-19 18:09:30.245
92.0, -35987.180291078126, -21415.116955651876, -66627.5774392578, -20726.727929917328, -53688.33138803618, 187500.0, -54689.175449511466, -16988.75629767851, 0.63, -0.56, 0.5700000000000001, 192.0, 0.0, 0.0, 0.0, 0.0, 0.0, 0.0, 0.0, 0.0, 0.0, 1.663592970251438E9, 0.0, 2022-09-19 18:09:30.251
93.0, -36070.82051882989, -21399.984824655632, -66638.5297940409, -20711.90872334346, -53722.171929141514, 187500.0, -54619.77328297774, -16985.93997787714, 0.63, -0.56, 0.5700000000000001, 192.0, 0.0, 0.0, 0.0, 0.0, 0.0, 0.0, 0.0, 0.0, 0.0, 1.6635929702544994E9, 0.0, 2022-09-19 18:09:30.254
94.0, -35950.16580226014, -21373.85563538738, -66699.66181512616, -20731.220630552845, -53688.063167102715, 187500.0, -54594.67227395443, -16993.360757036302, 0.63, -0.56, 0.5700000000000001, 192.0, 0.0, 0.0, 0.0, 0.0, 0.0, 0.0, 0.0, 0.0, 0.0, 1.663592970258468E9, 0.0, 2022-09-19 18:09:30.258
95.0, -35646.942036979446, -21356.153053778777, -66784.08435393385, -20781.10972417709, -53591.97301768935, 187500.0, -54632.51377731726, -17017.835917214863, 0.63, -0.56, 0.5700000000000001, 192.0, 0.0, 0.0, 0.0, 0.0, 0.0, 0.0, 0.0, 0.0, 0.0, 1.6635929702614708E9, 0.0, 2022-09-19 18:09:30.261
96.0, -35695.04299104727, -21408.478487548648, -66731.96008586408, -20781.82497999966, -53596.46571832487, 187500.0, -54743.57959551569, -17027.60362954183, 0.63, -0.56, 0.5700000000000001, 192.0, 0.0, 0.0, 0.0, 0.0, 0.0, 0.0, 0.0, 0.0, 0.0, 1.6635929702644572E9, 0.0, 2022-09-19 18:09:30.264
97.0, -35981.34648577529, -21428.796223258523, -66633.21007886053, -20726.258543283766, -53676.730832663874, 187500.0, -54697.44559495993, -17004.894257175238, 0.63, -0.56, 0.5700000000000001, 192.0, 0.0, 0.0, 0.0, 0.0, 0.0, 0.0, 0.0, 0.0, 0.0, 1.6635929702694852E9, 0.0, 2022-09-19 18:09:30.269
98.0, -36062.57272512588, -21407.472659048162, -66640.65320976415, -20710.277045998224, -53706.23513534488, 187500.0, -54622.209623123366, -16994.88067565926, 0.63, -0.56, 0.5700000000000001, 192.0, 0.0, 0.0, 0.0, 0.0, 0.0, 0.0, 0.0, 0.0, 0.0, 1.6635929702734904E9, 0.0, 2022-09-19 18:09:30.273
99.0, -35937.045328264874, -21380.09177209041, -66700.93586456012, -20731.891182886506, -53667.790134881754, 187500.0, -54592.6829686979, -16998.389899538746, 0.634, -0.558, 0.5760000000000001, 192.0, 19.0, 208.0, 238.0, 144.0, 18.0, 0.0, 0.0, 0.0, 0.0, 1.6635929702774887E9, 0.0, 2022-09-19 18:09:30.277
100.0, -35636.168496151986, -21366.747780650592, -66788.17472316918, -20785.714183534885, -53572.45994477987, 187500.0, -54632.62553603954, -17022.328617850377, 0.634, -0.558, 0.5760000000000001, 192.0, 0.0, 0.0, 0.0, 0.0, 0.0, 0.0, 0.0, 0.0, 0.0, 1.663592970281479E9, 0.0, 2022-09-19 18:09:30.281
101.0, -35679.10619725063, -21412.881781206346, -66737.3021527889, -20788.73166903635, -53576.68442448192, 187500.0, -54742.61847050411, -17025.301399862936, 0.634, -0.558, 0.5760000000000001, 192.0, 0.0, 0.0, 0.0, 0.0, 0.0, 0.0, 0.0, 0.0, 0.0, 1.663592970286476E9, 0.0, 2022-09-19 18:09:30.286
102.0, -35965.94613384559, -21430.025569203564, -66638.41803531862, -20736.42858701093, -53658.42475395498, 187500.0, -54699.233734516354, -17002.815544940895, 0.634, -0.558, 0.5760000000000001, 192.0, 0.0, 0.0, 0.0, 0.0, 0.0, 0.0, 0.0, 0.0, 0.0, 1.6635929702895517E9, 0.0, 2022-09-19 18:09:30.289
103.0, -36045.406585384204, -21410.84777246091, -66641.9272591981, -20719.217743780344, -53685.44801300145, 187500.0, -54626.47880631433, -16991.55026573542, 0.634, -0.558, 0.5760000000000001, 192.0, 0.0, 0.0, 0.0, 0.0, 0.0, 0.0, 0.0, 0.0, 0.0, 1.663592970292515E9, 0.0, 2022-09-19 18:09:30.292
104.0, -35917.95693850004, -21382.505760491582, -66697.42664068063, -20737.032084111226, -53644.38785843705, 187500.0, -54596.79568967768, -16992.26552155799, 0.634, -0.558, 0.5760000000000001, 192.0, 0.0, 0.0, 0.0, 0.0, 0.0, 0.0, 0.0, 0.0, 0.0, 1.663592970297501E9, 0.0, 2022-09-19 18:09:30.297
105.0, -35612.2074260959, -21358.85761485787, -66786.09601093484, -20780.953261965904, -53542.19568278739, 187500.0, -54636.53709131922, -17008.202315354625, 0.634, -0.558, 0.5760000000000001, 192.0, 0.0, 0.0, 0.0, 0.0, 0.0, 0.0, 0.0, 0.0, 0.0, 1.6635929703015416E9, 0.0, 2022-09-19 18:09:30.301
106.0, -35656.642694073045, -21408.970225926667, -66736.07280684386, -20788.01641321378, -53547.895377623485, 187500.0, -54751.64857526405, -17017.3665305813, 0.634, -0.558, 0.5760000000000001, 192.0, 0.0, 0.0, 0.0, 0.0, 0.0, 0.0, 0.0, 0.0, 0.0, 1.6635929703054993E9, 0.0, 2022-09-19 18:09:30.305
107.0, -35950.188154004594, -21434.67473205027, -66634.05944514983, -20738.77552017874, -53633.72607633187, 187500.0, -54711.39308350004, -17002.346158307333, 0.634, -0.558, 0.5760000000000001, 192.0, 0.0, 0.0, 0.0, 0.0, 0.0, 0.0, 0.0, 0.0, 0.0, 1.6635929703095467E9, 0.0, 2022-09-19 18:09:30.309
108.0, -36028.46396308708, -21412.792374228524, -66640.13911964168, -20719.553019947176, -53658.156533021516, 187500.0, -54639.82279775415, -16994.187771581146, 0.634, -0.558, 0.5760000000000001, 192.0, 0.0, 0.0, 0.0, 0.0, 0.0, 0.0, 0.0, 0.0, 0.0, 1.6635929703145964E9, 0.0, 2022-09-19 18:09:30.314
109.0, -35897.59449930126, -21375.934347621722, -66695.3926319352, -20733.81343290966, -53614.5035761003, 187500.0, -54614.05123639718, -16992.60079772482, 0.63, -0.562, 0.5760000000000001, 192.0, 19.0, 176.0, 238.0, 112.0, 18.0, 0.0, 0.0, 0.0, 0.0, 1.6635929703175108E9, 0.0, 2022-09-19 18:09:30.317
110.0, -35596.98588812183, -21360.779864881024, -66788.0629644469, -20790.855084759605, -53520.04510403217, 187500.0, -54661.45928638688, -17018.819393970894, 0.63, -0.562, 0.5760000000000001, 192.0, 0.0, 0.0, 0.0, 0.0, 0.0, 0.0, 0.0, 0.0, 0.0, 1.66359297032058E9, 0.0, 2022-09-19 18:09:30.320
111.0, -35636.637882785544, -21402.979958412645, -66739.04558885642, -20789.134000436545, -53521.408560443946, 187500.0, -54770.35698537314, -17023.69207426215, 0.63, -0.562, 0.5760000000000001, 192.0, 0.0, 0.0, 0.0, 0.0, 0.0, 0.0, 0.0, 0.0, 0.0, 1.6635929703255124E9, 0.0, 2022-09-19 18:09:30.325
112.0, -35927.43407814909, -21426.829269746457, -66647.02345693391, -20733.3440462761, -53604.33353237314, 187500.0, -54726.63697321856, -17001.385033295755, 0.63, -0.562, 0.5760000000000001, 192.0, 0.0, 0.0, 0.0, 0.0, 0.0, 0.0, 0.0, 0.0, 0.0, 1.6635929703295107E9, 0.0, 2022-09-19 18:09:30.329
113.0, -36003.74293371951, -21405.32689158045, -66649.23627963499, -20708.46655469734, -53625.72415181687, 187500.0, -54649.97048973686, -16984.88944588774, 0.63, -0.562, 0.5760000000000001, 192.0, 0.0, 0.0, 0.0, 0.0, 0.0, 0.0, 0.0, 0.0, 0.0, 1.663592970333696E9, 0.0, 2022-09-19 18:09:30.333
114.0, -35877.969667669495, -21385.344432037407, -66714.95040833359, -20734.57339222114, -53587.36855833156, 187500.0, -54626.255288869776, -16995.75239369302, 0.63, -0.562, 0.5760000000000001, 192.0, 0.0, 0.0, 0.0, 0.0, 0.0, 0.0, 0.0, 0.0, 0.0, 1.6635929703395727E9, 0.0, 2022-09-19 18:09:30.339
115.0, -35577.31635300116, -21375.53201622153, -66806.92783676718, -20790.74332603733, -53493.4241763859, 187500.0, -54668.38832716803, -17022.954466695126, 0.63, -0.562, 0.5760000000000001, 192.0, 0.0, 0.0, 0.0, 0.0, 0.0, 0.0, 0.0, 0.0, 0.0, 1.663592970343604E9, 0.0, 2022-09-19 18:09:30.343
116.0, -35615.895463931025, -21405.818629958467, -66745.59464998182, -20787.21175041339, -53491.837202529576, 187500.0, -54774.64852030856, -17022.775652739485, 0.63, -0.562, 0.5760000000000001, 192.0, 0.0, 0.0, 0.0, 0.0, 0.0, 0.0, 0.0, 0.0, 0.0, 1.663592970346614E9, 0.0, 2022-09-19 18:09:30.346
117.0, -35906.19992091655, -21426.583400557447, -66645.66000052214, -20739.222555067845, -53577.35497681558, 187500.0, -54729.095665108645, -17004.827201941873, 0.63, -0.562, 0.5760000000000001, 192.0, 0.0, 0.0, 0.0, 0.0, 0.0, 0.0, 0.0, 0.0, 0.0, 1.663592970350608E9, 0.0, 2022-09-19 18:09:30.350
118.0, -35989.30370680138, -21410.22192361616, -66649.45979707954, -20720.648255425484, -53604.48999458433, 187500.0, -54652.00449848229, -16995.439469270645, 0.63, -0.562, 0.5760000000000001, 192.0, 0.0, 0.0, 0.0, 0.0, 0.0, 0.0, 0.0, 0.0, 0.0, 1.6635929703536067E9, 0.0, 2022-09-19 18:09:30.353
119.0, -35867.64316173115, -21379.80119941249, -66707.82020185234, -20735.333351532623, -53564.07804060913, 187500.0, -54626.29999235869, -16992.913722147194, 0.626, -0.556, 0.5760000000000001, 192.0, 19.0, 144.0, 238.0, 160.0, 18.0, 0.0, 0.0, 0.0, 0.0, 1.6635929703576276E9, 0.0, 2022-09-19 18:09:30.357
120.0, -35561.75953886027, -21361.383361981316, -66803.82094428789, -20786.608253313098, -53463.9198737049, 187500.0, -54670.15411498, -17012.78442296796, 0.626, -0.556, 0.5760000000000001, 192.0, 0.0, 0.0, 0.0, 0.0, 0.0, 0.0, 0.0, 0.0, 0.0, 1.6635929703616943E9, 0.0, 2022-09-19 18:09:30.361
121.0, -35594.080161342645, -21396.9002839208, -66758.02221989896, -20788.06111670269, -53462.04232717065, 187500.0, -54780.683491311494, -17016.964199181104, 0.626, -0.556, 0.5760000000000001, 192.0, 0.0, 0.0, 0.0, 0.0, 0.0, 0.0, 0.0, 0.0, 0.0, 1.6635929703656347E9, 0.0, 2022-09-19 18:09:30.365
122.0, -35885.9715921845, -21421.889534221835, -66660.1886344181, -20736.652104455487, -53545.92842411142, 187500.0, -54733.16368259951, -16995.238303570546, 0.626, -0.556, 0.5760000000000001, 192.0, 0.0, 0.0, 0.0, 0.0, 0.0, 0.0, 0.0, 0.0, 0.0, 1.6635929703686738E9, 0.0, 2022-09-19 18:09:30.368
123.0, -35965.38734023421, -21395.447420531204, -66661.37327687422, -20716.379072234522, -53571.185895345916, 187500.0, -54648.94230949191, -16982.631919697753, 0.626, -0.556, 0.5760000000000001, 192.0, 0.0, 0.0, 0.0, 0.0, 0.0, 0.0, 0.0, 0.0, 0.0, 1.6635929703726962E9, 0.0, 2022-09-19 18:09:30.372
124.0, -35837.3118445053, -21367.798312639992, -66725.92511486115, -20739.15549983448, -53529.991630314784, 187500.0, -54623.327210346135, -16989.471553501076, 0.626, -0.556, 0.5760000000000001, 192.0, 0.0, 0.0, 0.0, 0.0, 0.0, 0.0, 0.0, 0.0, 0.0, 1.6635929703766472E9, 0.0, 2022-09-19 18:09:30.376
125.0, -35534.155134457964, -21361.9421555927, -66824.94334279816, -20797.761773796294, -53433.119169845486, 187500.0, -54672.948083036914, -17016.47246080309, 0.626, -0.556, 0.5760000000000001, 192.0, 0.0, 0.0, 0.0, 0.0, 0.0, 0.0, 0.0, 0.0, 0.0, 1.6635929703816967E9, 0.0, 2022-09-19 18:09:30.381
126.0, -35563.77119586125, -21407.740879981626, -66767.56641478138, -20793.045555716224, -53425.67603894187, 187500.0, -54777.397784876564, -17015.69014974715, 0.626, -0.556, 0.5760000000000001, 192.0, 0.0, 0.0, 0.0, 0.0, 0.0, 0.0, 0.0, 0.0, 0.0, 1.6635929703857157E9, 0.0, 2022-09-19 18:09:30.385
127.0, -35852.175754568074, -21438.228659418663, -66659.1828059176, -20731.95823811987, -53504.24242070227, 187500.0, -54724.42415051749, -16990.700899446118, 0.626, -0.556, 0.5760000000000001, 192.0, 0.0, 0.0, 0.0, 0.0, 0.0, 0.0, 0.0, 0.0, 0.0, 1.6635929703896596E9, 0.0, 2022-09-19 18:09:30.389
128.0, -35936.86651430923, -21415.251066118606, -66666.69299205458, -20713.830973366617, -53530.34925822607, 187500.0, -54649.612861825575, -16983.391879009232, 0.626, -0.556, 0.5760000000000001, 192.0, 0.0, 0.0, 0.0, 0.0, 0.0, 0.0, 0.0, 0.0, 0.0, 1.6635929703937225E9, 0.0, 2022-09-19 18:09:30.393
129.0, -35810.936786048034, -21369.921728363246, -66722.57235319285, -20733.18758406491, -53486.98687398277, 187500.0, -54623.8413004686, -16987.92928313366, 0.624, -0.562, 0.5700000000000001, 192.0, 19.0, 128.0, 238.0, 112.0, 17.0, 208.0, 0.0, 0.0, 0.0, 1.6635929703977077E9, 0.0, 2022-09-19 18:09:30.397
130.0, -35504.114389910035, -21337.55640239196, -66804.80442104393, -20779.790971254228, -53384.99586403321, 187500.0, -54659.045297985715, -17008.045853143438, 0.624, -0.562, 0.5700000000000001, 192.0, 0.0, 0.0, 0.0, 0.0, 0.0, 0.0, 0.0, 0.0, 0.0, 1.6635929704017103E9, 0.0, 2022-09-19 18:09:30.401
131.0, -35539.69836708288, -21379.17535056774, -66751.4061035402, -20782.473180588866, -53383.00655877669, 187500.0, -54768.74765977236, -17015.913667191704, 0.624, -0.562, 0.5700000000000001, 192.0, 0.0, 0.0, 0.0, 0.0, 0.0, 0.0, 0.0, 0.0, 0.0, 1.663592970406752E9, 0.0, 2022-09-19 18:09:30.406
132.0, -35833.28853050334, -21414.021720173565, -66649.0798174238, -20736.540345733207, -53467.18322839538, 187500.0, -54727.26282206331, -16997.585236738352, 0.624, -0.562, 0.5700000000000001, 192.0, 0.0, 0.0, 0.0, 0.0, 0.0, 0.0, 0.0, 0.0, 0.0, 1.6635929704107504E9, 0.0, 2022-09-19 18:09:30.410
133.0, -35914.02303147591, -21394.508647264083, -66649.0798174238, -20715.462650711856, -53494.09472871957, 187500.0, -54650.10460020359, -16982.900140631216, 0.624, -0.562, 0.5700000000000001, 192.0, 0.0, 0.0, 0.0, 0.0, 0.0, 0.0, 0.0, 0.0, 0.0, 1.6635929704137309E9, 0.0, 2022-09-19 18:09:30.413
134.0, -35789.970849748956, -21362.232728270617, -66703.3945564502, -20729.164270062956, -53455.96265267881, 187500.0, -54622.343733590096, -16982.229588297556, 0.624, -0.562, 0.5700000000000001, 192.0, 0.0, 0.0, 0.0, 0.0, 0.0, 0.0, 0.0, 0.0, 0.0, 1.6635929704187047E9, 0.0, 2022-09-19 18:09:30.418
135.0, -35486.50121527925, -21348.017018797043, -66798.43417387416, -20781.668517788472, -53358.46434336476, 187500.0, -54667.494257389815, -17007.352949065324, 0.624, -0.562, 0.5700000000000001, 192.0, 0.0, 0.0, 0.0, 0.0, 0.0, 0.0, 0.0, 0.0, 0.0, 1.663592970422782E9, 0.0, 2022-09-19 18:09:30.422
136.0, -35515.714945282336, -21390.641795473315, -66746.93575464914, -20782.026145699758, -53351.51295083916, 187500.0, -54775.00614821984, -17010.728062478072, 0.624, -0.562, 0.5700000000000001, 192.0, 0.0, 0.0, 0.0, 0.0, 0.0, 0.0, 0.0, 0.0, 0.0, 1.6635929704257464E9, 0.0, 2022-09-19 18:09:30.425
137.0, -35810.310937203285, -21428.751519769612, -66651.69497152508, -20736.450938755388, -53437.70127745882, 187500.0, -54738.326935568686, -16995.528876248467, 0.624, -0.562, 0.5700000000000001, 192.0, 0.0, 0.0, 0.0, 0.0, 0.0, 0.0, 0.0, 0.0, 0.0, 1.663592970428802E9, 0.0, 2022-09-19 18:09:30.428
138.0, -35898.734438268475, -21405.505705536092, -66653.63957329269, -20717.58606643511, -53468.94901620734, 187500.0, -54661.32517592015, -16993.83014366986, 0.624, -0.562, 0.5700000000000001, 192.0, 0.0, 0.0, 0.0, 0.0, 0.0, 0.0, 0.0, 0.0, 0.0, 1.6635929704327226E9, 0.0, 2022-09-19 18:09:30.432
139.0, -35772.15650941808, -21363.55148119348, -66703.66277738367, -20726.750281661785, -53427.464178498296, 187500.0, -54623.461320812865, -16995.484172759556, 0.626, -0.556, 0.5720000000000001, 192.0, 19.0, 144.0, 238.0, 160.0, 17.0, 224.0, 0.0, 0.0, 0.0, 1.6635929704368725E9, 0.0, 2022-09-19 18:09:30.436
140.0, -35461.78018591168, -21346.340637962894, -66795.43904011715, -20774.895939218517, -53326.277831349114, 187500.0, -54659.469981130365, -17011.957408423117, 0.626, -0.556, 0.5720000000000001, 192.0, 0.0, 0.0, 0.0, 0.0, 0.0, 0.0, 0.0, 0.0, 0.0, 1.6635929704417806E9, 0.0, 2022-09-19 18:09:30.441
141.0, -35494.57019502761, -21400.52126652256, -66753.23894658554, -20779.4556950874, -53328.177729627816, 187500.0, -54776.54841858726, -17021.166327138704, 0.626, -0.556, 0.5720000000000001, 192.0, 0.0, 0.0, 0.0, 0.0, 0.0, 0.0, 0.0, 0.0, 0.0, 1.6635929704457796E9, 0.0, 2022-09-19 18:09:30.445
142.0, -35792.340134661215, -21432.707778538203, -66660.97094547402, -20733.746377676296, -53415.46129172579, 187500.0, -54744.183092615975, -17009.49871653303, 0.626, -0.556, 0.5720000000000001, 192.0, 0.0, 0.0, 0.0, 0.0, 0.0, 0.0, 0.0, 0.0, 0.0, 1.6635929704497907E9, 0.0, 2022-09-19 18:09:30.449
143.0, -35879.28842059236, -21407.09267939242, -66662.75908503046, -20715.015615822747, -53444.1162281175, 187500.0, -54658.50885611879, -17000.669777473187, 0.626, -0.556, 0.5720000000000001, 192.0, 0.0, 0.0, 0.0, 0.0, 0.0, 0.0, 0.0, 0.0, 0.0, 1.663592970452794E9, 0.0, 2022-09-19 18:09:30.452
144.0, -35756.15266038808, -21376.247272044096, -66717.72202464605, -20730.639485197007, -53406.74411138822, 187500.0, -54624.31068710217, -17004.246056586035, 0.626, -0.556, 0.5720000000000001, 192.0, 0.0, 0.0, 0.0, 0.0, 0.0, 0.0, 0.0, 0.0, 0.0, 1.6635929704567835E9, 0.0, 2022-09-19 18:09:30.456
145.0, -35442.62474091348, -21347.637039141304, -66808.71597632361, -20777.622852042063, -53304.350770038465, 187500.0, -54661.5039898758, -17021.881582961272, 0.626, -0.556, 0.5720000000000001, 192.0, 0.0, 0.0, 0.0, 0.0, 0.0, 0.0, 0.0, 0.0, 0.0, 1.663592970460836E9, 0.0, 2022-09-19 18:09:30.460
146.0, -35471.01145637172, -21381.142304079807, -66762.00083041201, -20783.12138117807, -53300.68508394779, 187500.0, -54773.21800866342, -17028.005960942028, 0.626, -0.556, 0.5720000000000001, 192.0, 0.0, 0.0, 0.0, 0.0, 0.0, 0.0, 0.0, 0.0, 0.0, 1.6635929704648051E9, 0.0, 2022-09-19 18:09:30.464
147.0, -35767.88732622711, -21416.703929508203, -66665.75421878746, -20736.2944765442, -53388.169811745865, 187500.0, -54733.18603434397, -17010.348082822333, 0.626, -0.556, 0.5720000000000001, 192.0, 0.0, 0.0, 0.0, 0.0, 0.0, 0.0, 0.0, 0.0, 0.0, 1.6635929704698308E9, 0.0, 2022-09-19 18:09:30.469
148.0, -35852.98041736847, -21398.71077522168, -66669.59871883377, -20716.267313512246, -53415.17071904788, 187500.0, -54655.02198398376, -16995.238303570546, 0.626, -0.556, 0.5720000000000001, 192.0, 0.0, 0.0, 0.0, 0.0, 0.0, 0.0, 0.0, 0.0, 0.0, 1.663592970473828E9, 0.0, 2022-09-19 18:09:30.473
149.0, -35729.10704959715, -21374.682649932223, -66736.54219347742, -20738.35083703409, -53373.73058482773, 187500.0, -54633.385495351016, -17000.625073984276, 0.626, -0.5640000000000001, 0.5740000000000001, 192.0, 19.0, 144.0, 238.0, 96.0, 17.0, 240.0, 0.0, 0.0, 0.0, 1.6635929704778576E9, 0.0, 2022-09-19 18:09:30.477
150.0, -35415.7579440782, -21353.381437466316, -66826.68677886567, -20787.144695180024, -53269.370289965904, 187500.0, -54671.763440580784, -17020.3169608494, 0.626, -0.5640000000000001, 0.5740000000000001, 192.0, 0.0, 0.0, 0.0, 0.0, 0.0, 0.0, 0.0, 0.0, 0.0, 1.6635929704809637E9, 0.0, 2022-09-19 18:09:30.480
151.0, -35441.26128450171, -21392.80991468548, -66778.33995560884, -20785.60242481261, -53262.57535965149, 187500.0, -54785.1314884581, -17022.909763206215, 0.626, -0.5640000000000001, 0.5740000000000001, 192.0, 0.0, 0.0, 0.0, 0.0, 0.0, 0.0, 0.0, 0.0, 0.0, 1.6635929704858518E9, 0.0, 2022-09-19 18:09:30.485
152.0, -35732.705680454455, -21413.887609706835, -66670.35867814526, -20735.355703277077, -53343.421619346336, 187500.0, -54732.02374363229, -17005.006015897514, 0.626, -0.5640000000000001, 0.5740000000000001, 192.0, 0.0, 0.0, 0.0, 0.0, 0.0, 0.0, 0.0, 0.0, 0.0, 1.663592970489862E9, 0.0, 2022-09-19 18:09:30.489
153.0, -35816.457666928494, -21383.623347714347, -66665.24012866498, -20714.635636167008, -53368.05324173609, 187500.0, -54646.21539666837, -16995.014786125994, 0.626, -0.5640000000000001, 0.5740000000000001, 192.0, 0.0, 0.0, 0.0, 0.0, 0.0, 0.0, 0.0, 0.0, 0.0, 1.663592970492867E9, 0.0, 2022-09-19 18:09:30.492
154.0, -35693.67953463549, -21352.442664199196, -66718.750204891, -20730.013636352258, -53327.57423252753, 187500.0, -54618.29806784369, -17001.385033295755, 0.626, -0.5640000000000001, 0.5740000000000001, 192.0, 0.0, 0.0, 0.0, 0.0, 0.0, 0.0, 0.0, 0.0, 0.0, 1.6635929704968953E9, 0.0, 2022-09-19 18:09:30.496
155.0, -35386.63362105294, -21336.237649469098, -66810.59352285785, -20781.288538132732, -53225.896147000334, 187500.0, -54662.57687360965, -17026.463690574612, 0.626, -0.5640000000000001, 0.5740000000000001, 192.0, 0.0, 0.0, 0.0, 0.0, 0.0, 0.0, 0.0, 0.0, 0.0, 1.6635929705008595E9, 0.0, 2022-09-19 18:09:30.500
156.0, -35415.735592333745, -21387.60195822739, -66764.2136531131, -20788.977538225357, -53222.1634056763, 187500.0, -54774.045023208266, -17036.074940690392, 0.626, -0.5640000000000001, 0.5740000000000001, 192.0, 0.0, 0.0, 0.0, 0.0, 0.0, 0.0, 0.0, 0.0, 0.0, 1.6635929705048704E9, 0.0, 2022-09-19 18:09:30.504
157.0, -35713.84080813418, -21424.169412156276, -66666.80475077686, -20742.508261502775, -53309.04463637408, 187500.0, -54736.985830901365, -17019.646408515742, 0.626, -0.5640000000000001, 0.5740000000000001, 192.0, 0.0, 0.0, 0.0, 0.0, 0.0, 0.0, 0.0, 0.0, 0.0, 1.6635929705090642E9, 0.0, 2022-09-19 18:09:30.509
158.0, -35801.772570821355, -21403.38228981284, -66667.36354438824, -20722.928133359925, -53339.84534023349, 187500.0, -54662.53217012074, -17008.738757221552, 0.626, -0.5640000000000001, 0.5740000000000001, 192.0, 0.0, 0.0, 0.0, 0.0, 0.0, 0.0, 0.0, 0.0, 0.0, 1.6635929705139048E9, 0.0, 2022-09-19 18:09:30.513
159.0, -35679.419121673, -21368.647678929294, -66721.34300724781, -20739.602534723585, -53300.439214758786, 187500.0, -54635.24069014081, -17008.202315354625, 0.622, -0.5640000000000001, 0.5760000000000001, 192.0, 19.0, 112.0, 238.0, 96.0, 18.0, 0.0, 0.0, 0.0, 0.0, 1.6635929705179036E9, 0.0, 2022-09-19 18:09:30.517
160.0, -35367.85815571048, -21349.17930950872, -66814.54978162644, -20787.658785302494, -53195.564829774485, 187500.0, -54674.53505689324, -17025.681379518675, 0.622, -0.5640000000000001, 0.5760000000000001, 192.0, 0.0, 0.0, 0.0, 0.0, 0.0, 0.0, 0.0, 0.0, 0.0, 1.663592970520959E9, 0.0, 2022-09-19 18:09:30.520
161.0, -35394.23321416774, -21398.12962986584, -66760.95029842261, -20791.30211964871, -53192.39088206183, 187500.0, -54779.141220944075, -17032.051626688437, 0.622, -0.5640000000000001, 0.5760000000000001, 192.0, 0.0, 0.0, 0.0, 0.0, 0.0, 0.0, 0.0, 0.0, 0.0, 1.663592970524996E9, 0.0, 2022-09-19 18:09:30.524
162.0, -35691.958450312435, -21429.600886058914, -66653.2819453814, -20739.602534723585, -53280.47910696019, 187500.0, -54734.84006343366, -17014.907838691215, 0.622, -0.5640000000000001, 0.5760000000000001, 192.0, 0.0, 0.0, 0.0, 0.0, 0.0, 0.0, 0.0, 0.0, 0.0, 1.6635929705289629E9, 0.0, 2022-09-19 18:09:30.528
163.0, -35781.164262433565, -21405.08102239144, -66651.76202675844, -20715.350891989576, -53310.05046487456, 187500.0, -54656.184274695435, -17001.854419929317, 0.622, -0.5640000000000001, 0.5760000000000001, 192.0, 0.0, 0.0, 0.0, 0.0, 0.0, 0.0, 0.0, 0.0, 0.0, 1.6635929705329523E9, 0.0, 2022-09-19 18:09:30.532
164.0, -35654.20635392742, -21361.249251514586, -66706.97083556304, -20723.57633394913, -53266.64337714236, 187500.0, -54624.06481791315, -16997.093498360337, 0.622, -0.5640000000000001, 0.5760000000000001, 192.0, 0.0, 0.0, 0.0, 0.0, 0.0, 0.0, 0.0, 0.0, 0.0, 1.6635929705370188E9, 0.0, 2022-09-19 18:09:30.537
165.0, -35341.147821086386, -21333.9354197902, -66800.24466517505, -20770.269128116266, -53162.19367530271, 187500.0, -54666.3543184226, -17012.493850290044, 0.622, -0.5640000000000001, 0.5760000000000001, 192.0, 0.0, 0.0, 0.0, 0.0, 0.0, 0.0, 0.0, 0.0, 0.0, 1.663592970541954E9, 0.0, 2022-09-19 18:09:30.541
166.0, -35363.924248686344, -21382.215187813665, -66752.74720820751, -20774.270090373768, -53155.95753859968, 187500.0, -54779.85647676665, -17017.3665305813, 0.622, -0.5640000000000001, 0.5760000000000001, 192.0, 0.0, 0.0, 0.0, 0.0, 0.0, 0.0, 0.0, 0.0, 0.0, 1.66359297054599E9, 0.0, 2022-09-19 18:09:30.545
167.0, -35664.24228718785, -21417.91092370879, -66650.5326808134, -20725.923267116937, -53246.61621411041, 187500.0, -54744.25014784934, -17004.581332752863, 0.622, -0.5640000000000001, 0.5760000000000001, 192.0, 0.0, 0.0, 0.0, 0.0, 0.0, 0.0, 0.0, 0.0, 0.0, 1.663592970548911E9, 0.0, 2022-09-19 18:09:30.548
168.0, -35754.230410364915, -21402.17529561225, -66655.40536110465, -20706.1866767629, -53277.01458656962, 187500.0, -54668.18716146793, -16997.875809416273, 0.622, -0.5640000000000001, 0.5760000000000001, 192.0, 0.0, 0.0, 0.0, 0.0, 0.0, 0.0, 0.0, 0.0, 0.0, 1.6635929705529892E9, 0.0, 2022-09-19 18:09:30.552
169.0, -35633.95567345091, -21379.711792434668, -66724.98634159402, -20731.53355497522, -53236.2673564276, 187500.0, -54651.57981533764, -17007.777632209974, 0.626, -0.5640000000000001, 0.578, 192.0, 19.0, 144.0, 238.0, 96.0, 18.0, 16.0, 0.0, 0.0, 0.0, 1.6635929705569494E9, 0.0, 2022-09-19 18:09:30.556
170.0, -35322.618224932936, -21352.375608965827, -66812.42636590319, -20783.635471300542, -53131.54943365448, 187500.0, -54688.16962101098, -17028.47534757559, 0.626, -0.5640000000000001, 0.578, 192.0, 0.0, 0.0, 0.0, 0.0, 0.0, 0.0, 0.0, 0.0, 0.0, 1.6635929705630116E9, 0.0, 2022-09-19 18:09:30.563
171.0, -35338.53266698512, -21380.47175174615, -66755.07178963086, -20780.170950909967, -53119.09951199288, 187500.0, -54786.65140708106, -17025.860193474316, 0.626, -0.5640000000000001, 0.578, 192.0, 0.0, 0.0, 0.0, 0.0, 0.0, 0.0, 0.0, 0.0, 0.0, 1.6635929705661187E9, 0.0, 2022-09-19 18:09:30.566
172.0, -35634.80503974021, -21414.28994110703, -66656.6347070497, -20733.72402593184, -53204.7066932567, 187500.0, -54747.491150795366, -17008.98462641056, 0.626, -0.5640000000000001, 0.578, 192.0, 0.0, 0.0, 0.0, 0.0, 0.0, 0.0, 0.0, 0.0, 0.0, 1.6635929705699558E9, 0.0, 2022-09-19 18:09:30.569
173.0, -35724.48023849491, -21395.04508913101, -66657.484073339, -20716.58023793462, -53236.334411660966, 187500.0, -54668.94712077941, -17002.79319319644, 0.626, -0.5640000000000001, 0.578, 192.0, 0.0, 0.0, 0.0, 0.0, 0.0, 0.0, 0.0, 0.0, 0.0, 1.663592970574025E9, 0.0, 2022-09-19 18:09:30.574
174.0, -35603.736114947336, -21359.192891024697, -66706.43439369612, -20729.164270062956, -53195.60953326339, 187500.0, -54631.150320905486, -17003.240228085546, 0.626, -0.5640000000000001, 0.578, 192.0, 0.0, 0.0, 0.0, 0.0, 0.0, 0.0, 0.0, 0.0, 0.0, 1.663592970577031E9, 0.0, 2022-09-19 18:09:30.577
175.0, -35295.41615193083, -21340.08214951541, -66796.31075815091, -20774.62771828505, -53091.07042444592, 187500.0, -54670.66820510247, -17020.98751318306, 0.626, -0.5640000000000001, 0.578, 192.0, 0.0, 0.0, 0.0, 0.0, 0.0, 0.0, 0.0, 0.0, 0.0, 1.6635929705810573E9, 0.0, 2022-09-19 18:09:30.581
176.0, -35317.14204754139, -21398.308443821483, -66759.3633245663, -20784.261320145288, -53084.342549364876, 187500.0, -54793.22281995092, -17027.581277797377, 0.626, -0.5640000000000001, 0.578, 192.0, 0.0, 0.0, 0.0, 0.0, 0.0, 0.0, 0.0, 0.0, 0.0, 1.663592970584998E9, 0.0, 2022-09-19 18:09:30.584
177.0, -35612.43094354045, -21427.67863603576, -66658.02051520592, -20734.99807536579, -53168.18394281673, 187500.0, -54753.704935753936, -17010.728062478072, 0.626, -0.5640000000000001, 0.578, 192.0, 0.0, 0.0, 0.0, 0.0, 0.0, 0.0, 0.0, 0.0, 0.0, 1.6635929705890288E9, 0.0, 2022-09-19 18:09:30.589
178.0, -35700.966203327924, -21392.94402515221, -66654.86891923774, -20711.77461287673, -53196.458899552694, 187500.0, -54666.77900156725, -16999.999225139527, 0.626, -0.5640000000000001, 0.578, 192.0, 0.0, 0.0, 0.0, 0.0, 0.0, 0.0, 0.0, 0.0, 0.0, 1.6635929705930524E9, 0.0, 2022-09-19 18:09:30.593
179.0, -35582.90428911499, -21363.596184682392, -66712.80464086588, -20731.77942416423, -53157.119829311356, 187500.0, -54638.43698959792, -17005.564809508898, 0.626, -0.562, 0.5760000000000001, 192.0, 19.0, 144.0, 238.0, 112.0, 18.0, 0.0, 0.0, 0.0, 0.0, 1.6635929705970445E9, 0.0, 2022-09-19 18:09:30.597
180.0, -35274.42786388729, -21340.37272219333, -66801.36225239781, -20779.656860787494, -53054.19004609466, 187500.0, -54673.84215281512, -17026.821318485894, 0.626, -0.562, 0.5760000000000001, 192.0, 0.0, 0.0, 0.0, 0.0, 0.0, 0.0, 0.0, 0.0, 0.0, 1.6635929706020896E9, 0.0, 2022-09-19 18:09:30.602
181.0, -35297.830140332, -21382.930443636233, -66757.57518500986, -20785.468314345875, -53049.96556639261, 187500.0, -54788.171325704025, -17036.633734301777, 0.626, -0.562, 0.5760000000000001, 192.0, 0.0, 0.0, 0.0, 0.0, 0.0, 0.0, 0.0, 0.0, 0.0, 1.6635929706050696E9, 0.0, 2022-09-19 18:09:30.605
182.0, -35595.1530450765, -21417.307426608495, -66666.3353641433, -20739.20020332339, -53133.04700053299, 187500.0, -54758.01882243381, -17023.960295195615, 0.626, -0.562, 0.5760000000000001, 192.0, 0.0, 0.0, 0.0, 0.0, 0.0, 0.0, 0.0, 0.0, 0.0, 1.6635929706090732E9, 0.0, 2022-09-19 18:09:30.609
183.0, -35683.710656608426, -21395.38036529784, -66665.57540483182, -20717.362548990553, -53160.18201830173, 187500.0, -54683.92278956447, -17014.304341590923, 0.626, -0.562, 0.5760000000000001, 192.0, 0.0, 0.0, 0.0, 0.0, 0.0, 0.0, 0.0, 0.0, 0.0, 1.6635929706131167E9, 0.0, 2022-09-19 18:09:30.613
184.0, -35570.38731222002, -21366.926594606233, -66721.79004213691, -20740.675418457442, -53125.022724273535, 187500.0, -54656.54190260672, -17024.22851612908, 0.626, -0.562, 0.5760000000000001, 192.0, 0.0, 0.0, 0.0, 0.0, 0.0, 0.0, 0.0, 0.0, 0.0, 1.6635929706171014E9, 0.0, 2022-09-19 18:09:30.617
185.0, -35258.20049741274, -21343.166690250244, -66810.34765366884, -20787.30115739121, -53023.366990490795, 187500.0, -54688.057862288704, -17037.527804079986, 0.626, -0.562, 0.5760000000000001, 192.0, 0.0, 0.0, 0.0, 0.0, 0.0, 0.0, 0.0, 0.0, 0.0, 1.6635929706211998E9, 0.0, 2022-09-19 18:09:30.621
186.0, -35278.428826144795, -21392.631100729835, -66765.48770254705, -20791.749154537818, -53020.05893231141, 187500.0, -54803.549325889275, -17037.70661803563, 0.626, -0.562, 0.5760000000000001, 192.0, 0.0, 0.0, 0.0, 0.0, 0.0, 0.0, 0.0, 0.0, 0.0, 1.6635929706252337E9, 0.0, 2022-09-19 18:09:30.625
187.0, -35575.95289658939, -21422.51538306658, -66657.57348031682, -20740.608363224073, -53107.87893627631, 187500.0, -54756.61066253313, -17018.88644920426, 0.626, -0.562, 0.5760000000000001, 192.0, 0.0, 0.0, 0.0, 0.0, 0.0, 0.0, 0.0, 0.0, 0.0, 1.6635929706301994E9, 0.0, 2022-09-19 18:09:30.630
188.0, -35671.126624480086, -21399.649548488804, -66659.07104719532, -20725.29741827219, -53142.81471285996, 187500.0, -54674.51270514879, -17014.863135202308, 0.626, -0.562, 0.5760000000000001, 192.0, 0.0, 0.0, 0.0, 0.0, 0.0, 0.0, 0.0, 0.0, 0.0, 1.663592970633185E9, 0.0, 2022-09-19 18:09:30.633
189.0, -35557.06567252465, -21359.259946258062, -66713.2963792439, -20741.21186032437, -53107.52130836503, 187500.0, -54641.32036463265, -17015.28781834696, 0.626, -0.562, 0.5760000000000001, 192.0, 0.0, 0.0, 0.0, 0.0, 0.0, 0.0, 0.0, 0.0, 0.0, 1.6635929706361444E9, 0.0, 2022-09-19 18:09:30.636
190.0, -35246.04114842906, -21343.546669905983, -66807.93366526767, -20790.653919059507, -53002.44575768063, 187500.0, -54684.03454828675, -17030.978742954583, 0.624, -0.562, 0.5740000000000001, 192.0, 19.0, 128.0, 238.0, 112.0, 17.0, 240.0, 0.0, 0.0, 0.0, 1.663592970642154E9, 0.0, 2022-09-19 18:09:30.642
191.0, -35265.017779471615, -21397.45907753218, -66764.79479846892, -20797.94058775194, -52997.260152967, 187500.0, -54798.49783164237, -17036.924306979694, 0.624, -0.562, 0.5740000000000001, 192.0, 0.0, 0.0, 0.0, 0.0, 0.0, 0.0, 0.0, 0.0, 0.0, 1.6635929706451533E9, 0.0, 2022-09-19 18:09:30.645
192.0, -35559.36790220355, -21421.397795843815, -66667.36354438824, -20749.727874961838, -53083.8284592424, 187500.0, -54762.712688769425, -17020.741643994053, 0.624, -0.562, 0.5740000000000001, 192.0, 0.0, 0.0, 0.0, 0.0, 0.0, 0.0, 0.0, 0.0, 0.0, 1.6635929706511936E9, 0.0, 2022-09-19 18:09:30.651
193.0, -35651.50179284833, -21389.90418790629, -66662.78143677491, -20727.934924117915, -53113.5339276235, 187500.0, -54682.64874013051, -17015.17605962468, 0.624, -0.562, 0.5740000000000001, 192.0, 0.0, 0.0, 0.0, 0.0, 0.0, 0.0, 0.0, 0.0, 0.0, 1.66359297065419E9, 0.0, 2022-09-19 18:09:30.654
194.0, -35537.61965484854, -21358.969373580145, -66714.23515251103, -20743.62584872554, -53075.178334138196, 187500.0, -54648.09294320261, -17019.579353282377, 0.624, -0.562, 0.5740000000000001, 192.0, 0.0, 0.0, 0.0, 0.0, 0.0, 0.0, 0.0, 0.0, 0.0, 1.6635929706591473E9, 0.0, 2022-09-19 18:09:30.659
195.0, -35224.49406677414, -21336.908201802755, -66809.07360423489, -20794.25254991681, -52970.952149743105, 187500.0, -54688.63900764454, -17036.18669941267, 0.624, -0.562, 0.5740000000000001, 192.0, 0.0, 0.0, 0.0, 0.0, 0.0, 0.0, 0.0, 0.0, 0.0, 1.6635929706621957E9, 0.0, 2022-09-19 18:09:30.662
196.0, -35238.732127992174, -21380.13647557932, -66762.38081006776, -20798.052346474215, -52960.35742287129, 187500.0, -54801.85059331067, -17037.997190713548, 0.624, -0.562, 0.5740000000000001, 192.0, 0.0, 0.0, 0.0, 0.0, 0.0, 0.0, 0.0, 0.0, 0.0, 1.6635929706661932E9, 0.0, 2022-09-19 18:09:30.666
197.0, -35539.31838742714, -21415.742804496625, -66658.66871579512, -20752.34302906311, -53047.64098496926, 187500.0, -54762.10919166914, -17022.619190528298, 0.624, -0.562, 0.5740000000000001, 192.0, 0.0, 0.0, 0.0, 0.0, 0.0, 0.0, 0.0, 0.0, 0.0, 1.6635929706691852E9, 0.0, 2022-09-19 18:09:30.669
198.0, -35638.24720838633, -21395.29095832002, -66656.25472739396, -20730.974761363836, -53080.72156676312, 187500.0, -54678.893647062025, -17015.60074276933, 0.624, -0.562, 0.5740000000000001, 192.0, 0.0, 0.0, 0.0, 0.0, 0.0, 0.0, 0.0, 0.0, 0.0, 1.663592970673222E9, 0.0, 2022-09-19 18:09:30.673
199.0, -35521.45934360735, -21363.596184682392, -66710.72592863154, -20739.937810890417, -53039.75081917654, 187500.0, -54646.9977077243, -17016.22659161408, 0.624, -0.562, 0.5740000000000001, 192.0, 0.0, 0.0, 0.0, 0.0, 0.0, 0.0, 0.0, 0.0, 0.0, 1.663592970677252E9, 0.0, 2022-09-19 18:09:30.677
200.0, -35213.988746880146, -21345.491271673593, -66808.96184551262, -20793.20201792741, -52940.41966681715, 187500.0, -54685.37565295406, -17038.310115135922, 0.626, -0.5680000000000001, 0.5760000000000001, 192.0, 19.0, 144.0, 238.0, 64.0, 18.0, 0.0, 0.0, 0.0, 0.0, 1.6635929706812632E9, 0.0, 2022-09-19 18:09:30.681
201.0, -35230.17140986579, -21387.266682060563, -66766.82880721436, -20803.483820376852, -52933.468274291554, 187500.0, -54800.04010200979, -17047.76490304052, 0.626, -0.5680000000000001, 0.5760000000000001, 192.0, 0.0, 0.0, 0.0, 0.0, 0.0, 0.0, 0.0, 0.0, 0.0, 1.6635929706861637E9, 0.0, 2022-09-19 18:09:30.686
202.0, -35532.210532690355, -21415.98867368563, -66667.74352404398, -20755.29345933121, -53021.265926511995, 187500.0, -54771.16164817353, -17036.320809879402, 0.626, -0.5680000000000001, 0.5760000000000001, 192.0, 0.0, 0.0, 0.0, 0.0, 0.0, 0.0, 0.0, 0.0, 0.0, 1.6635929706892147E9, 0.0, 2022-09-19 18:09:30.689
203.0, -35622.51158028979, -21395.760344953578, -66664.94955598707, -20729.946581118893, -53047.59628148035, 187500.0, -54689.46602218939, -17019.84757421584, 0.626, -0.5680000000000001, 0.5760000000000001, 192.0, 0.0, 0.0, 0.0, 0.0, 0.0, 0.0, 0.0, 0.0, 0.0, 1.6635929706921537E9, 0.0, 2022-09-19 18:09:30.692
204.0, -35506.95306145585, -21373.90033887629, -66723.86875437126, -20749.973744150848, -53009.173632761675, 187500.0, -54665.5049521333, -17020.004036427028, 0.626, -0.5680000000000001, 0.5760000000000001, 192.0, 0.0, 0.0, 0.0, 0.0, 0.0, 0.0, 0.0, 0.0, 0.0, 1.663592970697363E9, 0.0, 2022-09-19 18:09:30.697
205.0, -35199.32600251747, -21362.880928859824, -66812.60517985883, -20801.1592389535, -52908.1884513126, 187500.0, -54698.764347882796, -17037.863080246818, 0.626, -0.5680000000000001, 0.5760000000000001, 192.0, 0.0, 0.0, 0.0, 0.0, 0.0, 0.0, 0.0, 0.0, 0.0, 1.6635929707012384E9, 0.0, 2022-09-19 18:09:30.701
206.0, -35210.23365381166, -21399.291920577518, -66755.83174894235, -20798.78995404124, -52897.951352352065, 187500.0, -54797.26848569733, -17036.47727209059, 0.626, -0.5680000000000001, 0.5760000000000001, 192.0, 0.0, 0.0, 0.0, 0.0, 0.0, 0.0, 0.0, 0.0, 0.0, 1.663592970705202E9, 0.0, 2022-09-19 18:09:30.705
207.0, -35511.088134180085, -21424.281170878552, -66654.95832621555, -20744.586973737118, -52985.838411550336, 187500.0, -54765.3278428707, -17017.99237942605, 0.626, -0.5680000000000001, 0.5760000000000001, 192.0, 0.0, 0.0, 0.0, 0.0, 0.0, 0.0, 0.0, 0.0, 0.0, 1.6635929707092087E9, 0.0, 2022-09-19 18:09:30.709
208.0, -35604.31726030317, -21401.907074678787, -66656.00885820495, -20721.05058682568, -53014.359237475306, 187500.0, -54691.63414140155, -17005.27423683098, 0.626, -0.5680000000000001, 0.5760000000000001, 192.0, 0.0, 0.0, 0.0, 0.0, 0.0, 0.0, 0.0, 0.0, 0.0, 1.6635929707132082E9, 0.0, 2022-09-19 18:09:30.713
209.0, -35490.54688102566, -21376.604899955382, -66714.97276007805, -20740.58601147962, -52974.61783583377, 187500.0, -54660.0511264862, -17009.588123510854, 0.626, -0.5680000000000001, 0.5760000000000001, 192.0, 0.0, 0.0, 0.0, 0.0, 0.0, 0.0, 0.0, 0.0, 0.0, 1.663592970716205E9, 0.0, 2022-09-19 18:09:30.716
210.0, -35179.4553016967, -21360.46694045865, -66811.15231646923, -20797.180628440456, -52871.1292590057, 187500.0, -54694.91984783648, -17032.90099297774, 0.626, -0.5660000000000001, 0.5680000000000001, 192.0, 19.0, 144.0, 238.0, 80.0, 17.0, 192.0, 0.0, 0.0, 0.0, 1.6635929707202055E9, 0.0, 2022-09-19 18:09:30.720
211.0, -35192.41931348077, -21402.734089223635, -66771.12034214978, -20808.535314623754, -52863.88729380218, 187500.0, -54805.784500334805, -17042.825167515894, 0.626, -0.5660000000000001, 0.5680000000000001, 192.0, 0.0, 0.0, 0.0, 0.0, 0.0, 0.0, 0.0, 0.0, 0.0, 1.6635929707262945E9, 0.0, 2022-09-19 18:09:30.726
212.0, -35494.86076770553, -21432.551316327015, -66666.00008797647, -20755.092293631114, -52953.42838209014, 187500.0, -54763.36088935863, -17025.860193474316, 0.626, -0.5660000000000001, 0.5680000000000001, 192.0, 0.0, 0.0, 0.0, 0.0, 0.0, 0.0, 0.0, 0.0, 0.0, 1.6635929707292738E9, 0.0, 2022-09-19 18:09:30.729
213.0, -35593.34255377562, -21411.920656194765, -66669.79988453387, -20730.66183694146, -52988.58767611834, 187500.0, -54683.81103084219, -17016.628923014276, 0.626, -0.5660000000000001, 0.5680000000000001, 192.0, 0.0, 0.0, 0.0, 0.0, 0.0, 0.0, 0.0, 0.0, 0.0, 1.663592970733272E9, 0.0, 2022-09-19 18:09:30.733
214.0, -35475.14652909595, -21374.637946443316, -66727.98147535104, -20741.703598702385, -52949.62858553274, 187500.0, -54656.586606095625, -17016.494812547542, 0.626, -0.5660000000000001, 0.5680000000000001, 192.0, 0.0, 0.0, 0.0, 0.0, 0.0, 0.0, 0.0, 0.0, 0.0, 1.663592970739304E9, 0.0, 2022-09-19 18:09:30.739
215.0, -35162.22210672165, -21353.157920021764, -66816.94141828315, -20787.949357980415, -52843.10017145875, 187500.0, -54689.19780125592, -17033.884469733774, 0.626, -0.5660000000000001, 0.5680000000000001, 192.0, 0.0, 0.0, 0.0, 0.0, 0.0, 0.0, 0.0, 0.0, 0.0, 1.6635929707424045E9, 0.0, 2022-09-19 18:09:30.742
216.0, -35176.52722317305, -21401.549446767505, -66770.82976947186, -20796.219503428878, -52835.92526148859, 187500.0, -54804.89043055659, -17042.735760538075, 0.626, -0.5660000000000001, 0.5680000000000001, 192.0, 0.0, 0.0, 0.0, 0.0, 0.0, 0.0, 0.0, 0.0, 0.0, 1.66359297074628E9, 0.0, 2022-09-19 18:09:30.746
217.0, -35474.78890118467, -21435.27822915056, -66670.58219558981, -20748.83380518363, -52924.34876255379, 187500.0, -54770.91577898453, -17027.827146986383, 0.626, -0.5660000000000001, 0.5680000000000001, 192.0, 0.0, 0.0, 0.0, 0.0, 0.0, 0.0, 0.0, 0.0, 0.0, 1.6635929707492623E9, 0.0, 2022-09-19 18:09:30.749
218.0, -35574.96941983335, -21418.87204872037, -66663.27317515292, -20727.66670318445, -52957.40699260319, 187500.0, -54692.12587977957, -17015.198411369136, 0.626, -0.5660000000000001, 0.5680000000000001, 192.0, 0.0, 0.0, 0.0, 0.0, 0.0, 0.0, 0.0, 0.0, 0.0, 1.6635929707533064E9, 0.0, 2022-09-19 18:09:30.753
219.0, -35461.82488940059, -21376.582548210925, -66710.68122514263, -20736.473290499842, -52920.817186929846, 187500.0, -54657.72654506285, -17010.281027588968, 0.626, -0.5660000000000001, 0.5680000000000001, 192.0, 0.0, 0.0, 0.0, 0.0, 0.0, 0.0, 0.0, 0.0, 0.0, 1.6635929707574353E9, 0.0, 2022-09-19 18:09:30.757
220.0, -35154.130775228834, -21351.973277565634, -66802.52454310948, -20784.59659631212, -52820.68137177007, 187500.0, -54690.38244371205, -17027.00013244154, 0.62, -0.5680000000000001, 0.5720000000000001, 192.0, 19.0, 96.0, 238.0, 64.0, 17.0, 224.0, 0.0, 0.0, 0.0, 1.6635929707613308E9, 0.0, 2022-09-19 18:09:30.761
221.0, -35162.89265905532, -21390.306519306483, -66758.82688269936, -20786.45179110191, -52809.729016986974, 187500.0, -54798.52018338683, -17029.101196420335, 0.62, -0.5680000000000001, 0.5720000000000001, 192.0, 0.0, 0.0, 0.0, 0.0, 0.0, 0.0, 0.0, 0.0, 0.0, 1.6635929707653043E9, 0.0, 2022-09-19 18:09:30.765
222.0, -35467.56928772561, -21426.00225520161, -66660.8368350073, -20742.57531673614, -52902.779329154415, 187500.0, -54768.05475569425, -17020.831050971872, 0.62, -0.5680000000000001, 0.5720000000000001, 192.0, 0.0, 0.0, 0.0, 0.0, 0.0, 0.0, 0.0, 0.0, 0.0, 1.6635929707683735E9, 0.0, 2022-09-19 18:09:30.768
223.0, -35564.8440795951, -21404.9022084358, -66659.5851373178, -20722.43639498191, -52935.770503970445, 187500.0, -54685.263894231786, -17015.01959741349, 0.62, -0.5680000000000001, 0.5720000000000001, 192.0, 0.0, 0.0, 0.0, 0.0, 0.0, 0.0, 0.0, 0.0, 0.0, 1.663592970772361E9, 0.0, 2022-09-19 18:09:30.772
224.0, -35447.408014226916, -21366.61367018386, -66712.31290248787, -20730.997113108293, -52895.49266046198, 187500.0, -54653.658527571984, -17011.711539234107, 0.62, -0.5680000000000001, 0.5720000000000001, 192.0, 0.0, 0.0, 0.0, 0.0, 0.0, 0.0, 0.0, 0.0, 0.0, 1.6635929707763505E9, 0.0, 2022-09-19 18:09:30.776
225.0, -35138.819830276945, -21345.401864695774, -66803.35155765433, -20783.74723002282, -52794.86510692419, 187500.0, -54689.041339044736, -17035.35968486782, 0.62, -0.5680000000000001, 0.5720000000000001, 192.0, 0.0, 0.0, 0.0, 0.0, 0.0, 0.0, 0.0, 0.0, 0.0, 1.6635929707803292E9, 0.0, 2022-09-19 18:09:30.780
226.0, -35147.916990270256, -21388.071344860953, -66758.42455129916, -20797.11357320709, -52786.952589387016, 187500.0, -54803.0352357668, -17049.687153063674, 0.62, -0.5680000000000001, 0.5720000000000001, 192.0, 0.0, 0.0, 0.0, 0.0, 0.0, 0.0, 0.0, 0.0, 0.0, 1.6635929707854269E9, 0.0, 2022-09-19 18:09:30.785
227.0, -35445.97750258178, -21421.9565894552, -66653.9301459706, -20744.452863270388, -52872.1797909951, 187500.0, -54765.84193299317, -17030.375245854288, 0.62, -0.5680000000000001, 0.5720000000000001, 192.0, 0.0, 0.0, 0.0, 0.0, 0.0, 0.0, 0.0, 0.0, 0.0, 1.6635929707894266E9, 0.0, 2022-09-19 18:09:30.789
228.0, -35544.50399214077, -21403.18112411274, -66654.04190469289, -20723.95631360487, -52906.065035589345, 187500.0, -54688.21432449989, -17018.260600359514, 0.62, -0.5680000000000001, 0.5720000000000001, 192.0, 0.0, 0.0, 0.0, 0.0, 0.0, 0.0, 0.0, 0.0, 0.0, 1.6635929707934184E9, 0.0, 2022-09-19 18:09:30.793
229.0, -35437.17091526639, -21376.56019646647, -66720.6501031697, -20744.05053187019, -52874.549075907365, 187500.0, -54671.51757139177, -17022.999170184037, 0.62, -0.5680000000000001, 0.5720000000000001, 192.0, 0.0, 0.0, 0.0, 0.0, 0.0, 0.0, 0.0, 0.0, 0.0, 1.6635929707964537E9, 0.0, 2022-09-19 18:09:30.796
230.0, -35126.97340571564, -21353.113216532853, -66813.5663048704, -20794.58782608364, -52772.334548513245, 187500.0, -54704.888725863544, -17040.76880702601, 0.616, -0.5660000000000001, 0.5740000000000001, 192.0, 19.0, 64.0, 238.0, 80.0, 17.0, 240.0, 0.0, 0.0, 0.0, 1.6635929708004098E9, 0.0, 2022-09-19 18:09:30.800
231.0, -35132.56134182946, -21391.491161762617, -66771.07563866087, -20796.26420691779, -52761.44924896351, 187500.0, -54815.0381225393, -17045.060341961427, 0.616, -0.5660000000000001, 0.5740000000000001, 192.0, 0.0, 0.0, 0.0, 0.0, 0.0, 0.0, 0.0, 0.0, 0.0, 1.663592970804466E9, 0.0, 2022-09-19 18:09:30.804
232.0, -35429.34780470703, -21424.527040067558, -66666.22360542102, -20742.284744058223, -52847.65992732763, 187500.0, -54769.95465397295, -17027.313056863914, 0.616, -0.5660000000000001, 0.5740000000000001, 192.0, 0.0, 0.0, 0.0, 0.0, 0.0, 0.0, 0.0, 0.0, 0.0, 1.663592970808385E9, 0.0, 2022-09-19 18:09:30.808
233.0, -35522.71104129685, -21398.934292666232, -66661.8873669967, -20713.24982801078, -52878.46063118704, 187500.0, -54682.5593331527, -17011.040986900447, 0.616, -0.5660000000000001, 0.5740000000000001, 192.0, 0.0, 0.0, 0.0, 0.0, 0.0, 0.0, 0.0, 0.0, 0.0, 1.663592970814428E9, 0.0, 2022-09-19 18:09:30.814
234.0, -35418.12722899047, -21377.11899007785, -66727.48973697302, -20733.679322442928, -52848.73281106148, 187500.0, -54662.66628058747, -17016.94184743665, 0.616, -0.5660000000000001, 0.5740000000000001, 192.0, 0.0, 0.0, 0.0, 0.0, 0.0, 0.0, 0.0, 0.0, 0.0, 1.6635929708184104E9, 0.0, 2022-09-19 18:09:30.818
235.0, -35111.483646808105, -21361.495120703596, -66821.34471194085, -20783.993099211824, -52751.45801919199, 187500.0, -54697.80322287122, -17040.791158770462, 0.616, -0.5660000000000001, 0.5740000000000001, 192.0, 0.0, 0.0, 0.0, 0.0, 0.0, 0.0, 0.0, 0.0, 0.0, 1.6635929708223677E9, 0.0, 2022-09-19 18:09:30.822
236.0, -35114.67994626522, -21392.117010607366, -66774.85308347382, -20788.195227169424, -52741.31032720928, 187500.0, -54809.42783468102, -17048.61426932982, 0.616, -0.5660000000000001, 0.5740000000000001, 192.0, 0.0, 0.0, 0.0, 0.0, 0.0, 0.0, 0.0, 0.0, 0.0, 1.6635929708254187E9, 0.0, 2022-09-19 18:09:30.825
237.0, -35416.652013856416, -21419.587304542936, -66667.98939323299, -20736.04860735519, -52828.392723607154, 187500.0, -54776.12373544261, -17032.297495877447, 0.616, -0.5660000000000001, 0.5740000000000001, 192.0, 0.0, 0.0, 0.0, 0.0, 0.0, 0.0, 0.0, 0.0, 0.0, 1.6635929708283992E9, 0.0, 2022-09-19 18:09:30.828
238.0, -35521.21347441834, -21399.113106621877, -66665.95538448756, -20714.948560589382, -52864.75901183594, 187500.0, -54692.9081908355, -17023.021521928495, 0.616, -0.5660000000000001, 0.5740000000000001, 192.0, 0.0, 0.0, 0.0, 0.0, 0.0, 0.0, 0.0, 0.0, 0.0, 1.663592970832586E9, 0.0, 2022-09-19 18:09:30.832
239.0, -35415.08739174454, -21367.619498684347, -66715.50920194498, -20731.265334041756, -52834.22652890999, 187500.0, -54660.47580963085, -17022.596838783844, 0.616, -0.5660000000000001, 0.5740000000000001, 192.0, 0.0, 0.0, 0.0, 0.0, 0.0, 0.0, 0.0, 0.0, 0.0, 1.6635929708364322E9, 0.0, 2022-09-19 18:09:30.836
240.0, -35108.287347351, -21351.638001398802, -66813.74511882605, -20784.283671889745, -52735.05183876179, 187500.0, -54699.233734516354, -17043.026333215992, 0.62, -0.5680000000000001, 0.5720000000000001, 192.0, 19.0, 96.0, 238.0, 64.0, 17.0, 224.0, 0.0, 0.0, 0.0, 1.663592970841458E9, 0.0, 2022-09-19 18:09:30.841
241.0, -35111.75186774157, -21388.85365591689, -66775.27776661847, -20789.134000436545, -52722.95954501147, 187500.0, -54819.2402504969, -17047.295516406957, 0.62, -0.5680000000000001, 0.5720000000000001, 192.0, 0.0, 0.0, 0.0, 0.0, 0.0, 0.0, 0.0, 0.0, 0.0, 1.6635929708454216E9, 0.0, 2022-09-19 18:09:30.845
242.0, -35412.56164462109, -21418.357958597895, -66669.17403568912, -20732.494679986798, -52811.5171565434, 187500.0, -54787.880753026104, -17027.827146986383, 0.62, -0.5680000000000001, 0.5720000000000001, 192.0, 0.0, 0.0, 0.0, 0.0, 0.0, 0.0, 0.0, 0.0, 0.0, 1.6635929708495057E9, 0.0, 2022-09-19 18:09:30.849
243.0, -35513.50212258126, -21392.18406584073, -66663.42963736411, -20707.326615730122, -52846.005898237934, 187500.0, -54704.86637411909, -17014.572562524387, 0.62, -0.5680000000000001, 0.5720000000000001, 192.0, 0.0, 0.0, 0.0, 0.0, 0.0, 0.0, 0.0, 0.0, 0.0, 1.6635929708526027E9, 0.0, 2022-09-19 18:09:30.852
244.0, -35401.832807282546, -21349.35812346436, -66706.79202160741, -20719.57537169163, -52809.371389075684, 187500.0, -54666.510780633784, -17011.08569038936, 0.62, -0.5680000000000001, 0.5720000000000001, 192.0, 0.0, 0.0, 0.0, 0.0, 0.0, 0.0, 0.0, 0.0, 0.0, 1.6635929708564835E9, 0.0, 2022-09-19 18:09:30.856
245.0, -35093.71400996614, -21326.60404760886, -66798.9706157411, -20770.224424627355, -52708.09563494869, 187500.0, -54701.73712989535, -17030.017617943005, 0.62, -0.5680000000000001, 0.5720000000000001, 192.0, 0.0, 0.0, 0.0, 0.0, 0.0, 0.0, 0.0, 0.0, 0.0, 1.6635929708605473E9, 0.0, 2022-09-19 18:09:30.860
246.0, -35099.45840829115, -21368.580623695925, -66757.93281292115, -20779.500398576307, -52696.51743132084, 187500.0, -54817.116834773646, -17037.32663837989, 0.62, -0.5680000000000001, 0.5720000000000001, 192.0, 0.0, 0.0, 0.0, 0.0, 0.0, 0.0, 0.0, 0.0, 0.0, 1.6635929708644903E9, 0.0, 2022-09-19 18:09:30.864
247.0, -35400.849330526515, -21406.913865436778, -66649.25863137945, -20729.320732274144, -52783.17514457407, 187500.0, -54778.06833721022, -17019.579353282377, 0.62, -0.5680000000000001, 0.5720000000000001, 192.0, 0.0, 0.0, 0.0, 0.0, 0.0, 0.0, 0.0, 0.0, 0.0, 1.6635929708686032E9, 0.0, 2022-09-19 18:09:30.868
248.0, -35500.046372419165, -21390.217112328664, -66643.6259917767, -20703.57152266163, -52814.95932518951, 187500.0, -54695.4115862145, -17005.341292064346, 0.62, -0.5680000000000001, 0.5720000000000001, 192.0, 0.0, 0.0, 0.0, 0.0, 0.0, 0.0, 0.0, 0.0, 0.0, 1.6635929708736093E9, 0.0, 2022-09-19 18:09:30.873
249.0, -35386.43245535284, -21359.90814684727, -66695.28087321292, -20716.513182701252, -52776.89430438213, 187500.0, -54661.66045208698, -17005.475402531076, 0.62, -0.5680000000000001, 0.5720000000000001, 192.0, 0.0, 0.0, 0.0, 0.0, 0.0, 0.0, 0.0, 0.0, 0.0, 1.6635929708775065E9, 0.0, 2022-09-19 18:09:30.877
250.0, -35077.35253302485, -21333.443681412184, -66791.28161564846, -20769.263299615777, -52675.99852991087, 187500.0, -54694.98690306985, -17023.803832984428, 0.616, -0.5680000000000001, 0.5700000000000001, 192.0, 19.0, 64.0, 238.0, 64.0, 17.0, 208.0, 0.0, 0.0, 0.0, 1.6635929708815298E9, 0.0, 2022-09-19 18:09:30.881
251.0, -35082.71695169413, -21382.170484324753, -66756.23408034255, -20781.959090466393, -52666.275521072814, 187500.0, -54810.880698070614, -17029.21295514261, 0.616, -0.5680000000000001, 0.5700000000000001, 192.0, 0.0, 0.0, 0.0, 0.0, 0.0, 0.0, 0.0, 0.0, 0.0, 1.6635929708845022E9, 0.0, 2022-09-19 18:09:30.884
252.0, -35383.07969368454, -21420.257856876597, -66651.4267505916, -20736.316828288655, -52753.939062826525, 187500.0, -54776.011976720336, -17012.27033284549, 0.616, -0.5680000000000001, 0.5700000000000001, 192.0, 0.0, 0.0, 0.0, 0.0, 0.0, 0.0, 0.0, 0.0, 0.0, 1.6635929708886E9, 0.0, 2022-09-19 18:09:30.888
253.0, -35480.84622393206, -21396.85558043189, -66648.34220985678, -20712.109889043557, -52785.343263786235, 187500.0, -54697.82557461567, -17004.067242630394, 0.616, -0.5680000000000001, 0.5700000000000001, 192.0, 0.0, 0.0, 0.0, 0.0, 0.0, 0.0, 0.0, 0.0, 0.0, 1.663592970892582E9, 0.0, 2022-09-19 18:09:30.892
254.0, -35373.781367991134, -21363.260908515564, -66698.90185581468, -20724.649217682985, -52752.03916454782, 187500.0, -54663.06861198767, -17004.73779496405, 0.616, -0.5680000000000001, 0.5700000000000001, 192.0, 0.0, 0.0, 0.0, 0.0, 0.0, 0.0, 0.0, 0.0, 0.0, 1.6635929708965805E9, 0.0, 2022-09-19 18:09:30.896
255.0, -35064.790852640974, -21339.858632070856, -66796.08724070636, -20773.040744428727, -52650.472837742906, 187500.0, -54697.93733333795, -17019.869925960294, 0.616, -0.5680000000000001, 0.5700000000000001, 192.0, 0.0, 0.0, 0.0, 0.0, 0.0, 0.0, 0.0, 0.0, 0.0, 1.663592970901524E9, 0.0, 2022-09-19 18:09:30.901
0.0, -35061.303980505945, -21371.642812686303, -66752.92602216316, -20770.671459516463, -52633.79843637925, 187500.0, -54803.28110495581, -17016.02542591398, 0.616, -0.5680000000000001, 0.5700000000000001, 192.0, 0.0, 0.0, 0.0, 0.0, 0.0, 0.0, 0.0, 0.0, 0.0, 1.6635929709066505E9, 0.0, 2022-09-19 18:09:30.906
1.0, -35359.83387945103, -21404.7010427357, -66653.17018665912, -20718.837764124604, -52719.58443159872, 187500.0, -54770.60285456215, -16996.892332660238, 0.616, -0.5680000000000001, 0.5700000000000001, 192.0, 0.0, 0.0, 0.0, 0.0, 0.0, 0.0, 0.0, 0.0, 0.0, 1.6635929709105792E9, 0.0, 2022-09-19 18:09:30.910
2.0, -35462.13781382296, -21387.020812871553, -66653.70662852605, -20702.81156335015, -52755.39192621612, 187500.0, -54695.4115862145, -16989.471553501076, 0.616, -0.5680000000000001, 0.5700000000000001, 192.0, 0.0, 0.0, 0.0, 0.0, 0.0, 0.0, 0.0, 0.0, 0.0, 1.663592970913582E9, 0.0, 2022-09-19 18:09:30.913
3.0, -35352.882486925424, -21358.164710779754, -66708.87073384174, -20724.403348493975, -52722.8924897781, 187500.0, -54667.985995767835, -16995.260655315, 0.616, -0.5680000000000001, 0.5700000000000001, 192.0, 0.0, 0.0, 0.0, 0.0, 0.0, 0.0, 0.0, 0.0, 0.0, 1.6635929709166152E9, 0.0, 2022-09-19 18:09:30.916
4.0, -35049.16698326671, -21338.249306470076, -66802.30102566493, -20778.896901476015, -52625.528290930786, 187500.0, -54694.24929550282, -17018.953504437628, 0.624, -0.5700000000000001, 0.5640000000000001, 192.0, 19.0, 128.0, 238.0, 48.0, 17.0, 160.0, 0.0, 0.0, 0.0, 1.663592970920552E9, 0.0, 2022-09-19 18:09:30.920
5.0, -35054.82197461391, -21378.19187381171, -66762.3584583233, -20785.892997490526, -52619.292154227755, 187500.0, -54810.16544224804, -17027.84949873084, 0.624, -0.5700000000000001, 0.5640000000000001, 192.0, 0.0, 0.0, 0.0, 0.0, 0.0, 0.0, 0.0, 0.0, 0.0, 1.6635929709246142E9, 0.0, 2022-09-19 18:09:30.924
6.0, -35360.10210038449, -21420.369615598873, -66666.91650949913, -20739.088444601115, -52712.767149539846, 187500.0, -54781.75637504535, -17014.88548694676, 0.624, -0.5700000000000001, 0.5640000000000001, 192.0, 0.0, 0.0, 0.0, 0.0, 0.0, 0.0, 0.0, 0.0, 0.0, 1.6635929709295733E9, 0.0, 2022-09-19 18:09:30.929
7.0, -35466.071720847096, -21417.37448184186, -66672.05741072386, -20718.681301913417, -52752.10621978119, 187500.0, -54702.85471711811, -17008.381129310266, 0.624, -0.5700000000000001, 0.5640000000000001, 192.0, 0.0, 0.0, 0.0, 0.0, 0.0, 0.0, 0.0, 0.0, 0.0, 1.6635929709335704E9, 0.0, 2022-09-19 18:09:30.933
8.0, -35358.35866431698, -21374.436780743217, -66725.2992660164, -20733.075825342636, -52716.72340830844, 187500.0, -54669.528266135254, -17009.90104793323, 0.624, -0.5700000000000001, 0.5640000000000001, 192.0, 0.0, 0.0, 0.0, 0.0, 0.0, 0.0, 0.0, 0.0, 0.0, 1.6635929709365695E9, 0.0, 2022-09-19 18:09:30.936
9.0, -35050.821012356406, -21338.785748337003, -66811.8675722918, -20780.908558476993, -52616.3193722152, 187500.0, -54689.510725678294, -17029.45882433162, 0.624, -0.5700000000000001, 0.5640000000000001, 192.0, 0.0, 0.0, 0.0, 0.0, 0.0, 0.0, 0.0, 0.0, 0.0, 1.6635929709406214E9, 0.0, 2022-09-19 18:09:30.940
10.0, -35053.99496006906, -21378.95183312319, -66770.96387993859, -20787.01058471329, -52609.07740701168, 187500.0, -54800.42008166553, -17038.198356413646, 0.624, -0.5700000000000001, 0.5640000000000001, 192.0, 0.0, 0.0, 0.0, 0.0, 0.0, 0.0, 0.0, 0.0, 0.0, 1.663592970944735E9, 0.0, 2022-09-19 18:09:30.944
11.0, -35358.2469055947, -21407.874990448356, -66667.07297171032, -20734.729854432328, -52702.552402323774, 187500.0, -54763.58440680318, -17020.384016082768, 0.624, -0.5700000000000001, 0.5640000000000001, 192.0, 0.0, 0.0, 0.0, 0.0, 0.0, 0.0, 0.0, 0.0, 0.0, 1.6635929709486272E9, 0.0, 2022-09-19 18:09:30.948
12.0, -35464.48474699077, -21379.957661623677, -66665.01661122043, -20707.72894713032, -52742.338507454224, 187500.0, -54678.20074298391, -17008.425832799177, 0.624, -0.5700000000000001, 0.5640000000000001, 192.0, 0.0, 0.0, 0.0, 0.0, 0.0, 0.0, 0.0, 0.0, 0.0, 1.6635929709526284E9, 0.0, 2022-09-19 18:09:30.952
13.0, -35362.78430971912, -21350.542765920494, -66720.8959723587, -20722.458746726366, -52715.76228329686, 187500.0, -54647.42239086895, -17012.449146801133, 0.624, -0.5700000000000001, 0.5640000000000001, 192.0, 0.0, 0.0, 0.0, 0.0, 0.0, 0.0, 0.0, 0.0, 0.0, 1.663592970956644E9, 0.0, 2022-09-19 18:09:30.956
14.0, -35058.13003279329, -21329.84505055488, -66813.54395312595, -20771.96786069487, -52621.527328673285, 187500.0, -54673.84215281512, -17030.308190620923, 0.616, -0.5640000000000001, 0.562, 192.0, 19.0, 64.0, 238.0, 96.0, 17.0, 144.0, 0.0, 0.0, 0.0, 1.663592970961737E9, 0.0, 2022-09-19 18:09:30.961
15.0, -35059.068806060415, -21368.84884462939, -66773.19905438412, -20776.214692141377, -52613.25718322482, 187500.0, -54780.45997386694, -17032.923344722192, 0.616, -0.5640000000000001, 0.562, 192.0, 0.0, 0.0, 0.0, 0.0, 0.0, 0.0, 0.0, 0.0, 0.0, 1.6635929709646919E9, 0.0, 2022-09-19 18:09:30.964
16.0, -35363.38780681942, -21402.17529561225, -66666.04479146538, -20720.312979258655, -52704.42994885802, 187500.0, -54745.88182519458, -17014.28198984647, 0.616, -0.5640000000000001, 0.562, 192.0, 0.0, 0.0, 0.0, 0.0, 0.0, 0.0, 0.0, 0.0, 0.0, 1.663592970968656E9, 0.0, 2022-09-19 18:09:30.968
17.0, -35471.123215094, -21386.864350660366, -66667.81057927736, -20701.313996471643, -52744.12664701064, 187500.0, -54669.952949279905, -17008.247018843536, 0.616, -0.5640000000000001, 0.562, 192.0, 0.0, 0.0, 0.0, 0.0, 0.0, 0.0, 0.0, 0.0, 0.0, 1.6635929709737508E9, 0.0, 2022-09-19 18:09:30.973
18.0, -35367.52287954365, -21348.50875717506, -66720.0466060694, -20713.965083833347, -52712.49892860639, 187500.0, -54641.00744021028, -17010.973931667082, 0.616, -0.5640000000000001, 0.562, 192.0, 0.0, 0.0, 0.0, 0.0, 0.0, 0.0, 0.0, 0.0, 0.0, 1.663592970977746E9, 0.0, 2022-09-19 18:09:30.977
19.0, -35061.61690492832, -21327.006379009053, -66814.19215371515, -20764.59178502462, -52617.07933152668, 187500.0, -54673.61863537057, -17033.683304033675, 0.616, -0.5640000000000001, 0.562, 192.0, 0.0, 0.0, 0.0, 0.0, 0.0, 0.0, 0.0, 0.0, 0.0, 1.6635929709827416E9, 0.0, 2022-09-19 18:09:30.982
20.0, -35063.58385844038, -21374.593242954405, -66774.78602824044, -20771.945508950415, -52609.77031108979, 187500.0, -54784.63975008008, -17041.729932037586, 0.616, -0.5640000000000001, 0.562, 192.0, 0.0, 0.0, 0.0, 0.0, 0.0, 0.0, 0.0, 0.0, 0.0, 1.6635929709866784E9, 0.0, 2022-09-19 18:09:30.986
21.0, -35369.601591777995, -21415.720452752168, -66673.77849504692, -20727.778461906728, -52701.188945912, 187500.0, -54759.09170616767, -17025.659027774218, 0.616, -0.5640000000000001, 0.562, 192.0, 0.0, 0.0, 0.0, 0.0, 0.0, 0.0, 0.0, 0.0, 0.0, 1.6635929709906807E9, 0.0, 2022-09-19 18:09:30.990
22.0, -35472.95605813933, -21391.267644318064, -66664.16724493113, -20701.828086594116, -52735.36476318417, 187500.0, -54674.8032778267, -17010.70571073362, 0.616, -0.5640000000000001, 0.562, 192.0, 0.0, 0.0, 0.0, 0.0, 0.0, 0.0, 0.0, 0.0, 0.0, 1.663592970993709E9, 0.0, 2022-09-19 18:09:30.993
23.0, -35368.819280722055, -21366.83718762841, -66721.32065550335, -20717.250790268277, -52702.82062325724, 187500.0, -54646.5506728352, -17010.79511771144, 0.616, -0.5640000000000001, 0.562, 192.0, 0.0, 0.0, 0.0, 0.0, 0.0, 0.0, 0.0, 0.0, 0.0, 1.6635929709977252E9, 0.0, 2022-09-19 18:09:30.997
24.0, -35054.77727112499, -21336.729387847114, -66810.66057809122, -20761.931927434438, -52596.06869173869, 187500.0, -54674.31153944869, -17019.37818758228, 0.62, -0.5640000000000001, 0.562, 192.0, 19.0, 96.0, 238.0, 96.0, 17.0, 144.0, 0.0, 0.0, 0.0, 1.6635929710007434E9, 0.0, 2022-09-19 18:09:31.000
25.0, -35054.28553274698, -21375.353202265884, -66774.40604858471, -20771.54317755022, -52583.2611421658, 187500.0, -54795.48034614091, -17025.882545218774, 0.62, -0.5640000000000001, 0.562, 192.0, 0.0, 0.0, 0.0, 0.0, 0.0, 0.0, 0.0, 0.0, 0.0, 1.663592971004828E9, 0.0, 2022-09-19 18:09:31.004
26.0, -35360.638542251414, -21413.865257962378, -66675.8348555368, -20723.19635429339, -52674.2327420989, 187500.0, -54774.78263077529, -17016.293646847447, 0.62, -0.5640000000000001, 0.562, 192.0, 0.0, 0.0, 0.0, 0.0, 0.0, 0.0, 0.0, 0.0, 0.0, 1.66359297100876E9, 0.0, 2022-09-19 18:09:31.008
27.0, -35465.42352025789, -21396.0509176315, -66666.38006763221, -20694.988452790793, -52710.50962334986, 187500.0, -54695.43393795895, -17003.30728331891, 0.62, -0.5640000000000001, 0.562, 192.0, 0.0, 0.0, 0.0, 0.0, 0.0, 0.0, 0.0, 0.0, 0.0, 1.6635929710137851E9, 0.0, 2022-09-19 18:09:31.013
28.0, -35364.90772544238, -21370.18994929671, -66721.85709737029, -20717.80958387966, -52682.65934975855, 187500.0, -54662.01807999827, -17011.21980085609, 0.62, -0.5640000000000001, 0.562, 192.0, 0.0, 0.0, 0.0, 0.0, 0.0, 0.0, 0.0, 0.0, 0.0, 1.663592971016768E9, 0.0, 2022-09-19 18:09:31.016
29.0, -35057.28066650399, -21343.926649561723, -66814.08039499288, -20769.844444971615, -52582.232961920854, 187500.0, -54687.81199309969, -17030.50935632102, 0.62, -0.5640000000000001, 0.562, 192.0, 0.0, 0.0, 0.0, 0.0, 0.0, 0.0, 0.0, 0.0, 0.0, 1.6635929710197802E9, 0.0, 2022-09-19 18:09:31.019
30.0, -35051.96095132363, -21383.198664569696, -66766.27001360297, -20771.431418827942, -52566.586740802144, 187500.0, -54794.36275891814, -17034.107987178326, 0.62, -0.5640000000000001, 0.562, 192.0, 0.0, 0.0, 0.0, 0.0, 0.0, 0.0, 0.0, 0.0, 0.0, 1.6635929710248215E9, 0.0, 2022-09-19 18:09:31.024
31.0, -35360.90676318488, -21418.87204872037, -66660.09922744027, -20724.001017093782, -52660.62052972562, 187500.0, -54765.01491844832, -17020.65223701623, 0.62, -0.5640000000000001, 0.562, 192.0, 0.0, 0.0, 0.0, 0.0, 0.0, 0.0, 0.0, 0.0, 0.0, 1.66359297102881E9, 0.0, 2022-09-19 18:09:31.028
32.0, -35468.68687494837, -21386.75259193809, -66653.59486980377, -20698.274159225723, -52699.89254473359, 187500.0, -54679.318330206675, -17005.765975208997, 0.62, -0.5640000000000001, 0.562, 192.0, 0.0, 0.0, 0.0, 0.0, 0.0, 0.0, 0.0, 0.0, 0.0, 1.6635929710328076E9, 0.0, 2022-09-19 18:09:31.032
33.0, -35363.298399841595, -21350.18513800921, -66705.80854485137, -20707.48307794131, -52666.208465839445, 187500.0, -54648.38351588053, -16998.479306516565, 0.62, -0.5640000000000001, 0.562, 192.0, 0.0, 0.0, 0.0, 0.0, 0.0, 0.0, 0.0, 0.0, 0.0, 1.6635929710367713E9, 0.0, 2022-09-19 18:09:31.036
34.0, -35057.392425226266, -21324.70414933016, -66801.02697623098, -20752.611249996575, -52568.263121636286, 187500.0, -54679.385385440044, -17012.80677471242, 0.626, -0.562, 0.5680000000000001, 192.0, 19.0, 144.0, 238.0, 112.0, 17.0, 192.0, 0.0, 0.0, 0.0, 1.6635929710408907E9, 0.0, 2022-09-19 18:09:31.040
35.0, -35051.46921294561, -21371.75457140858, -66765.93473743615, -20760.34495357811, -52555.343813341125, 187500.0, -54797.112023486145, -17016.919495692193, 0.626, -0.562, 0.5680000000000001, 192.0, 0.0, 0.0, 0.0, 0.0, 0.0, 0.0, 0.0, 0.0, 0.0, 1.663592971044866E9, 0.0, 2022-09-19 18:09:31.044
36.0, -35358.71629222826, -21414.28994110703, -66670.82806477882, -20721.207049036868, -52651.54572147677, 187500.0, -54772.70391854095, -17009.87869618877, 0.626, -0.562, 0.5680000000000001, 192.0, 0.0, 0.0, 0.0, 0.0, 0.0, 0.0, 0.0, 0.0, 0.0, 1.66359297104987E9, 0.0, 2022-09-19 18:09:31.049
37.0, -35465.937610380366, -21394.352185052896, -66666.7376955435, -20697.782420847707, -52691.600047540676, 187500.0, -54687.432013443955, -17002.726137963073, 0.626, -0.562, 0.5680000000000001, 192.0, 0.0, 0.0, 0.0, 0.0, 0.0, 0.0, 0.0, 0.0, 0.0, 1.6635929710528083E9, 0.0, 2022-09-19 18:09:31.052
38.0, -35362.91842018586, -21357.874138101834, -66721.11948980326, -20710.34410123159, -52661.71576520393, 187500.0, -54653.658527571984, -17007.17413510968, 0.626, -0.562, 0.5680000000000001, 192.0, 0.0, 0.0, 0.0, 0.0, 0.0, 0.0, 0.0, 0.0, 0.0, 1.6635929710578785E9, 0.0, 2022-09-19 18:09:31.057
39.0, -35058.33119849339, -21333.37662617882, -66818.34957818384, -20760.92609893395, -52563.18927564494, 187500.0, -54682.42522268596, -17026.530745807977, 0.626, -0.562, 0.5680000000000001, 192.0, 0.0, 0.0, 0.0, 0.0, 0.0, 0.0, 0.0, 0.0, 0.0, 1.66359297106086E9, 0.0, 2022-09-19 18:09:31.060
40.0, -35056.29718974795, -21375.487312732617, -66779.09991492033, -20766.357572836587, -52551.432258061446, 187500.0, -54795.994436263376, -17030.375245854288, 0.626, -0.562, 0.5680000000000001, 192.0, 0.0, 0.0, 0.0, 0.0, 0.0, 0.0, 0.0, 0.0, 0.0, 1.663592971066857E9, 0.0, 2022-09-19 18:09:31.066
41.0, -35354.4471090373, -21411.495973050114, -66668.05644846636, -20708.421851208434, -52635.54187244677, 187500.0, -54758.64467127856, -17007.978797910073, 0.626, -0.562, 0.5680000000000001, 192.0, 0.0, 0.0, 0.0, 0.0, 0.0, 0.0, 0.0, 0.0, 0.0, 1.6635929710698223E9, 0.0, 2022-09-19 18:09:31.069
42.0, -35465.937610380366, -21395.693289720213, -66672.05741072386, -20686.96417653134, -52673.29396883178, 187500.0, -54684.079251775656, -16999.149858850225, 0.626, -0.562, 0.5680000000000001, 192.0, 0.0, 0.0, 0.0, 0.0, 0.0, 0.0, 0.0, 0.0, 0.0, 1.663592971072898E9, 0.0, 2022-09-19 18:09:31.072
43.0, -35366.181774876335, -21357.36004797936, -66728.38380675123, -20701.939845316392, -52644.99666035136, 187500.0, -54656.743068306816, -17004.022539141482, 0.626, -0.562, 0.5680000000000001, 192.0, 0.0, 0.0, 0.0, 0.0, 0.0, 0.0, 0.0, 0.0, 0.0, 1.6635929710768828E9, 0.0, 2022-09-19 18:09:31.076
44.0, -35058.75588163804, -21325.59821910837, -66817.5672671279, -20744.654028970486, -52541.64219399002, 187500.0, -54678.133687750546, -17018.819393970894, 0.626, -0.562, 0.5680000000000001, 192.0, 0.0, 0.0, 0.0, 0.0, 0.0, 0.0, 0.0, 0.0, 0.0, 1.66359297107989E9, 0.0, 2022-09-19 18:09:31.079
45.0, -35050.239867000564, -21364.669068416246, -66782.5644353109, -20753.035933141226, -52525.79480717121, 187500.0, -54793.7816135623, -17025.99430394105, 0.626, -0.5680000000000001, 0.56, 192.0, 19.0, 144.0, 238.0, 64.0, 17.0, 128.0, 0.0, 0.0, 0.0, 1.6635929710848763E9, 0.0, 2022-09-19 18:09:31.084
46.0, -35357.352835816484, -21403.8516764464, -66676.75127705948, -20703.727984872818, -52616.3193722152, 187500.0, -54765.95369171545, -17012.762071223508, 0.626, -0.5680000000000001, 0.56, 192.0, 0.0, 0.0, 0.0, 0.0, 0.0, 0.0, 0.0, 0.0, 0.0, 1.6635929710888944E9, 0.0, 2022-09-19 18:09:31.088
47.0, -35467.7704534257, -21384.919748892757, -66675.34311715879, -20684.259615452243, -52654.04911685576, 187500.0, -54683.29694071972, -17004.80485019742, 0.626, -0.5680000000000001, 0.56, 192.0, 0.0, 0.0, 0.0, 0.0, 0.0, 0.0, 0.0, 0.0, 0.0, 1.663592971092945E9, 0.0, 2022-09-19 18:09:31.092
48.0, -35369.78040573364, -21354.677838644726, -66732.78710040892, -20703.459763939354, -52623.60604090763, 187500.0, -54657.32421366265, -17009.789289210952, 0.626, -0.5680000000000001, 0.56, 192.0, 0.0, 0.0, 0.0, 0.0, 0.0, 0.0, 0.0, 0.0, 0.0, 1.6635929710968597E9, 0.0, 2022-09-19 18:09:31.096
49.0, -35063.27093401801, -21330.06856799943, -66826.55266839894, -20757.77450296575, -52522.464397247364, 187500.0, -54687.65553088851, -17028.36358885331, 0.626, -0.5680000000000001, 0.56, 192.0, 0.0, 0.0, 0.0, 0.0, 0.0, 0.0, 0.0, 0.0, 0.0, 1.663592971099904E9, 0.0, 2022-09-19 18:09:31.099
50.0, -35055.44782345865, -21376.403734255284, -66792.9132929937, -20768.816264726673, -52509.43333022992, 187500.0, -54804.868078812135, -17034.46561508961, 0.626, -0.5680000000000001, 0.56, 192.0, 0.0, 0.0, 0.0, 0.0, 0.0, 0.0, 0.0, 0.0, 0.0, 1.6635929711039095E9, 0.0, 2022-09-19 18:09:31.103
51.0, -35360.1468038734, -21426.91867672428, -66689.6929370991, -20722.72696765983, -52601.5672208747, 187500.0, -54780.817601778224, -17017.813565470406, 0.626, -0.5680000000000001, 0.56, 192.0, 0.0, 0.0, 0.0, 0.0, 0.0, 0.0, 0.0, 0.0, 0.0, 1.6635929711079519E9, 0.0, 2022-09-19 18:09:31.107
52.0, -35470.78793892717, -21401.79531595651, -66682.11569572875, -20695.77076384673, -52639.96751784891, 187500.0, -54695.92567633697, -17002.346158307333, 0.626, -0.5680000000000001, 0.56, 192.0, 0.0, 0.0, 0.0, 0.0, 0.0, 0.0, 0.0, 0.0, 0.0, 1.663592971112898E9, 0.0, 2022-09-19 18:09:31.112
53.0, -35371.79206273461, -21363.953812593678, -66735.31284753238, -20710.031176809214, -52610.150290745536, 187500.0, -54664.74499282181, -17002.94965540763, 0.626, -0.5680000000000001, 0.56, 192.0, 0.0, 0.0, 0.0, 0.0, 0.0, 0.0, 0.0, 0.0, 0.0, 1.663592971116952E9, 0.0, 2022-09-19 18:09:31.116
54.0, -35069.551774209955, -21342.585544894406, -66827.58084864389, -20761.507244289787, -52515.892984377504, 187500.0, -54690.38244371205, -17024.27321961799, 0.626, -0.5680000000000001, 0.56, 192.0, 0.0, 0.0, 0.0, 0.0, 0.0, 0.0, 0.0, 0.0, 0.0, 1.6635929711209776E9, 0.0, 2022-09-19 18:09:31.120
55.0, -35061.03575957248, -21380.65056570179, -66788.28648189145, -20772.079619417145, -52506.63936217301, 187500.0, -54796.9332095305, -17030.28583887647, 0.63, -0.5660000000000001, 0.5640000000000001, 192.0, 19.0, 176.0, 238.0, 80.0, 17.0, 160.0, 0.0, 0.0, 0.0, 1.663592971124964E9, 0.0, 2022-09-19 18:09:31.124
56.0, -35363.99130391971, -21406.57858926995, -66679.47818988303, -20724.2915897717, -52597.70036908393, 187500.0, -54758.21998813391, -17013.633789257263, 0.63, -0.5660000000000001, 0.5640000000000001, 192.0, 0.0, 0.0, 0.0, 0.0, 0.0, 0.0, 0.0, 0.0, 0.0, 1.6635929711289525E9, 0.0, 2022-09-19 18:09:31.128
57.0, -35474.69949420685, -21374.213263298665, -66677.7347538155, -20698.654138881462, -52640.03457308228, 187500.0, -54672.83632431464, -17004.491925775044, 0.63, -0.5660000000000001, 0.5640000000000001, 192.0, 0.0, 0.0, 0.0, 0.0, 0.0, 0.0, 0.0, 0.0, 0.0, 1.663592971132951E9, 0.0, 2022-09-19 18:09:31.132
58.0, -35373.28962961312, -21339.255134970565, -66729.14376606271, -20711.662854154452, -52611.401988435035, 187500.0, -54645.56719607916, -17011.040986900447, 0.63, -0.5660000000000001, 0.5640000000000001, 192.0, 0.0, 0.0, 0.0, 0.0, 0.0, 0.0, 0.0, 0.0, 0.0, 1.663592971135973E9, 0.0, 2022-09-19 18:09:31.135
59.0, -35071.83165214439, -21314.69056781418, -66813.70041533714, -20756.031066898235, -52517.9493448674, 187500.0, -54671.204646969396, -17031.448129588145, 0.63, -0.5660000000000001, 0.5640000000000001, 192.0, 0.0, 0.0, 0.0, 0.0, 0.0, 0.0, 0.0, 0.0, 0.0, 1.663592971141008E9, 0.0, 2022-09-19 18:09:31.141
60.0, -35071.54107946647, -21360.802216625478, -66779.79281899844, -20765.48585480283, -52514.46247273237, 187500.0, -54793.1334129731, -17041.506414593034, 0.63, -0.5660000000000001, 0.5640000000000001, 192.0, 0.0, 0.0, 0.0, 0.0, 0.0, 0.0, 0.0, 0.0, 0.0, 1.6635929711449957E9, 0.0, 2022-09-19 18:09:31.144
61.0, -35381.24685063921, -21398.643719988315, -66671.99035549049, -20715.976740834325, -52611.78196809077, 187500.0, -54767.674776038504, -17024.474385318088, 0.63, -0.5660000000000001, 0.5640000000000001, 192.0, 0.0, 0.0, 0.0, 0.0, 0.0, 0.0, 0.0, 0.0, 0.0, 1.6635929711499772E9, 0.0, 2022-09-19 18:09:31.149
62.0, -35495.68778225038, -21375.219091799154, -66664.61427982023, -20688.215874220834, -52652.99858486636, 187500.0, -54680.838248829634, -17012.27033284549, 0.63, -0.5660000000000001, 0.5640000000000001, 192.0, 0.0, 0.0, 0.0, 0.0, 0.0, 0.0, 0.0, 0.0, 0.0, 1.6635929711539595E9, 0.0, 2022-09-19 18:09:31.153
63.0, -35397.76478979168, -21342.093806516386, -66722.77351889295, -20701.269292982735, -52625.90827058653, 187500.0, -54650.05989671468, -17015.734853236063, 0.63, -0.5660000000000001, 0.5640000000000001, 192.0, 0.0, 0.0, 0.0, 0.0, 0.0, 0.0, 0.0, 0.0, 0.0, 1.6635929711569843E9, 0.0, 2022-09-19 18:09:31.156
64.0, -35098.25141409057, -21321.574905106416, -66822.14937474125, -20751.42660754044, -52532.36622004107, 187500.0, -54676.30084470521, -17038.578336069386, 0.63, -0.5660000000000001, 0.5640000000000001, 192.0, 0.0, 0.0, 0.0, 0.0, 0.0, 0.0, 0.0, 0.0, 0.0, 1.663592971159978E9, 0.0, 2022-09-19 18:09:31.159
65.0, -35091.210614587144, -21364.669068416246, -66785.73838302355, -20759.227366355346, -52520.363333268564, 187500.0, -54788.0819187262, -17044.03216171648, 0.624, -0.562, 0.5660000000000001, 192.0, 19.0, 128.0, 238.0, 112.0, 17.0, 176.0, 0.0, 0.0, 0.0, 1.663592971164114E9, 0.0, 2022-09-19 18:09:31.164
66.0, -35396.20016767981, -21398.733126966137, -66682.5403788734, -20713.696862899884, -52610.17264248999, 187500.0, -54755.873054966105, -17026.351931852332, 0.624, -0.562, 0.5660000000000001, 192.0, 0.0, 0.0, 0.0, 0.0, 0.0, 0.0, 0.0, 0.0, 0.0, 1.6635929711680138E9, 0.0, 2022-09-19 18:09:31.168
67.0, -35507.735372511794, -21377.52132147805, -66679.27702418293, -20692.820333578627, -52650.56224472073, 187500.0, -54670.847019058114, -17016.09248114735, 0.624, -0.562, 0.5660000000000001, 192.0, 0.0, 0.0, 0.0, 0.0, 0.0, 0.0, 0.0, 0.0, 0.0, 1.6635929711730387E9, 0.0, 2022-09-19 18:09:31.173
68.0, -35410.12530447546, -21344.172518750733, -66729.38963525172, -20703.169191261433, -52623.98602056337, 187500.0, -54637.67703028644, -17015.533687535964, 0.624, -0.562, 0.5660000000000001, 192.0, 0.0, 0.0, 0.0, 0.0, 0.0, 0.0, 0.0, 0.0, 0.0, 1.663592971177024E9, 0.0, 2022-09-19 18:09:31.177
69.0, -35111.215425874645, -21322.22310569562, -66828.56432539992, -20751.180738351435, -52533.70732470838, 187500.0, -54665.84022830013, -17038.824205258396, 0.624, -0.562, 0.5660000000000001, 192.0, 0.0, 0.0, 0.0, 0.0, 0.0, 0.0, 0.0, 0.0, 0.0, 1.663592971181017E9, 0.0, 2022-09-19 18:09:31.181
70.0, -35103.54877752648, -21368.75943765157, -66797.98713898506, -20759.763808222273, -52524.78897867072, 187500.0, -54788.95363675996, -17048.860138518827, 0.624, -0.562, 0.5660000000000001, 192.0, 0.0, 0.0, 0.0, 0.0, 0.0, 0.0, 0.0, 0.0, 0.0, 1.66359297118416E9, 0.0, 2022-09-19 18:09:31.184
71.0, -35406.41491489588, -21410.84777246091, -66690.87757955522, -20711.595798921087, -52612.78779659126, 187500.0, -54767.51831382732, -17027.35776035282, 0.624, -0.562, 0.5660000000000001, 192.0, 0.0, 0.0, 0.0, 0.0, 0.0, 0.0, 0.0, 0.0, 0.0, 1.663592971188124E9, 0.0, 2022-09-19 18:09:31.188
72.0, -35518.24069240579, -21396.252083331598, -66691.36931793325, -20696.776592347218, -52654.0267651113, 187500.0, -54693.39992921352, -17019.445242815644, 0.624, -0.562, 0.5660000000000001, 192.0, 0.0, 0.0, 0.0, 0.0, 0.0, 0.0, 0.0, 0.0, 0.0, 1.6635929711921685E9, 0.0, 2022-09-19 18:09:31.192
73.0, -35422.28465345915, -21365.98782133911, -66740.61021096828, -20713.29453149969, -52628.03168630978, 187500.0, -54657.88300727404, -17020.495774805044, 0.624, -0.562, 0.5660000000000001, 192.0, 0.0, 0.0, 0.0, 0.0, 0.0, 0.0, 0.0, 0.0, 0.0, 1.6635929711960964E9, 0.0, 2022-09-19 18:09:31.196
74.0, -35122.52540856903, -21350.69922813168, -66831.35829345683, -20764.412971068978, -52536.68010672094, 187500.0, -54688.37078671107, -17039.673571547697, 0.624, -0.562, 0.5660000000000001, 192.0, 0.0, 0.0, 0.0, 0.0, 0.0, 0.0, 0.0, 0.0, 0.0, 1.663592971201167E9, 0.0, 2022-09-19 18:09:31.201
75.0, -35108.46616130664, -21370.592280696903, -66789.04644120294, -20771.900805461504, -52524.40899901498, 187500.0, -54799.771881076325, -17044.881528005782, 0.63, -0.562, 0.5700000000000001, 192.0, 19.0, 176.0, 238.0, 112.0, 17.0, 208.0, 0.0, 0.0, 0.0, 1.6635929712051852E9, 0.0, 2022-09-19 18:09:31.205
76.0, -35417.50138014572, -21403.516400279572, -66681.84747479529, -20724.939790360902, -52621.527328673285, 187500.0, -54779.81177327774, -17034.242097645056, 0.63, -0.562, 0.5700000000000001, 192.0, 0.0, 0.0, 0.0, 0.0, 0.0, 0.0, 0.0, 0.0, 0.0, 1.6635929712091544E9, 0.0, 2022-09-19 18:09:31.209
77.0, -35531.33881465659, -21385.433839015226, -66672.10211421277, -20703.52681917272, -52666.74490770637, 187500.0, -54695.83626935915, -17025.189641140656, 0.63, -0.562, 0.5700000000000001, 192.0, 0.0, 0.0, 0.0, 0.0, 0.0, 0.0, 0.0, 0.0, 0.0, 1.6635929712131543E9, 0.0, 2022-09-19 18:09:31.213
78.0, -35440.74719437923, -21367.686553917712, -66725.34396950531, -20723.218706037846, -52645.935433618484, 187500.0, -54666.06374574468, -17027.93890570866, 0.63, -0.562, 0.5700000000000001, 192.0, 0.0, 0.0, 0.0, 0.0, 0.0, 0.0, 0.0, 0.0, 0.0, 1.6635929712181444E9, 0.0, 2022-09-19 18:09:31.218
79.0, -35134.10361219688, -21341.80323383847, -66820.96473228511, -20770.693811260917, -52550.82876096115, 187500.0, -54697.04326355973, -17045.03799021697, 0.63, -0.562, 0.5700000000000001, 192.0, 0.0, 0.0, 0.0, 0.0, 0.0, 0.0, 0.0, 0.0, 0.0, 1.6635929712211995E9, 0.0, 2022-09-19 18:09:31.221
80.0, -35117.1386381553, -21368.55827195147, -66786.18541791265, -20778.78514275374, -52539.92110966696, 187500.0, -54811.55125040427, -17051.207071686636, 0.63, -0.562, 0.5700000000000001, 192.0, 0.0, 0.0, 0.0, 0.0, 0.0, 0.0, 0.0, 0.0, 0.0, 1.6635929712261083E9, 0.0, 2022-09-19 18:09:31.226
81.0, -35420.94354879183, -21394.396888541807, -66673.71143981355, -20724.604514194074, -52633.03847706777, 187500.0, -54777.01780522082, -17029.70469352063, 0.63, -0.562, 0.5700000000000001, 192.0, 0.0, 0.0, 0.0, 0.0, 0.0, 0.0, 0.0, 0.0, 0.0, 1.6635929712301385E9, 0.0, 2022-09-19 18:09:31.230
82.0, -35538.67018683794, -21378.75066742309, -66665.95538448756, -20700.419926693434, -52679.30658809026, 187500.0, -54688.99663555582, -17019.869925960294, 0.63, -0.562, 0.5700000000000001, 192.0, 0.0, 0.0, 0.0, 0.0, 0.0, 0.0, 0.0, 0.0, 0.0, 1.663592971233173E9, 0.0, 2022-09-19 18:09:31.233
83.0, -35445.374005481484, -21345.69243737369, -66722.50529795949, -20714.568580933643, -52655.61373896763, 187500.0, -54662.06278348718, -17023.803832984428, 0.63, -0.562, 0.5700000000000001, 192.0, 0.0, 0.0, 0.0, 0.0, 0.0, 0.0, 0.0, 0.0, 0.0, 1.6635929712371156E9, 0.0, 2022-09-19 18:09:31.237
84.0, -35149.77218506005, -21327.855745298355, -66824.13867999776, -20768.950375193403, -52567.34670011362, 187500.0, -54693.04230130224, -17048.055475718436, 0.63, -0.562, 0.5700000000000001, 192.0, 0.0, 0.0, 0.0, 0.0, 0.0, 0.0, 0.0, 0.0, 0.0, 1.663592971240191E9, 0.0, 2022-09-19 18:09:31.240
85.0, -35140.786783789015, -21367.194815539697, -66794.43321161666, -20780.796799754717, -52559.85886572109, 187500.0, -54810.00898003686, -17060.3265834244, 0.626, -0.56, 0.5740000000000001, 192.0, 19.0, 144.0, 238.0, 128.0, 17.0, 240.0, 0.0, 0.0, 0.0, 1.6635929712441838E9, 0.0, 2022-09-19 18:09:31.244
86.0, -35446.53629619316, -21397.23556008763, -66677.7347538155, -20722.68226417092, -52651.41161101003, 187500.0, -54772.88273249659, -17041.461711104123, 0.626, -0.56, 0.5740000000000001, 192.0, 0.0, 0.0, 0.0, 0.0, 0.0, 0.0, 0.0, 0.0, 0.0, 1.663592971248198E9, 0.0, 2022-09-19 18:09:31.248
87.0, -35567.70510288538, -21381.70109769119, -66674.00201249147, -20697.067165025135, -52701.99360871239, 187500.0, -54683.63221688655, -17034.733836023075, 0.626, -0.56, 0.5740000000000001, 192.0, 0.0, 0.0, 0.0, 0.0, 0.0, 0.0, 0.0, 0.0, 0.0, 1.6635929712522054E9, 0.0, 2022-09-19 18:09:31.252
88.0, -35476.93466865238, -21347.234707741107, -66726.46155672807, -20711.931075087916, -52679.79832646827, 187500.0, -54652.51858860476, -17036.47727209059, 0.626, -0.56, 0.5740000000000001, 192.0, 0.0, 0.0, 0.0, 0.0, 0.0, 0.0, 0.0, 0.0, 0.0, 1.6635929712572052E9, 0.0, 2022-09-19 18:09:31.257
89.0, -35175.029656294544, -21321.55255336196, -66824.25043872005, -20761.261375100778, -52585.518668355784, 187500.0, -54681.285283718746, -17053.95633625464, 0.626, -0.56, 0.5740000000000001, 192.0, 0.0, 0.0, 0.0, 0.0, 0.0, 0.0, 0.0, 0.0, 0.0, 1.6635929712612092E9, 0.0, 2022-09-19 18:09:31.261
90.0, -35161.01511252107, -21366.07722831693, -66794.18734242766, -20768.25747111529, -52574.342796128134, 187500.0, -54793.826317051215, -17059.61132760183, 0.626, -0.56, 0.5740000000000001, 192.0, 0.0, 0.0, 0.0, 0.0, 0.0, 0.0, 0.0, 0.0, 0.0, 1.6635929712641945E9, 0.0, 2022-09-19 18:09:31.264
91.0, -35473.29133430617, -21409.305502093495, -66690.02821326592, -20720.692958914395, -52672.221085097925, 187500.0, -54766.26661613782, -17041.506414593034, 0.626, -0.56, 0.5740000000000001, 192.0, 0.0, 0.0, 0.0, 0.0, 0.0, 0.0, 0.0, 0.0, 0.0, 1.6635929712682576E9, 0.0, 2022-09-19 18:09:31.268
92.0, -35592.33672527513, -21383.399830269795, -66685.20023646358, -20697.20127549187, -52717.90805076457, 187500.0, -54679.49714416232, -17027.04483593045, 0.626, -0.56, 0.5740000000000001, 192.0, 0.0, 0.0, 0.0, 0.0, 0.0, 0.0, 0.0, 0.0, 0.0, 1.663592971272274E9, 0.0, 2022-09-19 18:09:31.272
93.0, -35502.214491631334, -21349.22401299763, -66740.76667317947, -20713.920380344436, -52695.489251075895, 187500.0, -54647.26592865776, -17033.12451042229, 0.626, -0.56, 0.5740000000000001, 192.0, 0.0, 0.0, 0.0, 0.0, 0.0, 0.0, 0.0, 0.0, 0.0, 1.6635929712762692E9, 0.0, 2022-09-19 18:09:31.276
94.0, -35201.29295602953, -21326.7828615645, -66836.76741561502, -20767.96689843737, -52604.18237497597, 187500.0, -54673.640987115024, -17053.50930136553, 0.626, -0.56, 0.5740000000000001, 192.0, 0.0, 0.0, 0.0, 0.0, 0.0, 0.0, 0.0, 0.0, 0.0, 1.6635929712802055E9, 0.0, 2022-09-19 18:09:31.280
95.0, -35183.9032988433, -21371.575757452938, -66800.6693483197, -20777.265224130777, -52592.55946785921, 187500.0, -54789.17715420451, -17058.717257823617, 0.622, -0.5640000000000001, 0.5660000000000001, 192.0, 19.0, 112.0, 238.0, 96.0, 17.0, 176.0, 0.0, 0.0, 0.0, 1.6635929712852683E9, 0.0, 2022-09-19 18:09:31.285
96.0, -35490.09984613655, -21414.826382973955, -66684.08264924081, -20721.139993803503, -52684.91687594854, 187500.0, -54762.55622655824, -17035.694961034653, 0.622, -0.5640000000000001, 0.5660000000000001, 192.0, 0.0, 0.0, 0.0, 0.0, 0.0, 0.0, 0.0, 0.0, 0.0, 1.6635929712892838E9, 0.0, 2022-09-19 18:09:31.289
97.0, -35609.100533616605, -21389.9488913952, -66679.41113464965, -20695.14491500198, -52731.229690459935, 187500.0, -54683.92278956447, -17022.596838783844, 0.622, -0.5640000000000001, 0.5660000000000001, 192.0, 0.0, 0.0, 0.0, 0.0, 0.0, 0.0, 0.0, 0.0, 0.0, 1.6635929712922645E9, 0.0, 2022-09-19 18:09:31.292
98.0, -35518.017174961235, -21348.709922875158, -66734.86581264327, -20710.031176809214, -52707.76035878186, 187500.0, -54653.83734152763, -17022.306266105923, 0.622, -0.5640000000000001, 0.5660000000000001, 192.0, 0.0, 0.0, 0.0, 0.0, 0.0, 0.0, 0.0, 0.0, 0.0, 1.66359297129731E9, 0.0, 2022-09-19 18:09:31.297
99.0, -35208.1102380884, -21308.812059022435, -66823.89281080876, -20756.43339829843, -52608.540965144755, 187500.0, -54670.020004513266, -17035.918478479205, 0.622, -0.5640000000000001, 0.5660000000000001, 192.0, 0.0, 0.0, 0.0, 0.0, 0.0, 0.0, 0.0, 0.0, 0.0, 1.6635929713002853E9, 0.0, 2022-09-19 18:09:31.300
100.0, -35186.69726690021, -21349.156957764266, -66792.80153427142, -20772.3031368617, -52595.48754638285, 187500.0, -54780.124697700114, -17047.98842048507, 0.622, -0.5640000000000001, 0.5660000000000001, 192.0, 0.0, 0.0, 0.0, 0.0, 0.0, 0.0, 0.0, 0.0, 0.0, 1.6635929713052652E9, 0.0, 2022-09-19 18:09:31.305
101.0, -35500.40400033045, -21396.18502809823, -66685.78138181941, -20725.185659549912, -52696.15980340956, 187500.0, -54757.92941545599, -17037.3713418688, 0.622, -0.5640000000000001, 0.5660000000000001, 192.0, 0.0, 0.0, 0.0, 0.0, 0.0, 0.0, 0.0, 0.0, 0.0, 1.6635929713102176E9, 0.0, 2022-09-19 18:09:31.310
102.0, -35619.449391299415, -21379.689440690214, -66683.88148354071, -20701.425755193923, -52743.165521999064, 187500.0, -54679.452440673405, -17030.978742954583, 0.622, -0.5640000000000001, 0.5660000000000001, 192.0, 0.0, 0.0, 0.0, 0.0, 0.0, 0.0, 0.0, 0.0, 0.0, 1.6635929713133194E9, 0.0, 2022-09-19 18:09:31.313
103.0, -35525.6838233094, -21342.74200710559, -66724.80752763839, -20709.986473320303, -52719.2938589208, 187500.0, -54645.23191991233, -17024.07205391789, 0.622, -0.5640000000000001, 0.5660000000000001, 192.0, 0.0, 0.0, 0.0, 0.0, 0.0, 0.0, 0.0, 0.0, 0.0, 1.6635929713173304E9, 0.0, 2022-09-19 18:09:31.317
104.0, -35221.70009871723, -21319.02680623851, -66814.52742988199, -20754.48879653082, -52626.51176768682, 187500.0, -54672.79162082572, -17037.147824424246, 0.622, -0.5640000000000001, 0.5660000000000001, 192.0, 0.0, 0.0, 0.0, 0.0, 0.0, 0.0, 0.0, 0.0, 0.0, 1.6635929713202612E9, 0.0, 2022-09-19 18:09:31.320
105.0, -35204.73512467565, -21362.545652692992, -66781.04451668794, -20765.26233735828, -52617.10168327113, 187500.0, -54786.53964835878, -17046.647315817754, 0.626, -0.5720000000000001, 0.5660000000000001, 192.0, 19.0, 144.0, 238.0, 32.0, 17.0, 176.0, 0.0, 0.0, 0.0, 1.6635929713242571E9, 0.0, 2022-09-19 18:09:31.324
106.0, -35517.8830644945, -21391.55821699598, -66665.46364610955, -20710.14293553149, -52715.33760015221, 187500.0, -54754.196674131956, -17027.693036519653, 0.626, -0.5720000000000001, 0.5660000000000001, 192.0, 0.0, 0.0, 0.0, 0.0, 0.0, 0.0, 0.0, 0.0, 0.0, 1.6635929713282645E9, 0.0, 2022-09-19 18:09:31.328
107.0, -35642.62815029957, -21373.676821431734, -66667.11767519923, -20690.60751087755, -52766.031356576845, 187500.0, -54679.16186799549, -17019.914629449206, 0.626, -0.5720000000000001, 0.5660000000000001, 192.0, 0.0, 0.0, 0.0, 0.0, 0.0, 0.0, 0.0, 0.0, 0.0, 1.6635929713322875E9, 0.0, 2022-09-19 18:09:31.332
108.0, -35556.395120190995, -21351.861518843358, -66721.85709737029, -20710.72408088733, -52746.674745878554, 187500.0, -54652.09390546011, -17026.4189870857, 0.626, -0.5720000000000001, 0.5660000000000001, 192.0, 0.0, 0.0, 0.0, 0.0, 0.0, 0.0, 0.0, 0.0, 0.0, 1.663592971336279E9, 0.0, 2022-09-19 18:09:31.336
109.0, -35251.20440139823, -21323.45245164066, -66812.40401415873, -20760.72493323385, -52650.6292999541, 187500.0, -54673.12689699256, -17047.653144318243, 0.626, -0.5720000000000001, 0.5660000000000001, 192.0, 0.0, 0.0, 0.0, 0.0, 0.0, 0.0, 0.0, 0.0, 0.0, 1.663592971340338E9, 0.0, 2022-09-19 18:09:31.340
110.0, -35227.37744180887, -21353.98493456661, -66771.38856308324, -20762.58012802364, -52635.74303814686, 187500.0, -54781.17522968951, -17055.364496155322, 0.626, -0.5720000000000001, 0.5660000000000001, 192.0, 0.0, 0.0, 0.0, 0.0, 0.0, 0.0, 0.0, 0.0, 0.0, 1.6635929713453329E9, 0.0, 2022-09-19 18:09:31.345
111.0, -35538.51372462675, -21391.75938269608, -66660.07687569581, -20705.739641873795, -52735.11889399515, 187500.0, -54756.67771776649, -17038.08659769137, 0.626, -0.5720000000000001, 0.5660000000000001, 192.0, 0.0, 0.0, 0.0, 0.0, 0.0, 0.0, 0.0, 0.0, 0.0, 1.6635929713483796E9, 0.0, 2022-09-19 18:09:31.348
112.0, -35662.789423798255, -21379.734144179125, -66653.17018665912, -20682.538531129187, -52787.66784520958, 187500.0, -54674.40094642651, -17027.447167330643, 0.626, -0.5720000000000001, 0.5660000000000001, 192.0, 0.0, 0.0, 0.0, 0.0, 0.0, 0.0, 0.0, 0.0, 0.0, 1.663592971352312E9, 0.0, 2022-09-19 18:09:31.352
113.0, -35571.54960293169, -21353.873175844335, -66700.4441261821, -20695.793115591183, -52763.81853387577, 187500.0, -54641.633289055026, -17025.010827185015, 0.626, -0.5720000000000001, 0.5660000000000001, 192.0, 0.0, 0.0, 0.0, 0.0, 0.0, 0.0, 0.0, 0.0, 0.0, 1.6635929713563285E9, 0.0, 2022-09-19 18:09:31.356
114.0, -35264.92837249379, -21320.36791090583, -66790.32049063689, -20742.731778947327, -52667.50486701785, 187500.0, -54658.77707705225, -17040.433530859176, 0.626, -0.5720000000000001, 0.5660000000000001, 192.0, 0.0, 0.0, 0.0, 0.0, 0.0, 0.0, 0.0, 0.0, 0.0, 1.663592971360294E9, 0.0, 2022-09-19 18:09:31.360
115.0, -35243.24718037214, -21361.539824192503, -66766.761751981, -20763.317735590666, -52656.17253257901, 187500.0, -54778.515372099326, -17055.967993255617, 0.624, -0.5660000000000001, 0.5720000000000001, 192.0, 19.0, 128.0, 238.0, 80.0, 17.0, 224.0, 0.0, 0.0, 0.0, 1.663592971364392E9, 0.0, 2022-09-19 18:09:31.364
116.0, -35553.15411724497, -21405.1033741359, -66659.42867510661, -20717.139031546, -52751.92740582555, 187500.0, -54758.46585732292, -17042.46753960461, 0.624, -0.5660000000000001, 0.5720000000000001, 192.0, 0.0, 0.0, 0.0, 0.0, 0.0, 0.0, 0.0, 0.0, 0.0, 1.6635929713684688E9, 0.0, 2022-09-19 18:09:31.368
117.0, -35673.7194268369, -21387.311385549474, -66651.00206744696, -20689.534627143697, -52797.45790928101, 187500.0, -54677.17256273897, -17029.23530688707, 0.624, -0.5660000000000001, 0.5720000000000001, 192.0, 0.0, 0.0, 0.0, 0.0, 0.0, 0.0, 0.0, 0.0, 0.0, 1.6635929713733816E9, 0.0, 2022-09-19 18:09:31.373
118.0, -35582.32314375915, -21361.361010236862, -66710.25654199798, -20705.60553140706, -52773.943874114026, 187500.0, -54649.16582693646, -17029.883507476272, 0.624, -0.5660000000000001, 0.5720000000000001, 192.0, 0.0, 0.0, 0.0, 0.0, 0.0, 0.0, 0.0, 0.0, 0.0, 1.6635929713773432E9, 0.0, 2022-09-19 18:09:31.377
119.0, -35276.484224377185, -21337.355236691863, -66806.27963617798, -20752.164215107467, -52676.93730317799, 187500.0, -54673.57393188166, -17043.875699505294, 0.624, -0.5660000000000001, 0.5720000000000001, 192.0, 0.0, 0.0, 0.0, 0.0, 0.0, 0.0, 0.0, 0.0, 0.0, 1.6635929713813527E9, 0.0, 2022-09-19 18:09:31.381
120.0, -35240.58732278196, -21369.631155685325, -66769.28749910445, -20754.466444786365, -52653.53502673328, 187500.0, -54785.645578580574, -17042.914574493716, 0.624, -0.5660000000000001, 0.5720000000000001, 192.0, 0.0, 0.0, 0.0, 0.0, 0.0, 0.0, 0.0, 0.0, 0.0, 1.6635929713844976E9, 0.0, 2022-09-19 18:09:31.384
121.0, -35547.61088462006, -21418.022682431067, -66667.47530311052, -20711.171115776437, -52748.73110636844, 187500.0, -54767.607720805136, -17031.045798187948, 0.624, -0.5660000000000001, 0.5720000000000001, 192.0, 0.0, 0.0, 0.0, 0.0, 0.0, 0.0, 0.0, 0.0, 0.0, 1.6635929713883772E9, 0.0, 2022-09-19 18:09:31.388
122.0, -35671.28308669127, -21397.1014496209, -66667.74352404398, -20689.981662032802, -52794.6639412241, 187500.0, -54681.39704244102, -17022.239210872558, 0.624, -0.5660000000000001, 0.5720000000000001, 192.0, 0.0, 0.0, 0.0, 0.0, 0.0, 0.0, 0.0, 0.0, 0.0, 1.6635929713933764E9, 0.0, 2022-09-19 18:09:31.393
123.0, -35582.814882137165, -21358.924670091234, -66720.73951014751, -20703.504467428265, -52771.149906057115, 187500.0, -54651.89273976001, -17024.206164384625, 0.624, -0.5660000000000001, 0.5720000000000001, 192.0, 0.0, 0.0, 0.0, 0.0, 0.0, 0.0, 0.0, 0.0, 0.0, 1.6635929713984296E9, 0.0, 2022-09-19 18:09:31.398
124.0, -35268.50465160664, -21323.720672574123, -66813.38749091477, -20749.169081350457, -52667.41546004003, 187500.0, -54672.0540132587, -17041.484062848576, 0.624, -0.5660000000000001, 0.5720000000000001, 192.0, 0.0, 0.0, 0.0, 0.0, 0.0, 0.0, 0.0, 0.0, 0.0, 1.6635929714024255E9, 0.0, 2022-09-19 18:09:31.402
125.0, -35237.79335472505, -21368.33475450692, -66779.56930155389, -20761.507244289787, -52648.46118074193, 187500.0, -54784.930322758, -17052.27995542049, 0.622, -0.5660000000000001, 0.5660000000000001, 192.0, 19.0, 112.0, 238.0, 80.0, 17.0, 176.0, 0.0, 0.0, 0.0, 1.6635929714053965E9, 0.0, 2022-09-19 18:09:31.405
126.0, -35545.621579363535, -21410.512496294083, -66667.92233799963, -20714.00978732226, -52741.44443767601, 187500.0, -54761.86332248012, -17039.71827503661, 0.622, -0.5660000000000001, 0.5660000000000001, 192.0, 0.0, 0.0, 0.0, 0.0, 0.0, 0.0, 0.0, 0.0, 0.0, 1.6635929714095185E9, 0.0, 2022-09-19 18:09:31.409
127.0, -35665.449281388435, -21395.89445542031, -66659.8310065068, -20691.926263800415, -52783.84569690772, 187500.0, -54675.76440283828, -17031.671647032697, 0.622, -0.5660000000000001, 0.5660000000000001, 192.0, 0.0, 0.0, 0.0, 0.0, 0.0, 0.0, 0.0, 0.0, 0.0, 1.6635929714124207E9, 0.0, 2022-09-19 18:09:31.412
128.0, -35579.41741697996, -21362.031562570523, -66710.68122514263, -20705.38201396251, -52760.219903018464, 187500.0, -54643.175559422445, -17034.4209116007, 0.622, -0.5660000000000001, 0.5660000000000001, 192.0, 0.0, 0.0, 0.0, 0.0, 0.0, 0.0, 0.0, 0.0, 0.0, 1.6635929714164283E9, 0.0, 2022-09-19 18:09:31.416
129.0, -35267.96820973971, -21323.206582451654, -66804.71501406611, -20746.86685167156, -52656.060773856734, 187500.0, -54663.8509230436, -17043.18279542718, 0.622, -0.5660000000000001, 0.5660000000000001, 192.0, 0.0, 0.0, 0.0, 0.0, 0.0, 0.0, 0.0, 0.0, 0.0, 1.6635929714204304E9, 0.0, 2022-09-19 18:09:31.420
130.0, -35237.39102332485, -21365.093751560897, -66781.87153123278, -20763.675363501952, -52637.061791069726, 187500.0, -54783.8797907686, -17050.357705397335, 0.622, -0.5660000000000001, 0.5660000000000001, 192.0, 0.0, 0.0, 0.0, 0.0, 0.0, 0.0, 0.0, 0.0, 0.0, 1.6635929714245884E9, 0.0, 2022-09-19 18:09:31.424
131.0, -35543.9899020183, -21409.305502093495, -66672.37033514623, -20716.356720490065, -52730.71560033746, 187500.0, -54761.14806665755, -17038.93596398067, 0.622, -0.5660000000000001, 0.5660000000000001, 192.0, 0.0, 0.0, 0.0, 0.0, 0.0, 0.0, 0.0, 0.0, 0.0, 1.6635929714284506E9, 0.0, 2022-09-19 18:09:31.428
132.0, -35665.13635696606, -21390.75355419559, -66658.7357710285, -20689.80284807716, -52775.3073305258, 187500.0, -54673.81980107067, -17027.313056863914, 0.622, -0.5660000000000001, 0.5660000000000001, 192.0, 0.0, 0.0, 0.0, 0.0, 0.0, 0.0, 0.0, 0.0, 0.0, 1.6635929714324503E9, 0.0, 2022-09-19 18:09:31.432
133.0, -35574.768254133254, -21357.918841590745, -66711.91057108768, -20703.638577894995, -52749.35695521319, 187500.0, -54647.511797846775, -17024.832013229374, 0.622, -0.5660000000000001, 0.5660000000000001, 192.0, 0.0, 0.0, 0.0, 0.0, 0.0, 0.0, 0.0, 0.0, 0.0, 1.6635929714354873E9, 0.0, 2022-09-19 18:09:31.435
134.0, -35269.756349296134, -21332.32609418942, -66814.12509848179, -20760.277898344746, -52652.305680788246, 187500.0, -54676.74787959432, -17045.194452428157, 0.622, -0.5660000000000001, 0.5660000000000001, 192.0, 0.0, 0.0, 0.0, 0.0, 0.0, 0.0, 0.0, 0.0, 0.0, 1.6635929714404593E9, 0.0, 2022-09-19 18:09:31.440
135.0, -35236.58636052446, -21368.46886497365, -66788.64410980274, -20778.271052631266, -52630.15510203304, 187500.0, -54793.692206584485, -17055.118626966312, 0.622, -0.56, 0.5680000000000001, 192.0, 19.0, 112.0, 238.0, 128.0, 17.0, 192.0, 0.0, 0.0, 0.0, 1.6635929714445238E9, 0.0, 2022-09-19 18:09:31.444
136.0, -35546.046262508185, -21408.053804403997, -66680.8416462948, -20732.114700331058, -52720.746722310396, 187500.0, -54777.666005810024, -17047.116702451312, 0.622, -0.56, 0.5680000000000001, 192.0, 0.0, 0.0, 0.0, 0.0, 0.0, 0.0, 0.0, 0.0, 0.0, 1.6635929714484873E9, 0.0, 2022-09-19 18:09:31.448
137.0, -35670.00903725732, -21393.771039697058, -66670.04575372288, -20708.175982019424, -52764.48908620943, 187500.0, -54692.57291466867, -17040.76880702601, 0.622, -0.56, 0.5680000000000001, 192.0, 0.0, 0.0, 0.0, 0.0, 0.0, 0.0, 0.0, 0.0, 0.0, 1.6635929714525049E9, 0.0, 2022-09-19 18:09:31.452
