%OpenBCI Raw EEG Data
%Number of channels = 8
%Sample Rate = 250 Hz
%Board = OpenBCI_GUI$BoardCytonSerial
Sample Index, EXG Channel 0, EXG Channel 1, EXG Channel 2, EXG Channel 3, EXG Channel 4, EXG Channel 5, EXG Channel 6, EXG Channel 7, Accel Channel 0, Accel Channel 1, Accel Channel 2, Other, Other, Other, Other, Other, Other, Other, Analog Channel 0, Analog Channel 1, Analog Channel 2, Timestamp, Other, Timestamp (Formatted)
5.0, 4041.5977289197126, 4429.981640575128, -75832.47284084235, -45746.3989551543, -63866.13117052689, -187500.02235174447, -50458.526665988764, -37856.03199673081, 0.0, 0.0, 0.0, 192.0, 0.0, 0.0, 0.0, 0.0, 0.0, 0.0, 0.0, 0.0, 0.0, 1.6635922811551962E9, 0.0, 2022-09-19 17:58:01.155
6.0, 4047.4985894559136, 4418.716361369653, -75809.85287545358, -45732.0938387029, -63848.5179958961, -187500.02235174447, -50486.62280876909, -37842.59859831317, 0.0, 0.0, 0.0, 192.0, 0.0, 0.0, 0.0, 0.0, 0.0, 0.0, 0.0, 0.0, 0.0, 1.6635922811552432E9, 0.0, 2022-09-19 17:58:01.155
7.0, 3877.2900554287503, 4325.978973624584, -75670.51210051919, -45579.83375547335, -63711.05476749597, -187500.02235174447, -50380.63083656202, -37701.53673905572, 0.0, 0.0, 0.0, 192.0, 0.0, 0.0, 0.0, 0.0, 0.0, 0.0, 0.0, 0.0, 0.0, 1.6635922811552715E9, 0.0, 2022-09-19 17:58:01.155
8.0, 3823.4894065248263, 4308.432854227168, -75655.3576177785, -45538.57243520885, -63693.55335158746, -187500.02235174447, -50329.75826618174, -37679.25204983378, 0.514, -0.854, 0.158, 192.0, 16.0, 16.0, 229.0, 80.0, 4.0, 240.0, 0.0, 0.0, 0.0, 1.6635922811552992E9, 0.0, 2022-09-19 17:58:01.155
0.0, 0.0, 0.0, 0.0, 0.0, 0.0, 0.0, 0.0, 0.0, 0.514, -0.854, 0.158, 192.0, 0.0, 0.0, 0.0, 0.0, 0.0, 0.0, 0.0, 0.0, 0.0, 1.6635922812190056E9, 0.0, 2022-09-19 17:58:01.219
1.0, 4856.8105526936715, -2955.146486180602, -75468.47468238768, -39777.27619138672, -64727.880326256796, -187500.02235174447, -49462.66704352701, -36610.74925789228, 0.512, -0.858, 0.15, 192.0, 16.0, 0.0, 229.0, 48.0, 4.0, 176.0, 0.0, 0.0, 0.0, 1.6635922812360232E9, 0.0, 2022-09-19 17:58:01.236
2.0, 4861.303253329188, -3032.148245829135, -75431.61665578088, -39774.526926818726, -64691.29052058346, -187500.02235174447, -49496.574639865714, -36591.8396820831, 0.512, -0.858, 0.15, 192.0, 0.0, 0.0, 0.0, 0.0, 0.0, 0.0, 0.0, 0.0, 0.0, 1.6635922812389898E9, 0.0, 2022-09-19 17:58:01.238
3.0, 4656.047183996104, -3107.4289211546093, -75266.16904332269, -39627.94418668082, -64529.7321116605, -187500.02235174447, -49380.70319660941, -36437.16561045237, 0.512, -0.858, 0.15, 192.0, 0.0, 0.0, 0.0, 0.0, 0.0, 0.0, 0.0, 0.0, 0.0, 1.663592281243055E9, 0.0, 2022-09-19 17:58:01.243
4.0, 4610.181404373813, -3073.4766213269977, -75257.60832519631, -39586.30288676058, -64511.40368120715, -187500.02235174447, -49350.885969506024, -36414.053906685585, 0.512, -0.858, 0.15, 192.0, 0.0, 0.0, 0.0, 0.0, 0.0, 0.0, 0.0, 0.0, 0.0, 1.6635922812469988E9, 0.0, 2022-09-19 17:58:01.246
5.0, 4705.26572528669, -3016.2338037769564, -75339.63922734729, -39637.421326329866, -64590.841781001305, -187500.02235174447, -49401.73618814185, -36483.679590663865, 0.512, -0.858, 0.15, 192.0, 0.0, 0.0, 0.0, 0.0, 0.0, 0.0, 0.0, 0.0, 0.0, 1.6635922812500184E9, 0.0, 2022-09-19 17:58:01.250
6.0, 4905.872631773071, -2969.5857130987306, -75464.54077536354, -39755.639702753986, -64732.59654433686, -187500.02235174447, -49471.898313987054, -36623.19917955389, 0.512, -0.858, 0.15, 192.0, 0.0, 0.0, 0.0, 0.0, 0.0, 0.0, 0.0, 0.0, 0.0, 1.6635922812539628E9, 0.0, 2022-09-19 17:58:01.253
7.0, 4879.788145993727, -3040.0607633663135, -75413.6011497499, -39728.795257663165, -64687.4683722816, -187500.02235174447, -49482.76126179234, -36585.178862235414, 0.512, -0.858, 0.15, 192.0, 0.0, 0.0, 0.0, 0.0, 0.0, 0.0, 0.0, 0.0, 0.0, 1.6635922812580502E9, 0.0, 2022-09-19 17:58:01.258
8.0, 4660.919864287361, -3116.079046258813, -75247.97472333607, -39572.042473798094, -64521.48431795649, -187500.02235174447, -49348.78490552722, -36426.347366136004, 0.516, -0.858, 0.152, 192.0, 16.0, 32.0, 229.0, 48.0, 4.0, 192.0, 0.0, 0.0, 0.0, 1.6635922812620325E9, 0.0, 2022-09-19 17:58:01.262
9.0, 4605.487538038199, -3098.7117408170393, -75233.04375803993, -39541.19706644977, -64504.11701251472, -187500.02235174447, -49290.223335054325, -36412.75750550717, 0.516, -0.858, 0.152, 192.0, 0.0, 0.0, 0.0, 0.0, 0.0, 0.0, 0.0, 0.0, 0.0, 1.6635922812660234E9, 0.0, 2022-09-19 17:58:01.266
10.0, 4696.414434482388, -3053.6729757395956, -75311.34191886686, -39598.46223574427, -64582.392821597205, -187500.02235174447, -49326.43316107192, -36483.321962752576, 0.516, -0.858, 0.152, 192.0, 0.0, 0.0, 0.0, 0.0, 0.0, 0.0, 0.0, 0.0, 0.0, 1.6635922812700503E9, 0.0, 2022-09-19 17:58:01.270
11.0, 4910.655905086506, -2983.957884783493, -75454.92952524776, -39713.43960922237, -64721.46537559812, -187500.02235174447, -49443.19867410645, -36610.72690614783, 0.516, -0.858, 0.152, 192.0, 0.0, 0.0, 0.0, 0.0, 0.0, 0.0, 0.0, 0.0, 0.0, 1.6635922812751288E9, 0.0, 2022-09-19 17:58:01.275
12.0, 4872.814401723672, -3057.5174757859086, -75419.99374866411, -39681.364855929, -64670.30223253992, -187500.02235174447, -49516.64650638658, -36582.183728478405, 0.516, -0.858, 0.152, 192.0, 0.0, 0.0, 0.0, 0.0, 0.0, 0.0, 0.0, 0.0, 0.0, 1.6635922812780373E9, 0.0, 2022-09-19 17:58:01.278
13.0, 4658.68468984183, -3116.2802119589105, -75271.57816548088, -39529.03771746608, -64513.527096930404, -187500.02235174447, -49425.38433377556, -36439.64665408691, 0.516, -0.858, 0.152, 192.0, 0.0, 0.0, 0.0, 0.0, 0.0, 0.0, 0.0, 0.0, 0.0, 1.6635922812821271E9, 0.0, 2022-09-19 17:58:01.282
14.0, 4624.263003380657, -3069.185086391579, -75250.58987743735, -39500.65100200784, -64507.13449801618, -187500.02235174447, -49342.90639673548, -36426.50382834719, 0.516, -0.858, 0.152, 192.0, 0.0, 0.0, 0.0, 0.0, 0.0, 0.0, 0.0, 0.0, 0.0, 1.6635922812861092E9, 0.0, 2022-09-19 17:58:01.286
15.0, 4723.460045273309, -3012.8363386197498, -75322.51779109452, -39563.41470043835, -64589.1430484227, -187500.02235174447, -49348.0472979602, -36504.22084381829, 0.516, -0.858, 0.152, 192.0, 0.0, 0.0, 0.0, 0.0, 0.0, 0.0, 0.0, 0.0, 0.0, 1.663592281290116E9, 0.0, 2022-09-19 17:58:01.290
16.0, 4929.3643151955985, -2979.286370192334, -75458.14817644932, -39685.321114697595, -64727.790919278974, -187500.02235174447, -49443.08691538416, -36621.63455744202, 0.516, -0.858, 0.152, 192.0, 0.0, 0.0, 0.0, 0.0, 0.0, 0.0, 0.0, 0.0, 0.0, 1.6635922812941628E9, 0.0, 2022-09-19 17:58:01.294
17.0, 4889.488803087331, -3068.201609635545, -75391.22705355013, -39645.7585270117, -64660.44511323513, -187500.02235174447, -49466.77976450679, -36561.66482706843, 0.516, -0.858, 0.152, 192.0, 0.0, 0.0, 0.0, 0.0, 0.0, 0.0, 0.0, 0.0, 0.0, 1.663592281298115E9, 0.0, 2022-09-19 17:58:01.298
18.0, 4671.514591159176, -3138.0508110583796, -75243.03498781145, -39498.035847906576, -64502.08300376929, -187500.02235174447, -49366.711004580386, -36416.73611602022, 0.514, -0.858, 0.154, 192.0, 16.0, 16.0, 229.0, 48.0, 4.0, 208.0, 0.0, 0.0, 0.0, 1.6635922813031077E9, 0.0, 2022-09-19 17:58:01.303
19.0, 4647.195893191802, -3081.5456010753637, -75242.2079732666, -39471.101995837926, -64496.69623335556, -187500.02235174447, -49333.67512627544, -36414.92562471934, 0.514, -0.858, 0.154, 192.0, 0.0, 0.0, 0.0, 0.0, 0.0, 0.0, 0.0, 0.0, 0.0, 1.6635922813061032E9, 0.0, 2022-09-19 17:58:01.306
20.0, 4755.333632866577, -3016.6361351771516, -75329.13390745329, -39530.84820876696, -64581.051716929884, -187500.02235174447, -49373.684748850435, -36507.28303280867, 0.514, -0.858, 0.154, 192.0, 0.0, 0.0, 0.0, 0.0, 0.0, 0.0, 0.0, 0.0, 0.0, 1.6635922813101945E9, 0.0, 2022-09-19 17:58:01.310
21.0, 4951.045507317246, -2989.1881929860347, -75470.10635973292, -39676.24630644874, -64719.78899476398, -187500.02235174447, -49484.616456582124, -36649.12720312204, 0.514, -0.858, 0.154, 192.0, 0.0, 0.0, 0.0, 0.0, 0.0, 0.0, 0.0, 0.0, 0.0, 1.6635922813141649E9, 0.0, 2022-09-19 17:58:01.314
22.0, 4886.963055963881, -3067.7992782353494, -75409.1978560922, -39652.37464337047, -64647.36934272878, -187500.02235174447, -49531.17514028253, -36588.17399599242, 0.514, -0.858, 0.154, 192.0, 0.0, 0.0, 0.0, 0.0, 0.0, 0.0, 0.0, 0.0, 0.0, 1.6635922813181548E9, 0.0, 2022-09-19 17:58:01.318
23.0, 4686.758480877696, -3113.463892157542, -75262.79392990994, -39499.30989734053, -64489.16369547412, -187500.02235174447, -49425.60785122012, -36435.26571217367, 0.514, -0.858, 0.154, 192.0, 0.0, 0.0, 0.0, 0.0, 0.0, 0.0, 0.0, 0.0, 0.0, 1.663592281322167E9, 0.0, 2022-09-19 17:58:01.322
24.0, 4663.423259666355, -3080.338606874777, -75256.87071762928, -39458.47326022068, -64497.21032347803, -187500.02235174447, -49357.43503063143, -36422.994604467705, 0.514, -0.858, 0.154, 192.0, 0.0, 0.0, 0.0, 0.0, 0.0, 0.0, 0.0, 0.0, 0.0, 1.6635922813262668E9, 0.0, 2022-09-19 17:58:01.326
25.0, 4765.458973104832, -3040.6419087221516, -75329.26801792003, -39505.47897881019, -64586.68435653262, -187500.02235174447, -49361.57010335566, -36506.63483221946, 0.514, -0.858, 0.154, 192.0, 0.0, 0.0, 0.0, 0.0, 0.0, 0.0, 0.0, 0.0, 0.0, 1.66359228133113E9, 0.0, 2022-09-19 17:58:01.331
26.0, 4958.5333417097745, -3016.725542154973, -75447.5087460886, -39621.57393951106, -64715.45275633965, -187500.02235174447, -49435.0179356358, -36633.25746455878, 0.514, -0.858, 0.154, 192.0, 0.0, 0.0, 0.0, 0.0, 0.0, 0.0, 0.0, 0.0, 0.0, 1.6635922813341572E9, 0.0, 2022-09-19 17:58:01.334
27.0, 4881.911561716982, -3104.8584705422486, -75364.44966369268, -39573.02595055413, -64629.42089193117, -187500.02235174447, -49449.36775557611, -36567.74450156027, 0.514, -0.858, 0.154, 192.0, 0.0, 0.0, 0.0, 0.0, 0.0, 0.0, 0.0, 0.0, 0.0, 1.66359228133715E9, 0.0, 2022-09-19 17:58:01.337
28.0, 4670.419355680866, -3159.016747357458, -75220.37031893377, -39437.44026868824, -64484.55923611632, -187500.02235174447, -49337.16199841047, -36431.64472957191, 0.51, -0.856, 0.158, 192.0, 15.0, 240.0, 229.0, 64.0, 4.0, 240.0, 0.0, 0.0, 0.0, 1.6635922813422267E9, 0.0, 2022-09-19 17:58:01.342
29.0, 4652.381497905433, -3109.7311508335056, -75224.43833642463, -39424.18568422624, -64491.73414608648, -187500.02235174447, -49299.588715981095, -36434.1481249509, 0.51, -0.856, 0.158, 192.0, 0.0, 0.0, 0.0, 0.0, 0.0, 0.0, 0.0, 0.0, 0.0, 1.6635922813462207E9, 0.0, 2022-09-19 17:58:01.346
30.0, 4769.415231873421, -3044.397001790643, -75316.4828200916, -39483.10488261043, -64579.01770818445, -187500.02235174447, -49353.85875151858, -36505.40548627442, 0.51, -0.856, 0.158, 192.0, 0.0, 0.0, 0.0, 0.0, 0.0, 0.0, 0.0, 0.0, 0.0, 1.6635922813502233E9, 0.0, 2022-09-19 17:58:01.350
31.0, 4963.003690600835, -3015.205623532012, -75459.60103983892, -39614.756657452184, -64724.371102377314, -187500.02235174447, -49479.14027919058, -36628.63065345653, 0.51, -0.856, 0.158, 192.0, 0.0, 0.0, 0.0, 0.0, 0.0, 0.0, 0.0, 0.0, 0.0, 1.6635922813541753E9, 0.0, 2022-09-19 17:58:01.354
32.0, 4882.358596606087, -3111.3404764342877, -75374.70911439766, -39571.19310750879, -64651.03502881945, -187500.02235174447, -49479.29674140176, -36559.452004367355, 0.51, -0.856, 0.158, 192.0, 0.0, 0.0, 0.0, 0.0, 0.0, 0.0, 0.0, 0.0, 0.0, 1.6635922813592827E9, 0.0, 2022-09-19 17:58:01.359
33.0, 4671.603998136998, -3162.4589160035753, -75232.86494408429, -39438.62491114437, -64507.13449801618, -187500.02235174447, -49355.378670141545, -36419.06069744357, 0.51, -0.856, 0.158, 192.0, 0.0, 0.0, 0.0, 0.0, 0.0, 0.0, 0.0, 0.0, 0.0, 1.6635922813622472E9, 0.0, 2022-09-19 17:58:01.362
34.0, 4653.499085128198, -3110.535813633897, -75250.58987743735, -39450.694853150235, -64515.60580916474, -187500.02235174447, -49345.20862641438, -36436.271540674155, 0.51, -0.856, 0.158, 192.0, 0.0, 0.0, 0.0, 0.0, 0.0, 0.0, 0.0, 0.0, 0.0, 1.6635922813662252E9, 0.0, 2022-09-19 17:58:01.366
35.0, 4797.712540353839, -3042.206530834023, -75357.11829151133, -39545.622711851924, -64609.9525225106, -187500.02235174447, -49425.719609942396, -36548.700815284355, 0.51, -0.856, 0.158, 192.0, 0.0, 0.0, 0.0, 0.0, 0.0, 0.0, 0.0, 0.0, 0.0, 1.663592281370176E9, 0.0, 2022-09-19 17:58:01.370
36.0, 4986.025987389802, -3023.0063823469145, -75483.09272326145, -39659.28133240716, -64732.127157703304, -187500.02235174447, -49519.19460525449, -36674.809357501195, 0.51, -0.856, 0.158, 192.0, 0.0, 0.0, 0.0, 0.0, 0.0, 0.0, 0.0, 0.0, 0.0, 1.6635922813742113E9, 0.0, 2022-09-19 17:58:01.374
37.0, 4875.295445358211, -3127.3890289531982, -75374.73146614213, -39556.70917710176, -64610.71248182208, -187500.02235174447, -49491.836070041194, -36557.216829921825, 0.51, -0.856, 0.158, 192.0, 0.0, 0.0, 0.0, 0.0, 0.0, 0.0, 0.0, 0.0, 0.0, 1.663592281378256E9, 0.0, 2022-09-19 17:58:01.378
38.0, 4665.4572684117875, -3179.5132970229743, -75228.32753995986, -39389.808701253976, -64459.65939279311, -187500.02235174447, -49359.17846669894, -36424.71568879076, 0.506, -0.856, 0.156, 192.0, 15.0, 208.0, 229.0, 64.0, 4.0, 224.0, 0.0, 0.0, 0.0, 1.6635922813822465E9, 0.0, 2022-09-19 17:58:01.382
39.0, 4651.152151960391, -3137.0673343023464, -75240.24101975454, -39371.10029114489, -64464.37561087318, -187500.02235174447, -49334.882120476024, -36426.97321498075, 0.506, -0.856, 0.156, 192.0, 0.0, 0.0, 0.0, 0.0, 0.0, 0.0, 0.0, 0.0, 0.0, 1.6635922813872664E9, 0.0, 2022-09-19 17:58:01.387
40.0, 4784.860287292038, -3086.9994267224583, -75337.31464592394, -39446.068042047984, -64561.78451320941, -187500.02235174447, -49372.03071976075, -36520.448210292845, 0.506, -0.856, 0.156, 192.0, 0.0, 0.0, 0.0, 0.0, 0.0, 0.0, 0.0, 0.0, 0.0, 1.6635922813902671E9, 0.0, 2022-09-19 17:58:01.390
41.0, 4979.02989137529, -3062.658377010629, -75459.22106018318, -39565.80633709506, -64678.66178496621, -187500.02235174447, -49472.390052365074, -36649.23896184433, 0.506, -0.856, 0.156, 192.0, 0.0, 0.0, 0.0, 0.0, 0.0, 0.0, 0.0, 0.0, 0.0, 1.6635922813932595E9, 0.0, 2022-09-19 17:58:01.393
42.0, 4873.127326146046, -3145.046907072891, -75361.07455027993, -39496.560632772525, -64564.53377777741, -187500.02235174447, -49495.50175613186, -36550.13132692949, 0.506, -0.856, 0.156, 192.0, 0.0, 0.0, 0.0, 0.0, 0.0, 0.0, 0.0, 0.0, 0.0, 1.6635922813982773E9, 0.0, 2022-09-19 17:58:01.398
43.0, 4687.004350066704, -3176.942846410614, -75231.97087430608, -39364.841802697396, -64438.22406986047, -187500.02235174447, -49389.57683915816, -36420.759430022175, 0.506, -0.856, 0.156, 192.0, 0.0, 0.0, 0.0, 0.0, 0.0, 0.0, 0.0, 0.0, 0.0, 1.6635922814023254E9, 0.0, 2022-09-19 17:58:01.402
44.0, 4665.904303300894, -3129.1995202540784, -75238.4528801981, -39361.01965439554, -64462.632174805665, -187500.02235174447, -49326.54491979419, -36431.77884003864, 0.506, -0.856, 0.156, 192.0, 0.0, 0.0, 0.0, 0.0, 0.0, 0.0, 0.0, 0.0, 0.0, 1.6635922814063952E9, 0.0, 2022-09-19 17:58:01.406
45.0, 4789.040063505181, -3075.622388794707, -75336.3311691679, -39448.63849266034, -64558.23058584102, -187500.02235174447, -49362.39711790051, -36541.57060880311, 0.506, -0.856, 0.156, 192.0, 0.0, 0.0, 0.0, 0.0, 0.0, 0.0, 0.0, 0.0, 0.0, 1.6635922814103148E9, 0.0, 2022-09-19 17:58:01.410
46.0, 4975.565370984718, -3044.7993331908388, -75458.93048750526, -39565.11343301695, -64686.37313680329, -187500.02235174447, -49477.35213963415, -36667.12035740857, 0.506, -0.856, 0.156, 192.0, 0.0, 0.0, 0.0, 0.0, 0.0, 0.0, 0.0, 0.0, 0.0, 1.6635922814152768E9, 0.0, 2022-09-19 17:58:01.415
47.0, 4848.272186311744, -3138.229625014022, -75340.82386980343, -39471.90665863832, -64570.568748780344, -187500.02235174447, -49453.7710492338, -36553.05940545314, 0.506, -0.856, 0.156, 192.0, 0.0, 0.0, 0.0, 0.0, 0.0, 0.0, 0.0, 0.0, 0.0, 1.6635922814183776E9, 0.0, 2022-09-19 17:58:01.418
48.0, 4657.835323552528, -3188.342236082821, -75206.55694086039, -39333.90698837125, -64437.821738460276, -187500.02235174447, -49323.773303481736, -36411.75167700669, 0.506, -0.858, 0.156, 192.0, 15.0, 208.0, 229.0, 48.0, 4.0, 224.0, 0.0, 0.0, 0.0, 1.6635922814213135E9, 0.0, 2022-09-19 17:58:01.421
49.0, 4647.955852503283, -3149.852532130782, -75226.69586261462, -39350.089651356895, -64454.69730552403, -187500.02235174447, -49301.01922762623, -36430.86241851597, 0.506, -0.858, 0.156, 192.0, 0.0, 0.0, 0.0, 0.0, 0.0, 0.0, 0.0, 0.0, 0.0, 1.6635922814263656E9, 0.0, 2022-09-19 17:58:01.426
50.0, 4778.177115699901, -3095.493089615475, -75334.34186391138, -39454.7628706411, -64555.10134161727, -187500.02235174447, -49360.564274855176, -36522.75043997174, 0.506, -0.858, 0.156, 192.0, 0.0, 0.0, 0.0, 0.0, 0.0, 0.0, 0.0, 0.0, 0.0, 1.6635922814302907E9, 0.0, 2022-09-19 17:58:01.430
51.0, 4967.943426125458, -3080.1150894302236, -75457.52232760457, -39581.16198553586, -64677.253625065525, -187500.02235174447, -49482.87302051461, -36637.97368263885, 0.506, -0.858, 0.156, 192.0, 0.0, 0.0, 0.0, 0.0, 0.0, 0.0, 0.0, 0.0, 0.0, 1.6635922814332972E9, 0.0, 2022-09-19 17:58:01.433
52.0, 4841.074924597136, -3166.258712560977, -75341.15914597025, -39502.215624119715, -64561.762161464954, -187500.02235174447, -49475.72046228892, -36536.49676281175, 0.506, -0.858, 0.156, 192.0, 0.0, 0.0, 0.0, 0.0, 0.0, 0.0, 0.0, 0.0, 0.0, 1.663592281437334E9, 0.0, 2022-09-19 17:58:01.437
53.0, 4662.886817799427, -3184.6765499921503, -75219.81152532238, -39383.19258489521, -64439.632229761155, -187500.02235174447, -49353.81404802967, -36418.63601429892, 0.506, -0.858, 0.156, 192.0, 0.0, 0.0, 0.0, 0.0, 0.0, 0.0, 0.0, 0.0, 0.0, 1.6635922814423487E9, 0.0, 2022-09-19 17:58:01.442
54.0, 4673.034509782137, -3122.784569595405, -75234.47426968507, -39390.7474745211, -64455.05493343532, -187500.02235174447, -49311.546899264686, -36438.73023256424, 0.506, -0.858, 0.156, 192.0, 0.0, 0.0, 0.0, 0.0, 0.0, 0.0, 0.0, 0.0, 0.0, 1.6635922814463563E9, 0.0, 2022-09-19 17:58:01.446
55.0, 4799.612438632541, -3061.8090107213275, -75338.05225349095, -39485.943554156256, -64558.5882137523, -187500.02235174447, -49357.14445795351, -36549.50547808474, 0.506, -0.858, 0.156, 192.0, 0.0, 0.0, 0.0, 0.0, 0.0, 0.0, 0.0, 0.0, 0.0, 1.6635922814502964E9, 0.0, 2022-09-19 17:58:01.450
56.0, 4971.050318604746, -3062.5019147994417, -75444.69242628723, -39597.59051771051, -64659.32752601237, -187500.02235174447, -49463.71757551641, -36657.7996799707, 0.506, -0.858, 0.156, 192.0, 0.0, 0.0, 0.0, 0.0, 0.0, 0.0, 0.0, 0.0, 0.0, 1.6635922814544349E9, 0.0, 2022-09-19 17:58:01.454
57.0, 4840.069096096647, -3169.142087595712, -75320.4837823491, -39507.13300789989, -64524.635913924685, -187500.02235174447, -49451.31235734372, -36537.502591312244, 0.506, -0.858, 0.156, 192.0, 0.0, 0.0, 0.0, 0.0, 0.0, 0.0, 0.0, 0.0, 0.0, 1.663592281458388E9, 0.0, 2022-09-19 17:58:01.458
58.0, 4664.272625955657, -3189.1916023721224, -75215.67645259816, -39400.51518684807, -64418.06279636178, -187500.02235174447, -49357.591492842614, -36429.02957547064, 0.512, -0.86, 0.158, 192.0, 16.0, 0.0, 229.0, 32.0, 4.0, 240.0, 0.0, 0.0, 0.0, 1.663592281461409E9, 0.0, 2022-09-19 17:58:01.461
59.0, 4688.993655323226, -3113.977982280014, -75246.74537739102, -39405.65608807279, -64449.84697697723, -187500.02235174447, -49349.61192007207, -36449.21320071378, 0.512, -0.86, 0.158, 192.0, 0.0, 0.0, 0.0, 0.0, 0.0, 0.0, 0.0, 0.0, 0.0, 1.6635922814653876E9, 0.0, 2022-09-19 17:58:01.465
60.0, 4832.603613448574, -3052.3765745611877, -75356.3359804554, -39483.261344821614, -64566.72424873403, -187500.02235174447, -49394.3601124716, -36550.82423100761, 0.512, -0.86, 0.158, 192.0, 0.0, 0.0, 0.0, 0.0, 0.0, 0.0, 0.0, 0.0, 0.0, 1.6635922814704952E9, 0.0, 2022-09-19 17:58:01.470
61.0, 4985.668359478517, -3061.98782467697, -75456.74001654865, -39581.564316936056, -64675.309023297916, -187500.02235174447, -49490.450261884966, -36643.628673986044, 0.512, -0.86, 0.158, 192.0, 0.0, 0.0, 0.0, 0.0, 0.0, 0.0, 0.0, 0.0, 0.0, 1.6635922814743645E9, 0.0, 2022-09-19 17:58:01.474
62.0, 4823.90878485546, -3168.9185701511587, -75316.9745584696, -39473.9183156393, -64539.34336177628, -187500.02235174447, -49460.87890397059, -36512.826265433585, 0.512, -0.86, 0.158, 192.0, 0.0, 0.0, 0.0, 0.0, 0.0, 0.0, 0.0, 0.0, 0.0, 1.6635922814783633E9, 0.0, 2022-09-19 17:58:01.478
63.0, 4656.896550285405, -3190.5327070394405, -75208.23332169454, -39354.850572925876, -64428.97044765597, -187500.02235174447, -49350.885969506024, -36405.44848507029, 0.512, -0.86, 0.158, 192.0, 0.0, 0.0, 0.0, 0.0, 0.0, 0.0, 0.0, 0.0, 0.0, 1.6635922814824367E9, 0.0, 2022-09-19 17:58:01.482
64.0, 4668.631216124441, -3143.1246570497347, -75231.30032197242, -39362.71838697414, -64452.640945034145, -187500.02235174447, -49312.239803342796, -36433.38816563942, 0.512, -0.86, 0.158, 192.0, 0.0, 0.0, 0.0, 0.0, 0.0, 0.0, 0.0, 0.0, 0.0, 1.663592281486428E9, 0.0, 2022-09-19 17:58:01.486
65.0, 4813.671685894929, -3081.187973164079, -75353.22908797611, -39462.87655387838, -64570.65815575817, -187500.02235174447, -49372.12012673857, -36547.58322806159, 0.512, -0.86, 0.158, 192.0, 0.0, 0.0, 0.0, 0.0, 0.0, 0.0, 0.0, 0.0, 0.0, 1.6635922814894233E9, 0.0, 2022-09-19 17:58:01.489
66.0, 4971.787926171771, -3075.711795772528, -75450.2580106566, -39559.50314515867, -64674.12438084178, -187500.02235174447, -49479.16263093503, -36642.86871467456, 0.512, -0.86, 0.158, 192.0, 0.0, 0.0, 0.0, 0.0, 0.0, 0.0, 0.0, 0.0, 0.0, 1.6635922814934342E9, 0.0, 2022-09-19 17:58:01.493
67.0, 4802.719331111829, -3178.596875500307, -75306.98332869809, -39450.18076302776, -64539.16454782064, -187500.02235174447, -49445.79147646326, -36515.50847476822, 0.512, -0.86, 0.158, 192.0, 0.0, 0.0, 0.0, 0.0, 0.0, 0.0, 0.0, 0.0, 0.0, 1.6635922814994495E9, 0.0, 2022-09-19 17:58:01.499
68.0, 4646.413582135866, -3191.292666350921, -75210.98258626254, -39352.2354188246, -64438.49229079393, -187500.02235174447, -49353.67993756294, -36417.54077882061, 0.514, -0.858, 0.158, 192.0, 16.0, 16.0, 229.0, 48.0, 4.0, 240.0, 0.0, 0.0, 0.0, 1.663592281502483E9, 0.0, 2022-09-19 17:58:01.502
69.0, 4676.186105750336, -3132.909909833659, -75242.23032501106, -39368.70865448817, -64481.027660492386, -187500.02235174447, -49331.752876252285, -36451.89541004842, 0.514, -0.858, 0.158, 192.0, 0.0, 0.0, 0.0, 0.0, 0.0, 0.0, 0.0, 0.0, 0.0, 1.6635922815065143E9, 0.0, 2022-09-19 17:58:01.506
70.0, 4830.122569814035, -3067.821629979805, -75352.1338524978, -39458.47326022068, -64603.89519976321, -187500.02235174447, -49372.12012673857, -36561.553068346155, 0.514, -0.858, 0.158, 192.0, 0.0, 0.0, 0.0, 0.0, 0.0, 0.0, 0.0, 0.0, 0.0, 1.663592281510488E9, 0.0, 2022-09-19 17:58:01.510
71.0, 4973.151382583545, -3077.4105283511317, -75441.92080997478, -39542.96285426174, -64696.58788401937, -187500.02235174447, -49477.75447103435, -36648.97074091086, 0.514, -0.858, 0.158, 192.0, 0.0, 0.0, 0.0, 0.0, 0.0, 0.0, 0.0, 0.0, 0.0, 1.6635922815134895E9, 0.0, 2022-09-19 17:58:01.513
72.0, 4797.913706053938, -3188.655160505195, -75290.46538954561, -39420.05061150201, -64547.45704501356, -187500.02235174447, -49426.77014193179, -36503.77380892918, 0.514, -0.858, 0.158, 192.0, 0.0, 0.0, 0.0, 0.0, 0.0, 0.0, 0.0, 0.0, 0.0, 1.6635922815174696E9, 0.0, 2022-09-19 17:58:01.517
73.0, 4639.283375654623, -3202.021503689469, -75192.25182440899, -39317.791380618975, -64445.86836646419, -187500.02235174447, -49316.39722781149, -36411.05877292857, 0.514, -0.858, 0.158, 192.0, 0.0, 0.0, 0.0, 0.0, 0.0, 0.0, 0.0, 0.0, 0.0, 1.663592281521485E9, 0.0, 2022-09-19 17:58:01.521
74.0, 4660.4057741648885, -3146.8573983737706, -75229.80275509392, -39338.66790994023, -64475.43972437856, -187500.02235174447, -49317.201890611876, -36442.06064248808, 0.514, -0.858, 0.158, 192.0, 0.0, 0.0, 0.0, 0.0, 0.0, 0.0, 0.0, 0.0, 0.0, 1.6635922815265076E9, 0.0, 2022-09-19 17:58:01.526
75.0, 4821.248927265278, -3086.03830171088, -75365.43314044872, -39442.98350131315, -64600.18481018363, -187500.02235174447, -49411.88388012456, -36560.70370205685, 0.514, -0.858, 0.158, 192.0, 0.0, 0.0, 0.0, 0.0, 0.0, 0.0, 0.0, 0.0, 0.0, 1.6635922815305004E9, 0.0, 2022-09-19 17:58:01.530
76.0, 4975.587722729173, -3096.4095111381425, -75474.42024641279, -39546.472078141225, -64689.904712427226, -187500.02235174447, -49577.823230960756, -36640.7005954624, 0.514, -0.858, 0.158, 192.0, 0.0, 0.0, 0.0, 0.0, 0.0, 0.0, 0.0, 0.0, 0.0, 1.6635922815345347E9, 0.0, 2022-09-19 17:58:01.534
77.0, 4799.545383399175, -3192.4326053181417, -75313.51003807904, -39438.78137335555, -64544.73013219001, -187500.02235174447, -49499.97210502292, -36509.29468980965, 0.514, -0.858, 0.158, 192.0, 0.0, 0.0, 0.0, 0.0, 0.0, 0.0, 0.0, 0.0, 0.0, 1.66359228153851E9, 0.0, 2022-09-19 17:58:01.538
78.0, 4621.200814390279, -3198.467576321075, -75188.60849006278, -39336.186866305696, -64442.40384607361, -187500.02235174447, -49316.97837316732, -36417.741944520705, 0.514, -0.858, 0.158, 192.0, 0.0, 0.0, 0.0, 0.0, 0.0, 0.0, 0.0, 0.0, 0.0, 1.6635922815415325E9, 0.0, 2022-09-19 17:58:01.541
79.0, 4634.701268041285, -3144.018726827947, -75216.0564322539, -39353.75533744757, -64474.99268948945, -187500.02235174447, -49285.06008208515, -36447.91679953537, 0.516, -0.854, 0.162, 192.0, 16.0, 32.0, 229.0, 80.0, 5.0, 16.0, 0.0, 0.0, 0.0, 1.663592281545604E9, 0.0, 2022-09-19 17:58:01.545
80.0, 4791.56581062863, -3089.949856990559, -75338.85691629135, -39461.02135908858, -64602.5987985848, -187500.02235174447, -49349.790734027716, -36559.34024564508, 0.516, -0.854, 0.162, 192.0, 0.0, 0.0, 0.0, 0.0, 0.0, 0.0, 0.0, 0.0, 0.0, 1.6635922815495603E9, 0.0, 2022-09-19 17:58:01.549
81.0, 4916.065027244691, -3105.1937467090784, -75423.74884173261, -39545.17567696282, -64680.27111056699, -187500.02235174447, -49471.294816886766, -36643.427508285946, 0.516, -0.854, 0.162, 192.0, 0.0, 0.0, 0.0, 0.0, 0.0, 0.0, 0.0, 0.0, 0.0, 1.663592281553713E9, 0.0, 2022-09-19 17:58:01.553
82.0, 4733.115998878003, -3197.461747820586, -75279.2671655735, -39413.65801258779, -64526.602867436755, -187500.02235174447, -49448.004299164335, -36495.88364313646, 0.516, -0.854, 0.162, 192.0, 0.0, 0.0, 0.0, 0.0, 0.0, 0.0, 0.0, 0.0, 0.0, 1.6635922815586402E9, 0.0, 2022-09-19 17:58:01.558
83.0, 4588.947247141272, -3202.3791316007537, -75195.29166165492, -39311.68935438268, -64453.17738690107, -187500.02235174447, -49334.546844309196, -36408.68948801631, 0.516, -0.854, 0.162, 192.0, 0.0, 0.0, 0.0, 0.0, 0.0, 0.0, 0.0, 0.0, 0.0, 1.6635922815626006E9, 0.0, 2022-09-19 17:58:01.562
84.0, 4614.227070120224, -3150.0984013197904, -75224.05835676889, -39310.21413924863, -64494.48341065448, -187500.02235174447, -49297.9346868914, -36435.377470895946, 0.516, -0.854, 0.162, 192.0, 0.0, 0.0, 0.0, 0.0, 0.0, 0.0, 0.0, 0.0, 0.0, 1.6635922815665648E9, 0.0, 2022-09-19 17:58:01.566
85.0, 4784.145031469468, -3090.687464557584, -75349.541050141, -39389.85340474289, -64621.5530778829, -187500.02235174447, -49358.016175987264, -36554.780489776196, 0.516, -0.854, 0.162, 192.0, 0.0, 0.0, 0.0, 0.0, 0.0, 0.0, 0.0, 0.0, 0.0, 1.6635922815696075E9, 0.0, 2022-09-19 17:58:01.569
86.0, 4901.603448582107, -3121.8681480727373, -75420.08315564194, -39450.02430081658, -64681.94749140114, -187500.02235174447, -49463.76227900533, -36627.334252278124, 0.516, -0.854, 0.162, 192.0, 0.0, 0.0, 0.0, 0.0, 0.0, 0.0, 0.0, 0.0, 0.0, 1.6635922815736103E9, 0.0, 2022-09-19 17:58:01.573
87.0, 4715.748693436229, -3234.900919783225, -75267.17487182318, -39305.408514190734, -64525.39587323617, -187500.02235174447, -49417.74003717185, -36476.4599772048, 0.516, -0.854, 0.162, 192.0, 0.0, 0.0, 0.0, 0.0, 0.0, 0.0, 0.0, 0.0, 0.0, 1.6635922815776095E9, 0.0, 2022-09-19 17:58:01.577
88.0, 4588.388453529889, -3217.3771521302647, -75192.18476917563, -39198.120140805266, -64451.27748862237, -187500.02235174447, -49323.72859999283, -36409.20357813878, 0.516, -0.854, 0.162, 192.0, 0.0, 0.0, 0.0, 0.0, 0.0, 0.0, 0.0, 0.0, 0.0, 1.6635922815816088E9, 0.0, 2022-09-19 17:58:01.581
89.0, 4627.571061560043, -3147.8408751298043, -75229.13220276024, -39208.78192291044, -64487.15203847314, -187500.02235174447, -49304.75196895027, -36449.54847688061, 0.514, -0.856, 0.168, 192.0, 16.0, 16.0, 229.0, 64.0, 5.0, 64.0, 0.0, 0.0, 0.0, 1.6635922815866811E9, 0.0, 2022-09-19 17:58:01.586
90.0, 4806.697941624873, -3094.7107785595394, -75363.84616659238, -39318.75250563055, -64618.64735110371, -187500.02235174447, -49374.13178373955, -36575.120577230526, 0.514, -0.856, 0.168, 192.0, 0.0, 0.0, 0.0, 0.0, 0.0, 0.0, 0.0, 0.0, 0.0, 1.6635922815905595E9, 0.0, 2022-09-19 17:58:01.590
91.0, 4927.3079547057105, -3127.433732442109, -75433.2036296372, -39393.07205594445, -64675.152561086725, -187500.02235174447, -49484.81762228222, -36640.92411290695, 0.514, -0.856, 0.168, 192.0, 0.0, 0.0, 0.0, 0.0, 0.0, 0.0, 0.0, 0.0, 0.0, 1.663592281594609E9, 0.0, 2022-09-19 17:58:01.594
92.0, 4727.528062764176, -3228.5306726134627, -75274.84152017135, -39267.254086405526, -64507.380367205194, -187500.02235174447, -49426.680734953974, -36497.91765188189, 0.514, -0.856, 0.168, 192.0, 0.0, 0.0, 0.0, 0.0, 0.0, 0.0, 0.0, 0.0, 0.0, 1.663592281597633E9, 0.0, 2022-09-19 17:58:01.597
93.0, 4601.285410080602, -3219.2099951755995, -75210.98258626254, -39185.06672204337, -64439.02873266086, -187500.02235174447, -49352.71881255136, -36428.515485348165, 0.514, -0.856, 0.168, 192.0, 0.0, 0.0, 0.0, 0.0, 0.0, 0.0, 0.0, 0.0, 0.0, 1.6635922816016388E9, 0.0, 2022-09-19 17:58:01.601
94.0, 4665.010233522682, -3138.7660668809494, -75260.29053453094, -39207.686687432135, -64495.980977532985, -187500.02235174447, -49352.517646851265, -36474.89535509293, 0.514, -0.856, 0.168, 192.0, 0.0, 0.0, 0.0, 0.0, 0.0, 0.0, 0.0, 0.0, 0.0, 1.6635922816057286E9, 0.0, 2022-09-19 17:58:01.605
95.0, 4841.141979830501, -3088.049958711858, -75380.5429197005, -39301.564014144424, -64631.90193556571, -187500.02235174447, -49383.2065919884, -36587.2352227253, 0.514, -0.856, 0.168, 192.0, 0.0, 0.0, 0.0, 0.0, 0.0, 0.0, 0.0, 0.0, 0.0, 1.6635922816096597E9, 0.0, 2022-09-19 17:58:01.609
96.0, 4935.242823987344, -3136.3744302242317, -75421.49131554262, -39345.26167455455, -64681.27693906748, -187500.02235174447, -49447.087877641665, -36627.602473211584, 0.514, -0.856, 0.168, 192.0, 0.0, 0.0, 0.0, 0.0, 0.0, 0.0, 0.0, 0.0, 0.0, 1.6635922816146517E9, 0.0, 2022-09-19 17:58:01.614
97.0, 4724.667039473897, -3241.2488152085325, -75255.99899959553, -39192.241632013516, -64517.170431276616, -187500.02235174447, -49373.01419651678, -36474.18009927036, 0.514, -0.856, 0.168, 192.0, 0.0, 0.0, 0.0, 0.0, 0.0, 0.0, 0.0, 0.0, 0.0, 1.6635922816186144E9, 0.0, 2022-09-19 17:58:01.618
98.0, 4605.353427571467, -3233.202187204622, -75196.76687678897, -39104.913366426634, -64456.485445080456, -187500.02235174447, -49295.90067814597, -36410.477627572734, 0.514, -0.856, 0.168, 192.0, 0.0, 0.0, 0.0, 0.0, 0.0, 0.0, 0.0, 0.0, 0.0, 1.663592281622776E9, 0.0, 2022-09-19 17:58:01.622
99.0, 4662.842114310517, -3187.8504977048037, -75254.12145306128, -39142.91133200066, -64506.53100091589, -187500.02235174447, -49320.12996913552, -36467.675741633866, 0.512, -0.854, 0.154, 192.0, 16.0, 0.0, 229.0, 80.0, 4.0, 208.0, 0.0, 0.0, 0.0, 1.6635922816257248E9, 0.0, 2022-09-19 17:58:01.625
100.0, 4860.7444597178055, -3120.61645038324, -75395.89856814129, -39286.744807570554, -64650.65504916371, -187500.02235174447, -49406.38535098855, -36614.549054449686, 0.512, -0.854, 0.154, 192.0, 0.0, 0.0, 0.0, 0.0, 0.0, 0.0, 0.0, 0.0, 0.0, 1.6635922816296792E9, 0.0, 2022-09-19 17:58:01.629
101.0, 4956.052298075235, -3141.5153314489526, -75440.87027798538, -39363.098366629885, -64695.11266888532, -187500.02235174447, -49495.32294217622, -36671.2554301328, 0.512, -0.854, 0.154, 192.0, 0.0, 0.0, 0.0, 0.0, 0.0, 0.0, 0.0, 0.0, 0.0, 1.6635922816336577E9, 0.0, 2022-09-19 17:58:01.633
102.0, 4746.817618229105, -3236.9572802731136, -75270.52763349148, -39216.04623985842, -64518.82446036631, -187500.02235174447, -49414.32022027019, -36509.473503765286, 0.512, -0.854, 0.154, 192.0, 0.0, 0.0, 0.0, 0.0, 0.0, 0.0, 0.0, 0.0, 0.0, 1.6635922816377685E9, 0.0, 2022-09-19 17:58:01.637
103.0, 4634.500102341188, -3223.5685853443847, -75209.01563275047, -39127.60038704877, -64453.535014812354, -187500.02235174447, -49321.51577729175, -36444.83225880054, 0.512, -0.854, 0.154, 192.0, 0.0, 0.0, 0.0, 0.0, 0.0, 0.0, 0.0, 0.0, 0.0, 1.6635922816417143E9, 0.0, 2022-09-19 17:58:01.641
104.0, 4690.2230012682685, -3168.270369561955, -75261.45282524262, -39153.014320494454, -64507.40271894965, -187500.02235174447, -49334.189216397914, -36480.79621562913, 0.512, -0.854, 0.154, 192.0, 0.0, 0.0, 0.0, 0.0, 0.0, 0.0, 0.0, 0.0, 0.0, 1.6635922816466987E9, 0.0, 2022-09-19 17:58:01.646
105.0, 4884.9290472184475, -3116.8390055702935, -75402.22411182214, -39288.220022704605, -64651.727932897564, -187500.02235174447, -49413.046170836235, -36611.86684511505, 0.512, -0.854, 0.154, 192.0, 0.0, 0.0, 0.0, 0.0, 0.0, 0.0, 0.0, 0.0, 0.0, 1.6635922816507175E9, 0.0, 2022-09-19 17:58:01.650
106.0, 4965.328272024188, -3153.875846132737, -75432.98011219264, -39354.24707582558, -64671.77744767397, -187500.02235174447, -49494.96531426493, -36652.234095601336, 0.512, -0.854, 0.154, 192.0, 0.0, 0.0, 0.0, 0.0, 0.0, 0.0, 0.0, 0.0, 0.0, 1.6635922816538403E9, 0.0, 2022-09-19 17:58:01.653
107.0, 4739.441542558854, -3248.714297856605, -75265.5655462224, -39217.119123592274, -64498.39496593416, -187500.02235174447, -49418.38823776105, -36505.56194848561, 0.512, -0.854, 0.154, 192.0, 0.0, 0.0, 0.0, 0.0, 0.0, 0.0, 0.0, 0.0, 0.0, 1.6635922816577675E9, 0.0, 2022-09-19 17:58:01.657
108.0, 4640.713887299763, -3222.7639225439934, -75219.52095264447, -39154.37777690623, -64464.84499750674, -187500.02235174447, -49347.64496656001, -36448.92262803586, 0.512, -0.854, 0.154, 192.0, 0.0, 0.0, 0.0, 0.0, 0.0, 0.0, 0.0, 0.0, 0.0, 1.6635922816617656E9, 0.0, 2022-09-19 17:58:01.661
109.0, 4711.323048034078, -3159.5531892243853, -75277.79195043945, -39205.56327170888, -64537.46581524204, -187500.02235174447, -49355.82570503065, -36506.813646175106, 0.508, -0.852, 0.158, 192.0, 15.0, 224.0, 229.0, 96.0, 4.0, 240.0, 0.0, 0.0, 0.0, 1.66359228166573E9, 0.0, 2022-09-19 17:58:01.665
110.0, 4909.471262630375, -3101.2374879404892, -75418.8985131858, -39332.56588370394, -64696.38671831927, -187500.02235174447, -49432.58159549017, -36651.42943280094, 0.508, -0.852, 0.158, 192.0, 0.0, 0.0, 0.0, 0.0, 0.0, 0.0, 0.0, 0.0, 0.0, 1.663592281669829E9, 0.0, 2022-09-19 17:58:01.669
111.0, 4976.079461107191, -3148.7796483969273, -75449.43099611175, -39370.07211089994, -64730.249611169056, -187500.02235174447, -49513.9866487964, -36676.485738335345, 0.508, -0.852, 0.158, 192.0, 0.0, 0.0, 0.0, 0.0, 0.0, 0.0, 0.0, 0.0, 0.0, 1.6635922816747336E9, 0.0, 2022-09-19 17:58:01.674
112.0, 4748.024612429692, -3250.9271205576806, -75277.25550857252, -39212.04527760092, -64558.63291724121, -187500.02235174447, -49409.71576091239, -36500.93513738336, 0.508, -0.852, 0.158, 192.0, 0.0, 0.0, 0.0, 0.0, 0.0, 0.0, 0.0, 0.0, 0.0, 1.663592281678727E9, 0.0, 2022-09-19 17:58:01.678
113.0, 4633.114294184958, -3233.06807673789, -75224.66185386918, -39154.86951528425, -64508.833230594784, -187500.02235174447, -49314.49732953279, -36453.77295658266, 0.508, -0.852, 0.158, 192.0, 0.0, 0.0, 0.0, 0.0, 0.0, 0.0, 0.0, 0.0, 0.0, 1.6635922816817648E9, 0.0, 2022-09-19 17:58:01.681
114.0, 4701.6670944293855, -3175.042948131913, -75276.87552891679, -39202.47873097405, -64567.52891153442, -187500.02235174447, -49313.87148068804, -36512.267471822204, 0.508, -0.852, 0.158, 192.0, 0.0, 0.0, 0.0, 0.0, 0.0, 0.0, 0.0, 0.0, 0.0, 1.6635922816858423E9, 0.0, 2022-09-19 17:58:01.685
115.0, 4908.912469018993, -3124.3268399628214, -75413.91407417227, -39329.16841854673, -64709.93187545918, -187500.02235174447, -49390.44855719192, -36645.997958898304, 0.508, -0.852, 0.158, 192.0, 0.0, 0.0, 0.0, 0.0, 0.0, 0.0, 0.0, 0.0, 0.0, 1.663592281689778E9, 0.0, 2022-09-19 17:58:01.689
116.0, 4963.003690600835, -3172.651311475195, -75427.88391445683, -39354.76116594805, -64721.018340709015, -187500.02235174447, -49470.244284897366, -36666.60626728609, 0.508, -0.852, 0.158, 192.0, 0.0, 0.0, 0.0, 0.0, 0.0, 0.0, 0.0, 0.0, 0.0, 1.6635922816937964E9, 0.0, 2022-09-19 17:58:01.693
117.0, 4734.501807034231, -3256.8503328383367, -75261.20695605362, -39195.63909717072, -64545.93712639059, -187500.02235174447, -49398.517536940286, -36503.103256595525, 0.508, -0.852, 0.158, 192.0, 0.0, 0.0, 0.0, 0.0, 0.0, 0.0, 0.0, 0.0, 0.0, 1.6635922816977665E9, 0.0, 2022-09-19 17:58:01.697
118.0, 4656.87419854095, -3225.155559200711, -75238.63169415375, -39138.955073232064, -64519.38325397769, -187500.02235174447, -49361.39128940002, -36455.53874439463, 0.508, -0.852, 0.158, 192.0, 0.0, 0.0, 0.0, 0.0, 0.0, 0.0, 0.0, 0.0, 0.0, 1.6635922817028084E9, 0.0, 2022-09-19 17:58:01.702
119.0, 4743.710725749818, -3165.275235804944, -75299.271976861, -39181.31162897487, -64580.51527506296, -187500.02235174447, -49377.21632447438, -36510.38992528796, 0.51, -0.854, 0.158, 192.0, 15.0, 240.0, 229.0, 80.0, 4.0, 240.0, 0.0, 0.0, 0.0, 1.6635922817068572E9, 0.0, 2022-09-19 17:58:01.706
120.0, 4948.475056704886, -3116.079046258813, -75431.52724880306, -39291.70689483963, -64720.21367790863, -187500.02235174447, -49443.48924678436, -36644.7015577199, 0.51, -0.854, 0.158, 192.0, 0.0, 0.0, 0.0, 0.0, 0.0, 0.0, 0.0, 0.0, 0.0, 1.6635922817098308E9, 0.0, 2022-09-19 17:58:01.709
121.0, 4987.36709205712, -3183.760128469483, -75430.14144064682, -39299.775874588, -64722.985294221085, -187500.02235174447, -49495.613514854136, -36645.70738622038, 0.51, -0.854, 0.158, 192.0, 0.0, 0.0, 0.0, 0.0, 0.0, 0.0, 0.0, 0.0, 0.0, 1.6635922817138453E9, 0.0, 2022-09-19 17:58:01.713
122.0, 4751.220911886801, -3282.6665976842164, -75254.76965365048, -39137.770430775934, -64555.41426603965, -187500.02235174447, -49388.794528102226, -36490.18394830036, 0.51, -0.854, 0.158, 192.0, 0.0, 0.0, 0.0, 0.0, 0.0, 0.0, 0.0, 0.0, 0.0, 1.663592281717975E9, 0.0, 2022-09-19 17:58:01.717
123.0, 4654.147285717402, -3261.1195160293005, -75216.01172876498, -39073.799738144844, -64523.71949240202, -187500.02235174447, -49307.478881773815, -36443.64761634441, 0.51, -0.854, 0.158, 192.0, 0.0, 0.0, 0.0, 0.0, 0.0, 0.0, 0.0, 0.0, 0.0, 1.6635922817217877E9, 0.0, 2022-09-19 17:58:01.721
124.0, 4739.88857744796, -3199.741625755027, -75279.24481382905, -39104.53338677089, -64592.27229264645, -187500.02235174447, -49326.83549247211, -36493.737875668754, 0.51, -0.854, 0.158, 192.0, 0.0, 0.0, 0.0, 0.0, 0.0, 0.0, 0.0, 0.0, 0.0, 1.663592281725894E9, 0.0, 2022-09-19 17:58:01.725
125.0, 4950.59847242814, -3139.3248604923324, -75425.04524291102, -39226.03746962994, -64744.26415494254, -187500.02235174447, -49416.44363599344, -36630.79877266869, 0.51, -0.854, 0.158, 192.0, 0.0, 0.0, 0.0, 0.0, 0.0, 0.0, 0.0, 0.0, 0.0, 1.663592281730894E9, 0.0, 2022-09-19 17:58:01.730
126.0, 4980.728623953894, -3190.644465761717, -75413.98112940564, -39241.661339004204, -64736.77632055001, -187500.02235174447, -49470.13252617509, -36623.91443537646, 0.51, -0.854, 0.158, 192.0, 0.0, 0.0, 0.0, 0.0, 0.0, 0.0, 0.0, 0.0, 0.0, 1.6635922817348485E9, 0.0, 2022-09-19 17:58:01.734
127.0, 4744.716554250307, -3272.228333023588, -75245.29251400144, -39096.978497145, -64567.68537374561, -187500.02235174447, -49364.36407141257, -36469.57563991257, 0.51, -0.854, 0.158, 192.0, 0.0, 0.0, 0.0, 0.0, 0.0, 0.0, 0.0, 0.0, 0.0, 1.663592281737831E9, 0.0, 2022-09-19 17:58:01.737
128.0, 4670.128783002947, -3243.1487134872336, -75223.54426664642, -39052.09619427874, -64537.30935303085, -187500.02235174447, -49301.332152048606, -36437.47853487475, 0.51, -0.854, 0.158, 192.0, 0.0, 0.0, 0.0, 0.0, 0.0, 0.0, 0.0, 0.0, 0.0, 1.6635922817419045E9, 0.0, 2022-09-19 17:58:01.741
129.0, 4756.98766195627, -3197.193526887122, -75292.96878492461, -39096.15148260015, -64598.329615393835, -187500.02235174447, -49326.70138200538, -36506.07603860808, 0.51, -0.856, 0.158, 192.0, 15.0, 240.0, 229.0, 64.0, 4.0, 240.0, 0.0, 0.0, 0.0, 1.663592281745856E9, 0.0, 2022-09-19 17:58:01.745
130.0, 4964.367147012609, -3148.1090960632678, -75445.56414432099, -39234.15115286722, -64745.35939042085, -187500.02235174447, -49433.43096177947, -36656.03389215874, 0.51, -0.856, 0.158, 192.0, 0.0, 0.0, 0.0, 0.0, 0.0, 0.0, 0.0, 0.0, 0.0, 1.6635922817499423E9, 0.0, 2022-09-19 17:58:01.749
131.0, 4986.27185657881, -3190.5327070394405, -75437.87514422837, -39259.274513634984, -64726.91920124522, -187500.02235174447, -49514.903070319066, -36644.54509550871, 0.51, -0.856, 0.158, 192.0, 0.0, 0.0, 0.0, 0.0, 0.0, 0.0, 0.0, 0.0, 0.0, 1.6635922817538865E9, 0.0, 2022-09-19 17:58:01.753
132.0, 4773.170324941912, -3253.810495592415, -75274.93092714918, -39101.06886638032, -64555.72719046202, -187500.02235174447, -49435.44261878045, -36476.23645976025, 0.51, -0.856, 0.158, 192.0, 0.0, 0.0, 0.0, 0.0, 0.0, 0.0, 0.0, 0.0, 0.0, 1.6635922817598507E9, 0.0, 2022-09-19 17:58:01.759
133.0, 4713.26764980169, -3216.997172474524, -75239.0563772984, -39035.220627214985, -64533.75542566246, -187500.02235174447, -49344.58277756963, -36444.36287216698, 0.51, -0.856, 0.158, 192.0, 0.0, 0.0, 0.0, 0.0, 0.0, 0.0, 0.0, 0.0, 0.0, 1.6635922817638829E9, 0.0, 2022-09-19 17:58:01.763
134.0, 4779.048833733658, -3175.713500465572, -75287.64906974425, -39066.24484851895, -64606.75622305349, -187500.02235174447, -49315.23493709981, -36504.95845138532, 0.51, -0.856, 0.158, 192.0, 0.0, 0.0, 0.0, 0.0, 0.0, 0.0, 0.0, 0.0, 0.0, 1.66359228176786E9, 0.0, 2022-09-19 17:58:01.767
135.0, 4974.64894946205, -3147.1256193072345, -75419.97139691966, -39177.26596322846, -64744.06298924244, -187500.02235174447, -49393.71191188239, -36642.578141996644, 0.51, -0.856, 0.158, 192.0, 0.0, 0.0, 0.0, 0.0, 0.0, 0.0, 0.0, 0.0, 0.0, 1.663592281770838E9, 0.0, 2022-09-19 17:58:01.770
136.0, 4972.6819959499835, -3222.361591143798, -75394.24453905161, -39170.71690210306, -64706.04267192396, -187500.02235174447, -49460.32011035921, -36616.67247017294, 0.51, -0.856, 0.158, 192.0, 0.0, 0.0, 0.0, 0.0, 0.0, 0.0, 0.0, 0.0, 0.0, 1.6635922817738912E9, 0.0, 2022-09-19 17:58:01.773
137.0, 4739.486246047765, -3300.682103715194, -75227.94756030412, -39029.09624923423, -64533.375446006714, -187500.02235174447, -49362.68769057843, -36454.9575990388, 0.51, -0.856, 0.158, 192.0, 0.0, 0.0, 0.0, 0.0, 0.0, 0.0, 0.0, 0.0, 0.0, 1.663592281777876E9, 0.0, 2022-09-19 17:58:01.777
138.0, 4682.176373264358, -3255.2857107264654, -75209.23915019502, -39002.81059775479, -64506.7768701049, -187500.02235174447, -49299.40990202545, -36434.88573251793, 0.51, -0.856, 0.158, 192.0, 0.0, 0.0, 0.0, 0.0, 0.0, 0.0, 0.0, 0.0, 0.0, 1.663592281781982E9, 0.0, 2022-09-19 17:58:01.781
139.0, 4775.293740665167, -3185.078881392346, -75285.41389529871, -39071.89983986614, -64578.34715585079, -187500.02235174447, -49322.94628893689, -36507.75241944223, 0.516, -0.862, 0.154, 192.0, 16.0, 32.0, 229.0, 16.0, 4.0, 208.0, 0.0, 0.0, 0.0, 1.6635922817869556E9, 0.0, 2022-09-19 17:58:01.786
140.0, 4973.84428666166, -3145.3821832397207, -75441.13849891884, -39206.74791416501, -64728.39441637927, -187500.02235174447, -49425.54079598675, -36648.34489206611, 0.516, -0.862, 0.154, 192.0, 0.0, 0.0, 0.0, 0.0, 0.0, 0.0, 0.0, 0.0, 0.0, 1.6635922817899616E9, 0.0, 2022-09-19 17:58:01.789
141.0, 4955.068821319202, -3232.3751726597757, -75409.89076017031, -39183.97148656505, -64694.106840384826, -187500.02235174447, -49478.73794779038, -36618.28179577372, 0.516, -0.862, 0.154, 192.0, 0.0, 0.0, 0.0, 0.0, 0.0, 0.0, 0.0, 0.0, 0.0, 1.6635922817929592E9, 0.0, 2022-09-19 17:58:01.792
142.0, 4737.295775091145, -3297.262286813532, -75238.02819705346, -39015.72990604996, -64524.792376135876, -187500.02235174447, -49364.252312690296, -36450.57665712555, 0.516, -0.862, 0.154, 192.0, 0.0, 0.0, 0.0, 0.0, 0.0, 0.0, 0.0, 0.0, 0.0, 1.663592281798016E9, 0.0, 2022-09-19 17:58:01.798
143.0, 4677.057823784092, -3255.2410072375546, -75231.2556184835, -38980.77177772186, -64506.28513172688, -187500.02235174447, -49324.01917267075, -36432.02470922765, 0.516, -0.862, 0.154, 192.0, 0.0, 0.0, 0.0, 0.0, 0.0, 0.0, 0.0, 0.0, 0.0, 1.6635922818019176E9, 0.0, 2022-09-19 17:58:01.801
144.0, 4774.42202263141, -3198.2887623654324, -75310.26903513301, -39033.70070859203, -64577.02840292793, -187500.02235174447, -49368.61090285909, -36501.3151170391, 0.516, -0.862, 0.154, 192.0, 0.0, 0.0, 0.0, 0.0, 0.0, 0.0, 0.0, 0.0, 0.0, 1.6635922818059888E9, 0.0, 2022-09-19 17:58:01.805
145.0, 4999.32527534071, -3148.399668741187, -75444.24539139813, -39157.350558918784, -64715.65392203974, -187500.02235174447, -49449.90419744304, -36629.703537190384, 0.516, -0.862, 0.154, 192.0, 0.0, 0.0, 0.0, 0.0, 0.0, 0.0, 0.0, 0.0, 0.0, 1.6635922818100142E9, 0.0, 2022-09-19 17:58:01.810
146.0, 4981.4885832653745, -3217.354800385809, -75387.40490524827, -39143.62658782322, -64670.32458428438, -187500.02235174447, -49464.65634878354, -36597.67348738593, 0.516, -0.862, 0.154, 192.0, 0.0, 0.0, 0.0, 0.0, 0.0, 0.0, 0.0, 0.0, 0.0, 1.6635922818141031E9, 0.0, 2022-09-19 17:58:01.814
147.0, 4771.449240618854, -3287.338112275376, -75220.99616777852, -39007.616222812685, -64511.783660862886, -187500.02235174447, -49340.91709147896, -36450.91193329238, 0.516, -0.862, 0.154, 192.0, 0.0, 0.0, 0.0, 0.0, 0.0, 0.0, 0.0, 0.0, 0.0, 1.6635922818179407E9, 0.0, 2022-09-19 17:58:01.817
148.0, 4733.361868067011, -3238.208977962611, -75205.77462980445, -38986.11384464668, -64499.66901536811, -187500.02235174447, -49285.35065476307, -36425.76622078016, 0.516, -0.862, 0.154, 192.0, 0.0, 0.0, 0.0, 0.0, 0.0, 0.0, 0.0, 0.0, 0.0, 1.663592281823064E9, 0.0, 2022-09-19 17:58:01.823
149.0, 4817.493834196786, -3188.1857738716335, -75287.42555229968, -39050.97860705598, -64580.44821982959, -187500.02235174447, -49315.77137896674, -36498.72231468229, 0.514, -0.86, 0.156, 192.0, 16.0, 16.0, 229.0, 32.0, 4.0, 224.0, 0.0, 0.0, 0.0, 1.663592281826003E9, 0.0, 2022-09-19 17:58:01.826
150.0, 5014.479758081407, -3143.079953560824, -75430.76728949157, -39175.36606494976, -64721.48772734258, -187500.02235174447, -49420.243432550844, -36641.08057511813, 0.514, -0.86, 0.156, 192.0, 0.0, 0.0, 0.0, 0.0, 0.0, 0.0, 0.0, 0.0, 0.0, 1.6635922818300087E9, 0.0, 2022-09-19 17:58:01.830
151.0, 4983.120260610612, -3211.6104020607954, -75377.01134407656, -39145.99587273549, -64660.333354512855, -187500.02235174447, -49456.922645202, -36598.813426353154, 0.514, -0.86, 0.156, 192.0, 0.0, 0.0, 0.0, 0.0, 0.0, 0.0, 0.0, 0.0, 0.0, 1.6635922818349984E9, 0.0, 2022-09-19 17:58:01.834
152.0, 4759.938092224371, -3281.9960453505573, -75217.24107471002, -38994.16047265059, -64496.98680603347, -187500.02235174447, -49337.51962632175, -36445.34634892301, 0.514, -0.86, 0.156, 192.0, 0.0, 0.0, 0.0, 0.0, 0.0, 0.0, 0.0, 0.0, 0.0, 1.6635922818389995E9, 0.0, 2022-09-19 17:58:01.838
153.0, 4724.175301095879, -3235.616175605795, -75208.88152228374, -38963.203306579984, -64489.36486117422, -187500.02235174447, -49285.84239314108, -36431.75648829419, 0.514, -0.86, 0.156, 192.0, 0.0, 0.0, 0.0, 0.0, 0.0, 0.0, 0.0, 0.0, 0.0, 1.663592281842045E9, 0.0, 2022-09-19 17:58:01.842
154.0, 4839.912633885459, -3171.5113725079746, -75289.07958138938, -39022.94951950902, -64570.92637669163, -187500.02235174447, -49319.07943714612, -36508.89235840945, 0.514, -0.86, 0.156, 192.0, 0.0, 0.0, 0.0, 0.0, 0.0, 0.0, 0.0, 0.0, 0.0, 1.663592281846059E9, 0.0, 2022-09-19 17:58:01.846
155.0, 5047.783857319815, -3132.7981511113826, -75440.51265007409, -39164.12313748874, -64715.072776683905, -187500.02235174447, -49440.20354034943, -36643.98630189733, 0.514, -0.86, 0.156, 192.0, 0.0, 0.0, 0.0, 0.0, 0.0, 0.0, 0.0, 0.0, 0.0, 1.6635922818490946E9, 0.0, 2022-09-19 17:58:01.849
156.0, 4999.5711445297175, -3210.4034078602085, -75382.91220461276, -39142.35253838927, -64653.001982331516, -187500.02235174447, -49488.03627348379, -36593.89604257298, 0.514, -0.86, 0.156, 192.0, 0.0, 0.0, 0.0, 0.0, 0.0, 0.0, 0.0, 0.0, 0.0, 1.6635922818540912E9, 0.0, 2022-09-19 17:58:01.854
157.0, 4784.457955891843, -3267.9815015770796, -75226.76291784798, -38992.86407147218, -64502.91001831413, -187500.02235174447, -49373.72945233935, -36445.39105241192, 0.514, -0.86, 0.156, 192.0, 0.0, 0.0, 0.0, 0.0, 0.0, 0.0, 0.0, 0.0, 0.0, 1.6635922818581076E9, 0.0, 2022-09-19 17:58:01.858
158.0, 4754.372507855, -3221.869852765781, -75227.07584227037, -38960.58815247872, -64500.89836131315, -187500.02235174447, -49319.90645169097, -36445.011072756184, 0.514, -0.86, 0.156, 192.0, 0.0, 0.0, 0.0, 0.0, 0.0, 0.0, 0.0, 0.0, 0.0, 1.6635922818620775E9, 0.0, 2022-09-19 17:58:01.862
159.0, 4847.869854911549, -3171.690186463617, -75316.19224741367, -39019.88733051864, -64582.392821597205, -187500.02235174447, -49359.066707976664, -36522.90690218293, 0.512, -0.86, 0.15, 192.0, 16.0, 0.0, 229.0, 32.0, 4.0, 176.0, 0.0, 0.0, 0.0, 1.663592281866166E9, 0.0, 2022-09-19 17:58:01.866
160.0, 5039.826636293726, -3151.260692031466, -75454.6613043143, -39139.670329054636, -64721.28656164248, -187500.02235174447, -49461.92943595999, -36653.552848524196, 0.512, -0.86, 0.15, 192.0, 0.0, 0.0, 0.0, 0.0, 0.0, 0.0, 0.0, 0.0, 0.0, 1.6635922818701131E9, 0.0, 2022-09-19 17:58:01.870
161.0, 4960.142667310556, -3243.014603020502, -75381.07936156742, -39073.57622070029, -64651.03502881945, -187500.02235174447, -49474.98285472189, -36593.47135942833, 0.512, -0.86, 0.15, 192.0, 0.0, 0.0, 0.0, 0.0, 0.0, 0.0, 0.0, 0.0, 0.0, 1.6635922818741908E9, 0.0, 2022-09-19 17:58:01.874
162.0, 4741.542606537653, -3291.3390745328757, -75225.26535096948, -38912.80012283327, -64498.66318686762, -187500.02235174447, -49348.315518893665, -36438.238494186226, 0.512, -0.86, 0.15, 192.0, 0.0, 0.0, 0.0, 0.0, 0.0, 0.0, 0.0, 0.0, 0.0, 1.663592281877136E9, 0.0, 2022-09-19 17:58:01.877
163.0, 4720.777835938673, -3236.4208384061862, -75212.74837407451, -38894.3822854021, -64490.48244839698, -187500.02235174447, -49271.202000522855, -36430.77301153815, 0.512, -0.86, 0.15, 192.0, 0.0, 0.0, 0.0, 0.0, 0.0, 0.0, 0.0, 0.0, 0.0, 1.6635922818811147E9, 0.0, 2022-09-19 17:58:01.881
164.0, 4846.1934740774, -3164.9846631270248, -75298.13203789378, -38959.76113793387, -64576.00022268298, -187500.02235174447, -49303.90260266097, -36517.20720734682, 0.512, -0.86, 0.15, 192.0, 0.0, 0.0, 0.0, 0.0, 0.0, 0.0, 0.0, 0.0, 0.0, 1.6635922818861272E9, 0.0, 2022-09-19 17:58:01.886
165.0, 5051.449543410486, -3126.7408283639943, -75439.64093204033, -39075.54317421236, -64714.53633481698, -187500.02235174447, -49422.99269711885, -36652.34585432361, 0.512, -0.86, 0.15, 192.0, 0.0, 0.0, 0.0, 0.0, 0.0, 0.0, 0.0, 0.0, 0.0, 1.6635922818901303E9, 0.0, 2022-09-19 17:58:01.890
166.0, 4974.224266317399, -3214.046742206424, -75354.59254438788, -39009.33730713574, -64626.4034064297, -187500.02235174447, -49443.377488062084, -36574.31591443013, 0.512, -0.86, 0.15, 192.0, 0.0, 0.0, 0.0, 0.0, 0.0, 0.0, 0.0, 0.0, 0.0, 1.6635922818941283E9, 0.0, 2022-09-19 17:58:01.894
167.0, 4768.029423717192, -3264.3828707197754, -75217.39753692121, -38859.78178498528, -64477.67489882409, -187500.02235174447, -49346.66148980397, -36428.69429930381, 0.512, -0.86, 0.15, 192.0, 0.0, 0.0, 0.0, 0.0, 0.0, 0.0, 0.0, 0.0, 0.0, 1.6635922818981404E9, 0.0, 2022-09-19 17:58:01.898
168.0, 4750.975042697793, -3216.4383788631417, -75229.5568859049, -38860.11706115211, -64489.65543385213, -187500.02235174447, -49314.72084697734, -36441.34538666551, 0.512, -0.86, 0.15, 192.0, 0.0, 0.0, 0.0, 0.0, 0.0, 0.0, 0.0, 0.0, 0.0, 1.6635922819011693E9, 0.0, 2022-09-19 17:58:01.901
169.0, 4865.77360222025, -3148.399668741187, -75321.75783178305, -38938.61638767915, -64578.5930250398, -187500.02235174447, -49364.52053362376, -36535.826210478095, 0.508, -0.864, 0.15, 192.0, 15.0, 224.0, 229.0, 0.0, 4.0, 176.0, 0.0, 0.0, 0.0, 1.6635922819051368E9, 0.0, 2022-09-19 17:58:01.905
170.0, 5073.868343099159, -3112.2792497014107, -75452.38142637986, -39051.939732067556, -64713.23993363857, -187500.02235174447, -49473.28412214329, -36664.14757539601, 0.508, -0.864, 0.15, 192.0, 0.0, 0.0, 0.0, 0.0, 0.0, 0.0, 0.0, 0.0, 0.0, 1.66359228190916E9, 0.0, 2022-09-19 17:58:01.909
171.0, 4974.067804106213, -3207.944715970125, -75346.65767510625, -38992.59585053872, -64620.03315925994, -187500.02235174447, -49443.668060740005, -36573.62301035202, 0.508, -0.864, 0.15, 192.0, 0.0, 0.0, 0.0, 0.0, 0.0, 0.0, 0.0, 0.0, 0.0, 1.6635922819141483E9, 0.0, 2022-09-19 17:58:01.914
172.0, 4743.218987371801, -3261.387736962764, -75195.55988258838, -38853.90327619354, -64469.29299465335, -187500.02235174447, -49307.635343985006, -36433.142296450416, 0.508, -0.864, 0.15, 192.0, 0.0, 0.0, 0.0, 0.0, 0.0, 0.0, 0.0, 0.0, 0.0, 1.6635922819181747E9, 0.0, 2022-09-19 17:58:01.918
173.0, 4719.682600460363, -3211.9456782276247, -75209.1050397283, -38842.906217921525, -64477.317270912805, -187500.02235174447, -49283.718977417826, -36441.21127619878, 0.508, -0.864, 0.15, 192.0, 0.0, 0.0, 0.0, 0.0, 0.0, 0.0, 0.0, 0.0, 0.0, 1.663592281922196E9, 0.0, 2022-09-19 17:58:01.922
174.0, 4838.48212224032, -3142.6329186717176, -75308.34678510985, -38918.812742091744, -64570.367583080246, -187500.02235174447, -49338.033716444224, -36537.59199829007, 0.508, -0.864, 0.15, 192.0, 0.0, 0.0, 0.0, 0.0, 0.0, 0.0, 0.0, 0.0, 0.0, 1.663592281926184E9, 0.0, 2022-09-19 17:58:01.926
175.0, 5042.553549117273, -3105.7301885760057, -75442.07727218595, -39041.30030170683, -64694.93385492967, -187500.02235174447, -49461.66121502653, -36659.76663348277, 0.508, -0.864, 0.15, 192.0, 0.0, 0.0, 0.0, 0.0, 0.0, 0.0, 0.0, 0.0, 0.0, 1.6635922819292724E9, 0.0, 2022-09-19 17:58:01.929
176.0, 4951.4925422063525, -3194.6901315081277, -75338.32047442443, -38979.0506933988, -64591.71349903507, -187500.02235174447, -49450.95472943244, -36564.03411198069, 0.508, -0.864, 0.15, 192.0, 0.0, 0.0, 0.0, 0.0, 0.0, 0.0, 0.0, 0.0, 0.0, 1.663592281933264E9, 0.0, 2022-09-19 17:58:01.933
177.0, 4751.6232432869965, -3236.0408587504458, -75188.51908308496, -38833.809057928214, -64450.673991522075, -187500.02235174447, -49309.66935273044, -36430.683604560334, 0.508, -0.864, 0.15, 192.0, 0.0, 0.0, 0.0, 0.0, 0.0, 0.0, 0.0, 0.0, 0.0, 1.6635922819372156E9, 0.0, 2022-09-19 17:58:01.937
178.0, 4737.541644280153, -3181.3461400683095, -75201.32663265785, -38833.58554048366, -64471.88579701017, -187500.02235174447, -49267.8268871101, -36426.25795915818, 0.508, -0.864, 0.15, 192.0, 0.0, 0.0, 0.0, 0.0, 0.0, 0.0, 0.0, 0.0, 0.0, 1.66359228194121E9, 0.0, 2022-09-19 17:58:01.941
179.0, 4865.840657453616, -3107.495976387975, -75305.68692751968, -38929.295710241284, -64577.296623861395, -187500.02235174447, -49314.966716166346, -36526.68434699588, 0.508, -0.864, 0.15, 192.0, 0.0, 0.0, 0.0, 0.0, 0.0, 0.0, 0.0, 0.0, 0.0, 1.6635922819461563E9, 0.0, 2022-09-19 17:58:01.946
180.0, 5062.983043549424, -3082.4173191091204, -75426.8557342119, -39053.79492685734, -64702.980482933584, -187500.02235174447, -49420.13167382857, -36658.33612183763, 0.51, -0.862, 0.156, 192.0, 15.0, 240.0, 229.0, 16.0, 4.0, 224.0, 0.0, 0.0, 0.0, 1.6635922819503047E9, 0.0, 2022-09-19 17:58:01.950
181.0, 4953.459495718419, -3187.336407582332, -75322.20486667215, -38982.06817890026, -64598.26256016047, -187500.02235174447, -49426.904252398526, -36560.90486775695, 0.51, -0.862, 0.156, 192.0, 0.0, 0.0, 0.0, 0.0, 0.0, 0.0, 0.0, 0.0, 0.0, 1.6635922819543092E9, 0.0, 2022-09-19 17:58:01.954
182.0, 4755.423039844399, -3234.655050594217, -75197.45978086708, -38858.95477044043, -64469.5165120979, -187500.02235174447, -49327.75191399478, -36428.023746970146, 0.51, -0.862, 0.156, 192.0, 0.0, 0.0, 0.0, 0.0, 0.0, 0.0, 0.0, 0.0, 0.0, 1.6635922819573054E9, 0.0, 2022-09-19 17:58:01.957
183.0, 4743.375449582988, -3177.8369161888263, -75234.4072144517, -38867.56019205573, -64502.86531482522, -187500.02235174447, -49326.23199537182, -36451.6048373705, 0.51, -0.862, 0.156, 192.0, 0.0, 0.0, 0.0, 0.0, 0.0, 0.0, 0.0, 0.0, 0.0, 1.6635922819612892E9, 0.0, 2022-09-19 17:58:01.961
184.0, 4867.718203987862, -3107.272458943422, -75336.17470695672, -38946.37244300514, -64599.447202616604, -187500.02235174447, -49380.882010565045, -36543.80578324864, 0.51, -0.862, 0.156, 192.0, 0.0, 0.0, 0.0, 0.0, 0.0, 0.0, 0.0, 0.0, 0.0, 1.663592281965221E9, 0.0, 2022-09-19 17:58:01.965
185.0, 5056.590444635206, -3085.9712464775143, -75444.33479837594, -39056.25361874743, -64711.720015015606, -187500.02235174447, -49463.35994760513, -36659.34195033812, 0.51, -0.862, 0.156, 192.0, 0.0, 0.0, 0.0, 0.0, 0.0, 0.0, 0.0, 0.0, 0.0, 1.6635922819693267E9, 0.0, 2022-09-19 17:58:01.969
186.0, 4948.430353215976, -3181.547305768407, -75316.03578520249, -38968.83594618273, -64594.23924615851, -187500.02235174447, -49420.0646185952, -36557.86503051103, 0.51, -0.862, 0.156, 192.0, 0.0, 0.0, 0.0, 0.0, 0.0, 0.0, 0.0, 0.0, 0.0, 1.66359228197429E9, 0.0, 2022-09-19 17:58:01.974
187.0, 4755.154818910935, -3227.9942307465353, -75180.40539984767, -38835.418383528995, -64467.035468463364, -187500.02235174447, -49286.08826233009, -36424.514523090664, 0.51, -0.862, 0.156, 192.0, 0.0, 0.0, 0.0, 0.0, 0.0, 0.0, 0.0, 0.0, 0.0, 1.6635922819782748E9, 0.0, 2022-09-19 17:58:01.978
188.0, 4753.456086332332, -3193.192564629622, -75208.4568391391, -38856.20550587243, -64488.6719570961, -187500.02235174447, -49272.65486391245, -36440.741889565215, 0.51, -0.862, 0.156, 192.0, 0.0, 0.0, 0.0, 0.0, 0.0, 0.0, 0.0, 0.0, 0.0, 1.6635922819822793E9, 0.0, 2022-09-19 17:58:01.982
189.0, 4897.222506668867, -3125.176206252123, -75330.16208769823, -38937.074117311735, -64598.24020841601, -187500.02235174447, -49359.089059721126, -36555.4286903654, 0.51, -0.862, 0.156, 192.0, 0.0, 0.0, 0.0, 0.0, 0.0, 0.0, 0.0, 0.0, 0.0, 1.663592281985352E9, 0.0, 2022-09-19 17:58:01.985
190.0, 5075.947055333502, -3104.590249608785, -75460.02572298357, -39015.32757464976, -64713.79872724995, -187500.02235174447, -49510.25390747236, -36659.856040460596, 0.51, -0.86, 0.154, 192.0, 15.0, 240.0, 229.0, 32.0, 4.0, 208.0, 0.0, 0.0, 0.0, 1.6635922819893525E9, 0.0, 2022-09-19 17:58:01.989
191.0, 4937.8132745997045, -3202.267372878477, -75331.59259934338, -38897.53388137029, -64577.47543781703, -187500.02235174447, -49494.5853346092, -36534.641568021965, 0.51, -0.86, 0.154, 192.0, 0.0, 0.0, 0.0, 0.0, 0.0, 0.0, 0.0, 0.0, 0.0, 1.6635922819933088E9, 0.0, 2022-09-19 17:58:01.993
192.0, 4752.338499109566, -3224.775579544971, -75190.64249880821, -38763.266952427264, -64448.03648567635, -187500.02235174447, -49339.97831821183, -36401.87220595744, 0.51, -0.86, 0.154, 192.0, 0.0, 0.0, 0.0, 0.0, 0.0, 0.0, 0.0, 0.0, 0.0, 1.6635922819972646E9, 0.0, 2022-09-19 17:58:01.997
193.0, 4763.581426570586, -3178.239247589022, -75197.23626342253, -38785.86456607158, -64478.97130000249, -187500.02235174447, -49265.2787882422, -36427.68847080332, 0.51, -0.86, 0.154, 192.0, 0.0, 0.0, 0.0, 0.0, 0.0, 0.0, 0.0, 0.0, 0.0, 1.6635922820023606E9, 0.0, 2022-09-19 17:58:02.002
194.0, 4895.568477579174, -3118.8953660601815, -75290.6218517568, -38899.16555871553, -64598.754298538486, -187500.02235174447, -49285.70828267435, -36548.052614695145, 0.51, -0.86, 0.154, 192.0, 0.0, 0.0, 0.0, 0.0, 0.0, 0.0, 0.0, 0.0, 0.0, 1.6635922820063498E9, 0.0, 2022-09-19 17:58:02.006
195.0, 5064.3688517056535, -3107.9653630215366, -75403.7440304451, -39017.76391479539, -64708.926046958695, -187500.02235174447, -49399.99275207434, -36647.2496565878, 0.51, -0.86, 0.154, 192.0, 0.0, 0.0, 0.0, 0.0, 0.0, 0.0, 0.0, 0.0, 0.0, 1.66359228201033E9, 0.0, 2022-09-19 17:58:02.010
196.0, 4920.982411024858, -3211.0292567049573, -75277.79195043945, -38930.23448350841, -64576.670775016646, -187500.02235174447, -49382.13370825454, -36536.4744110673, 0.51, -0.86, 0.154, 192.0, 0.0, 0.0, 0.0, 0.0, 0.0, 0.0, 0.0, 0.0, 0.0, 1.6635922820133536E9, 0.0, 2022-09-19 17:58:02.013
197.0, 4731.998411655237, -3236.3537831728204, -75165.80971071837, -38809.33389774965, -64464.15209342863, -187500.02235174447, -49271.04553831167, -36432.18117143884, 0.51, -0.86, 0.154, 192.0, 0.0, 0.0, 0.0, 0.0, 0.0, 0.0, 0.0, 0.0, 0.0, 1.663592282017358E9, 0.0, 2022-09-19 17:58:02.017
198.0, 4732.736019222262, -3181.2567330904885, -75198.10798145628, -38800.63906915654, -64489.18604721857, -187500.02235174447, -49264.78704986418, -36445.79338381212, 0.51, -0.86, 0.154, 192.0, 0.0, 0.0, 0.0, 0.0, 0.0, 0.0, 0.0, 0.0, 0.0, 1.6635922820214283E9, 0.0, 2022-09-19 17:58:02.021
199.0, 4881.352768105598, -3124.9973922964805, -75314.5829218129, -38879.183099172486, -64606.97974049804, -187500.02235174447, -49335.597376298596, -36559.49670785626, 0.51, -0.86, 0.154, 192.0, 0.0, 0.0, 0.0, 0.0, 0.0, 0.0, 0.0, 0.0, 0.0, 1.6635922820253959E9, 0.0, 2022-09-19 17:58:02.025
200.0, 5058.378584191631, -3103.2491449414665, -75413.1541148608, -38983.141062634124, -64706.556762046435, -187500.02235174447, -49446.462028796916, -36663.09704340661, 0.502, -0.858, 0.158, 192.0, 15.0, 176.0, 229.0, 48.0, 4.0, 240.0, 0.0, 0.0, 0.0, 1.663592282030306E9, 0.0, 2022-09-19 17:58:02.030
201.0, 4907.169032951479, -3189.616285516773, -75306.15631415324, -38878.333732883184, -64562.14214112069, -187500.02235174447, -49500.642657356584, -36533.56868428811, 0.502, -0.858, 0.158, 192.0, 0.0, 0.0, 0.0, 0.0, 0.0, 0.0, 0.0, 0.0, 0.0, 1.6635922820343893E9, 0.0, 2022-09-19 17:58:02.034
202.0, 4774.42202263141, -3192.901991951703, -75215.34117643132, -38747.30780688617, -64457.33481136976, -187500.02235174447, -49440.76233396082, -36420.80413351108, 0.502, -0.858, 0.158, 192.0, 0.0, 0.0, 0.0, 0.0, 0.0, 0.0, 0.0, 0.0, 0.0, 1.6635922820384338E9, 0.0, 2022-09-19 17:58:02.038
203.0, 4779.831144789594, -3135.569767423841, -75205.77462980445, -38750.90643774348, -64490.79537281935, -187500.02235174447, -49304.14847184998, -36449.21320071378, 0.502, -0.858, 0.158, 192.0, 0.0, 0.0, 0.0, 0.0, 0.0, 0.0, 0.0, 0.0, 0.0, 1.6635922820413928E9, 0.0, 2022-09-19 17:58:02.041
204.0, 4894.54029733423, -3089.078138956802, -75301.70831700663, -38846.54955226774, -64611.338330666826, -187500.02235174447, -49283.74132916228, -36553.84171650907, 0.502, -0.858, 0.158, 192.0, 0.0, 0.0, 0.0, 0.0, 0.0, 0.0, 0.0, 0.0, 0.0, 1.6635922820454056E9, 0.0, 2022-09-19 17:58:02.045
205.0, 5034.708086813461, -3095.9624762490366, -75402.53703624452, -38951.75921341887, -64709.23897138107, -187500.02235174447, -49390.336798469645, -36640.43237452893, 0.502, -0.858, 0.158, 192.0, 0.0, 0.0, 0.0, 0.0, 0.0, 0.0, 0.0, 0.0, 0.0, 1.6635922820493417E9, 0.0, 2022-09-19 17:58:02.049
206.0, 4870.802744722694, -3195.8971257087146, -75259.97761010857, -38834.47961026187, -64560.35400156427, -187500.02235174447, -49356.853885275596, -36515.486123023766, 0.502, -0.858, 0.158, 192.0, 0.0, 0.0, 0.0, 0.0, 0.0, 0.0, 0.0, 0.0, 0.0, 1.6635922820534575E9, 0.0, 2022-09-19 17:58:02.053
207.0, 4703.45523398581, -3203.8319949903484, -75165.76500722945, -38734.81318173566, -64455.83724449125, -187500.02235174447, -49267.87159059902, -36420.848837, 0.502, -0.858, 0.158, 192.0, 0.0, 0.0, 0.0, 0.0, 0.0, 0.0, 0.0, 0.0, 0.0, 1.6635922820574596E9, 0.0, 2022-09-19 17:58:02.057
208.0, 4727.349248808533, -3131.2558807439664, -75208.97092926156, -38757.053167468686, -64492.44940190905, -187500.02235174447, -49282.534334961696, -36451.448375159314, 0.502, -0.858, 0.158, 192.0, 0.0, 0.0, 0.0, 0.0, 0.0, 0.0, 0.0, 0.0, 0.0, 1.6635922820624647E9, 0.0, 2022-09-19 17:58:02.062
209.0, 4882.269189628267, -3062.948949688548, -75333.44779413317, -38866.42025308851, -64611.539496366924, -187500.02235174447, -49342.95110022439, -36569.107957972046, 0.502, -0.858, 0.158, 192.0, 0.0, 0.0, 0.0, 0.0, 0.0, 0.0, 0.0, 0.0, 0.0, 1.6635922820664375E9, 0.0, 2022-09-19 17:58:02.066
210.0, 5027.488473354397, -3078.215191151523, -75430.92375170277, -38972.367521806664, -64705.97561669059, -187500.02235174447, -49446.97611891939, -36664.97458994086, 0.512, -0.86, 0.156, 192.0, 16.0, 0.0, 229.0, 32.0, 4.0, 224.0, 0.0, 0.0, 0.0, 1.663592282069904E9, 0.0, 2022-09-19 17:58:02.069
211.0, 4858.621043994552, -3191.7844047289377, -75284.6762877317, -38846.63895924556, -64556.01776313994, -187500.02235174447, -49413.26968828079, -36515.687288723864, 0.512, -0.86, 0.156, 192.0, 0.0, 0.0, 0.0, 0.0, 0.0, 0.0, 0.0, 0.0, 0.0, 1.6635922820737207E9, 0.0, 2022-09-19 17:58:02.073
212.0, 4717.492129503743, -3212.7950445169267, -75184.65223129418, -38738.21064689287, -64455.45726483551, -187500.02235174447, -49302.71796020484, -36405.11320890346, 0.512, -0.86, 0.156, 192.0, 0.0, 0.0, 0.0, 0.0, 0.0, 0.0, 0.0, 0.0, 0.0, 1.663592282079462E9, 0.0, 2022-09-19 17:58:02.079
213.0, 4751.578539798086, -3158.1897328126115, -75216.3023014429, -38776.29801944471, -64489.23075070748, -187500.02235174447, -49284.836564640595, -36429.32014814856, 0.512, -0.86, 0.156, 192.0, 0.0, 0.0, 0.0, 0.0, 0.0, 0.0, 0.0, 0.0, 0.0, 1.6635922820824456E9, 0.0, 2022-09-19 17:58:02.082
214.0, 4908.398378896521, -3106.4901478874863, -75328.48570686408, -38899.05379999326, -64606.35389165329, -187500.02235174447, -49323.72859999283, -36551.11480368552, 0.512, -0.86, 0.156, 192.0, 0.0, 0.0, 0.0, 0.0, 0.0, 0.0, 0.0, 0.0, 0.0, 1.6635922820853992E9, 0.0, 2022-09-19 17:58:02.085
215.0, 5053.125924244634, -3126.8972905751816, -75412.57296950495, -39006.49863558992, -64687.84835193734, -187500.02235174447, -49417.40476100502, -36642.75695595228, 0.512, -0.86, 0.156, 192.0, 0.0, 0.0, 0.0, 0.0, 0.0, 0.0, 0.0, 0.0, 0.0, 1.663592282090538E9, 0.0, 2022-09-19 17:58:02.090
216.0, 4873.708471501884, -3229.625908091773, -75255.35079900632, -38891.58831734518, -64532.81665239533, -187500.02235174447, -49364.65464409049, -36494.96722161379, 0.512, -0.86, 0.156, 192.0, 0.0, 0.0, 0.0, 0.0, 0.0, 0.0, 0.0, 0.0, 0.0, 1.663592282094498E9, 0.0, 2022-09-19 17:58:02.094
217.0, 4717.737998692751, -3232.6657453376947, -75162.07696939433, -38795.855795843105, -64445.95777344201, -187500.02235174447, -49258.975596305805, -36400.21817686775, 0.512, -0.86, 0.156, 192.0, 0.0, 0.0, 0.0, 0.0, 0.0, 0.0, 0.0, 0.0, 0.0, 1.6635922820975244E9, 0.0, 2022-09-19 17:58:02.097
218.0, 4736.871091946494, -3175.8252591878486, -75195.20225467709, -38812.66430767349, -64479.686555825065, -187500.02235174447, -49244.64812810995, -36430.57184583805, 0.512, -0.86, 0.156, 192.0, 0.0, 0.0, 0.0, 0.0, 0.0, 0.0, 0.0, 0.0, 0.0, 1.663592282101455E9, 0.0, 2022-09-19 17:58:02.101
219.0, 4888.72884377585, -3105.4172641536315, -75322.00370097205, -38922.05374503777, -64605.88450501973, -187500.02235174447, -49315.01141965526, -36553.55114383115, 0.512, -0.86, 0.156, 192.0, 0.0, 0.0, 0.0, 0.0, 0.0, 0.0, 0.0, 0.0, 0.0, 1.663592282105618E9, 0.0, 2022-09-19 17:58:02.105
220.0, 5001.1804701305, -3106.1995752095672, -75398.31255654247, -39007.325650134764, -64679.73466870006, -187500.02235174447, -49420.35519127312, -36629.61413021256, 0.512, -0.864, 0.156, 192.0, 16.0, 0.0, 229.0, 0.0, 4.0, 224.0, 0.0, 0.0, 0.0, 1.6635922821094673E9, 0.0, 2022-09-19 17:58:02.109
221.0, 4792.571639129119, -3209.0623031928903, -75245.3148657459, -38879.20545091694, -64524.859431369245, -187500.02235174447, -49370.53315288224, -36491.4132942454, 0.512, -0.864, 0.156, 192.0, 0.0, 0.0, 0.0, 0.0, 0.0, 0.0, 0.0, 0.0, 0.0, 1.6635922821135032E9, 0.0, 2022-09-19 17:58:02.113
222.0, 4637.942270987305, -3208.615268303784, -75156.73490246951, -38790.02199054027, -64432.94905816902, -187500.02235174447, -49268.11745978802, -36410.58938629501, 0.512, -0.864, 0.156, 192.0, 0.0, 0.0, 0.0, 0.0, 0.0, 0.0, 0.0, 0.0, 0.0, 1.66359228211748E9, 0.0, 2022-09-19 17:58:02.117
223.0, 4664.272625955657, -3140.107171548268, -75203.78532454793, -38827.8634939031, -64476.44555287905, -187500.02235174447, -49270.88907610048, -36444.69814833381, 0.512, -0.864, 0.156, 192.0, 0.0, 0.0, 0.0, 0.0, 0.0, 0.0, 0.0, 0.0, 0.0, 1.663592282122691E9, 0.0, 2022-09-19 17:58:02.122
224.0, 4821.4724447098315, -3066.525228801397, -75337.9851982576, -38935.241274266395, -64606.04096723092, -187500.02235174447, -49351.109486950576, -36564.905830014446, 0.512, -0.864, 0.156, 192.0, 0.0, 0.0, 0.0, 0.0, 0.0, 0.0, 0.0, 0.0, 0.0, 1.663592282125648E9, 0.0, 2022-09-19 17:58:02.125
225.0, 4930.906585563014, -3072.068461426313, -75412.08123112694, -39014.321746149275, -64667.105933082814, -187500.02235174447, -49470.154877919544, -36628.11656333406, 0.512, -0.864, 0.156, 192.0, 0.0, 0.0, 0.0, 0.0, 0.0, 0.0, 0.0, 0.0, 0.0, 1.663592282129635E9, 0.0, 2022-09-19 17:58:02.129
226.0, 4734.635917500963, -3166.6610439611727, -75265.02910435548, -38889.040218477276, -64514.13059403069, -187500.02235174447, -49430.70404895593, -36484.08192206406, 0.512, -0.864, 0.156, 192.0, 0.0, 0.0, 0.0, 0.0, 0.0, 0.0, 0.0, 0.0, 0.0, 1.6635922821335375E9, 0.0, 2022-09-19 17:58:02.133
227.0, 4612.5059857971655, -3156.043965344902, -75185.5463010724, -38783.58468813714, -64443.968468185485, -187500.02235174447, -49312.28450683171, -36399.1899966228, 0.512, -0.864, 0.156, 192.0, 0.0, 0.0, 0.0, 0.0, 0.0, 0.0, 0.0, 0.0, 0.0, 1.6635922821376638E9, 0.0, 2022-09-19 17:58:02.137
228.0, 4664.451439911299, -3103.8526420417597, -75211.4519728961, -38800.30379298971, -64499.17727699009, -187500.02235174447, -49271.09024180058, -36434.371642395454, 0.512, -0.864, 0.156, 192.0, 0.0, 0.0, 0.0, 0.0, 0.0, 0.0, 0.0, 0.0, 0.0, 1.6635922821416044E9, 0.0, 2022-09-19 17:58:02.141
229.0, 4836.470465239342, -3047.012155891914, -75338.78986105799, -38925.250044494875, -64645.42474096117, -187500.02235174447, -49327.64015527251, -36573.444196396376, 0.512, -0.864, 0.156, 192.0, 0.0, 0.0, 0.0, 0.0, 0.0, 0.0, 0.0, 0.0, 0.0, 1.6635922821455805E9, 0.0, 2022-09-19 17:58:02.145
230.0, 4941.546015923741, -3071.2190951370117, -75401.24063506612, -39007.21389141249, -64717.55382031844, -187500.02235174447, -49423.327973285675, -36639.06891811716, 0.51, -0.858, 0.152, 192.0, 15.0, 240.0, 229.0, 48.0, 4.0, 192.0, 0.0, 0.0, 0.0, 1.6635922821505656E9, 0.0, 2022-09-19 17:58:02.150
231.0, 4743.666022260907, -3182.9331139246365, -75246.32069424637, -38863.29100886476, -64561.22571959803, -187500.02235174447, -49371.69544359392, -36483.47842496377, 0.51, -0.858, 0.152, 192.0, 0.0, 0.0, 0.0, 0.0, 0.0, 0.0, 0.0, 0.0, 0.0, 1.6635922821537182E9, 0.0, 2022-09-19 17:58:02.153
232.0, 4628.912166227361, -3179.6697592341616, -75168.42486481964, -38748.78302202022, -64489.409564663125, -187500.02235174447, -49270.777317378204, -36396.79835996609, 0.51, -0.858, 0.152, 192.0, 0.0, 0.0, 0.0, 0.0, 0.0, 0.0, 0.0, 0.0, 0.0, 1.663592282157585E9, 0.0, 2022-09-19 17:58:02.157
233.0, 4673.59330339352, -3119.565918393841, -75204.47822862605, -38769.368978663566, -64529.91092561614, -187500.02235174447, -49256.248683482256, -36432.136467949924, 0.51, -0.858, 0.152, 192.0, 0.0, 0.0, 0.0, 0.0, 0.0, 0.0, 0.0, 0.0, 0.0, 1.6635922821615944E9, 0.0, 2022-09-19 17:58:02.161
234.0, 4860.34212831761, -3063.753612488939, -75338.4322331467, -38890.49308186687, -64665.921290626684, -187500.02235174447, -49320.66641100245, -36563.587077091586, 0.51, -0.858, 0.152, 192.0, 0.0, 0.0, 0.0, 0.0, 0.0, 0.0, 0.0, 0.0, 0.0, 1.6635922821655674E9, 0.0, 2022-09-19 17:58:02.165
235.0, 4957.929844609481, -3104.143214719679, -75393.57398671794, -38961.63868446812, -64721.19715466466, -187500.02235174447, -49407.27942076677, -36633.838609914616, 0.51, -0.858, 0.152, 192.0, 0.0, 0.0, 0.0, 0.0, 0.0, 0.0, 0.0, 0.0, 0.0, 1.6635922821696527E9, 0.0, 2022-09-19 17:58:02.169
236.0, 4749.65628977493, -3234.0292017494685, -75222.78430733494, -38830.67981370447, -64546.7864926799, -187500.02235174447, -49329.58475704012, -36463.36185495399, 0.51, -0.858, 0.152, 192.0, 0.0, 0.0, 0.0, 0.0, 0.0, 0.0, 0.0, 0.0, 0.0, 1.6635922821735744E9, 0.0, 2022-09-19 17:58:02.173
237.0, 4637.495236098199, -3272.5412574459624, -75157.07017863634, -38755.24267616781, -64475.75264880093, -187500.02235174447, -49238.59080536256, -36397.64772625539, 0.51, -0.858, 0.152, 192.0, 0.0, 0.0, 0.0, 0.0, 0.0, 0.0, 0.0, 0.0, 0.0, 1.663592282178576E9, 0.0, 2022-09-19 17:58:02.178
238.0, 4696.302675760112, -3257.1185537718006, -75210.69201358462, -38783.36117069259, -64521.283152256394, -187500.02235174447, -49247.285633955675, -36442.17240121036, 0.51, -0.858, 0.152, 192.0, 0.0, 0.0, 0.0, 0.0, 0.0, 0.0, 0.0, 0.0, 0.0, 1.6635922821815708E9, 0.0, 2022-09-19 17:58:02.181
239.0, 4887.946532719914, -3245.629757121773, -75356.04540777748, -38909.49206465388, -64663.17202605868, -187500.02235174447, -49335.61972804305, -36567.38687364899, 0.51, -0.858, 0.152, 192.0, 0.0, 0.0, 0.0, 0.0, 0.0, 0.0, 0.0, 0.0, 0.0, 1.663592282185563E9, 0.0, 2022-09-19 17:58:02.185
240.0, 4982.27089432131, -3350.0124037280566, -75398.58077747593, -38971.20523109499, -64705.23800912357, -187500.02235174447, -49419.72934242837, -36613.207949782365, 0.512, -0.86, 0.158, 192.0, 16.0, 0.0, 229.0, 32.0, 4.0, 240.0, 0.0, 0.0, 0.0, 1.6635922821895971E9, 0.0, 2022-09-19 17:58:02.189
241.0, 4770.286949907178, -3507.8157195825247, -75225.15359224721, -38828.80226717023, -64534.44832974057, -187500.02235174447, -49330.00944018477, -36454.97995078325, 0.512, -0.86, 0.158, 192.0, 0.0, 0.0, 0.0, 0.0, 0.0, 0.0, 0.0, 0.0, 0.0, 1.6635922821937065E9, 0.0, 2022-09-19 17:58:02.193
242.0, 4660.182256720335, -3531.88854836089, -75167.06140840786, -38758.103699458086, -64470.00825047592, -187500.02235174447, -49237.40616290643, -36394.76435122065, 0.512, -0.86, 0.158, 192.0, 0.0, 0.0, 0.0, 0.0, 0.0, 0.0, 0.0, 0.0, 0.0, 1.6635922821975863E9, 0.0, 2022-09-19 17:58:02.197
243.0, 4717.447426014832, -3503.613591624927, -75225.13124050274, -38800.616717412086, -64505.39106194867, -187500.02235174447, -49249.386697934475, -36449.16849722487, 0.512, -0.86, 0.158, 192.0, 0.0, 0.0, 0.0, 0.0, 0.0, 0.0, 0.0, 0.0, 0.0, 1.6635922822015965E9, 0.0, 2022-09-19 17:58:02.201
244.0, 4911.773492309272, -3476.4562221117285, -75371.13283528482, -38926.99348056239, -64626.73868259653, -187500.02235174447, -49339.53128332273, -36580.2838301997, 0.512, -0.86, 0.158, 192.0, 0.0, 0.0, 0.0, 0.0, 0.0, 0.0, 0.0, 0.0, 0.0, 1.6635922822067397E9, 0.0, 2022-09-19 17:58:02.206
245.0, 4993.625580504606, -3540.024583342622, -75404.88396941233, -38964.72322520295, -64635.254697234006, -187500.02235174447, -49428.848854166135, -36613.72203990484, 0.512, -0.86, 0.158, 192.0, 0.0, 0.0, 0.0, 0.0, 0.0, 0.0, 0.0, 0.0, 0.0, 1.6635922822096798E9, 0.0, 2022-09-19 17:58:02.209
246.0, 4775.450202876354, -3659.0923260560426, -75236.32946447485, -38818.296947276234, -64447.79061648734, -187500.02235174447, -49359.781963799236, -36450.7554710812, 0.512, -0.86, 0.158, 192.0, 0.0, 0.0, 0.0, 0.0, 0.0, 0.0, 0.0, 0.0, 0.0, 1.6635922822136421E9, 0.0, 2022-09-19 17:58:02.213
247.0, 4680.3658819634775, -3648.922282328878, -75183.48994058251, -38740.33406261612, -64379.48368543192, -187500.02235174447, -49281.95318960586, -36387.76825520614, 0.512, -0.86, 0.158, 192.0, 0.0, 0.0, 0.0, 0.0, 0.0, 0.0, 0.0, 0.0, 0.0, 1.6635922822177055E9, 0.0, 2022-09-19 17:58:02.217
248.0, 4739.910929192416, -3581.8446972185016, -75233.26727548448, -38768.11728097407, -64426.66821797708, -187500.02235174447, -49276.454660469855, -36445.59221811202, 0.512, -0.86, 0.158, 192.0, 0.0, 0.0, 0.0, 0.0, 0.0, 0.0, 0.0, 0.0, 0.0, 1.6635922822216663E9, 0.0, 2022-09-19 17:58:02.221
249.0, 4928.492597161841, -3524.154844779354, -75370.01524806205, -38874.06454969222, -64568.91471969065, -187500.02235174447, -49340.29124263421, -36578.1827662209, 0.512, -0.86, 0.158, 192.0, 0.0, 0.0, 0.0, 0.0, 0.0, 0.0, 0.0, 0.0, 0.0, 1.663592282225642E9, 0.0, 2022-09-19 17:58:02.225
250.0, 4984.84134493367, -3578.2237146167417, -75390.98118436112, -38918.23159673591, -64591.08765019032, -187500.02235174447, -49412.04034233574, -36601.45093219887, 0.514, -0.856, 0.158, 192.0, 16.0, 16.0, 229.0, 64.0, 4.0, 240.0, 0.0, 0.0, 0.0, 1.6635922822306764E9, 0.0, 2022-09-19 17:58:02.230
251.0, 4766.353042883044, -3681.756994933724, -75221.13027824525, -38784.47875791535, -64424.63420923164, -187500.02235174447, -49320.979335424825, -36457.28218046215, 0.514, -0.856, 0.158, 192.0, 0.0, 0.0, 0.0, 0.0, 0.0, 0.0, 0.0, 0.0, 0.0, 1.6635922822336712E9, 0.0, 2022-09-19 17:58:02.233
252.0, 4683.115146531481, -3654.4208114648836, -75173.31989685535, -38722.43031530742, -64377.40497319758, -187500.02235174447, -49237.4732181398, -36404.465008314255, 0.514, -0.856, 0.158, 192.0, 0.0, 0.0, 0.0, 0.0, 0.0, 0.0, 0.0, 0.0, 0.0, 1.663592282236801E9, 0.0, 2022-09-19 17:58:02.236
253.0, 4749.097496163547, -3596.2168689032637, -75231.88146732825, -38766.7985280512, -64441.7109419955, -187500.02235174447, -49247.24093046677, -36461.03727353064, 0.514, -0.856, 0.158, 192.0, 0.0, 0.0, 0.0, 0.0, 0.0, 0.0, 0.0, 0.0, 0.0, 1.663592282240704E9, 0.0, 2022-09-19 17:58:02.240
254.0, 4953.794771885249, -3543.623214199926, -75377.07839930993, -38891.81183478973, -64587.95840596657, -187500.02235174447, -49343.04050720221, -36591.05737102716, 0.514, -0.856, 0.158, 192.0, 0.0, 0.0, 0.0, 0.0, 0.0, 0.0, 0.0, 0.0, 0.0, 1.663592282245685E9, 0.0, 2022-09-19 17:58:02.245
255.0, 5027.264955909844, -3596.2615723921745, -75402.60409147789, -38936.157695789065, -64600.721252050556, -187500.02235174447, -49456.185037634976, -36605.138970034, 0.514, -0.856, 0.158, 192.0, 0.0, 0.0, 0.0, 0.0, 0.0, 0.0, 0.0, 0.0, 0.0, 1.6635922822497E9, 0.0, 2022-09-19 17:58:02.249
0.0, 4813.448168450376, -3685.668550213403, -75229.33336846034, -38791.027819040755, -64429.46218603399, -187500.02235174447, -49361.458344633385, -36461.28314271964, 0.514, -0.856, 0.158, 192.0, 0.0, 0.0, 0.0, 0.0, 0.0, 0.0, 0.0, 0.0, 0.0, 1.6635922822537527E9, 0.0, 2022-09-19 17:58:02.253
1.0, 4718.185033581857, -3660.589892934548, -75174.9962776895, -38741.63046379453, -64388.536141936325, -187500.02235174447, -49243.91052054292, -36418.83717999902, 0.514, -0.856, 0.158, 192.0, 0.0, 0.0, 0.0, 0.0, 0.0, 0.0, 0.0, 0.0, 0.0, 1.66359228225771E9, 0.0, 2022-09-19 17:58:02.257
2.0, 4777.640673832974, -3600.8436800055124, -75225.39946143622, -38778.644952612514, -64445.13075889716, -187500.02235174447, -49234.45573263833, -36463.69713112082, 0.514, -0.856, 0.158, 192.0, 0.0, 0.0, 0.0, 0.0, 0.0, 0.0, 0.0, 0.0, 0.0, 1.663592282261735E9, 0.0, 2022-09-19 17:58:02.261
3.0, 4971.229132560388, -3549.2335020582086, -75369.72467538413, -38895.343410413676, -64592.048775201896, -187500.02235174447, -49312.75389346527, -36595.14774026248, 0.514, -0.856, 0.158, 192.0, 0.0, 0.0, 0.0, 0.0, 0.0, 0.0, 0.0, 0.0, 0.0, 1.6635922822647169E9, 0.0, 2022-09-19 17:58:02.264
4.0, 5011.126996413112, -3608.6220870759594, -75375.46907370914, -38917.94102405799, -64601.39180438421, -187500.02235174447, -49386.425243189966, -36596.98058330781, 0.512, -0.86, 0.152, 192.0, 16.0, 0.0, 229.0, 32.0, 4.0, 192.0, 0.0, 0.0, 0.0, 1.6635922822697153E9, 0.0, 2022-09-19 17:58:02.269
5.0, 4776.031348232192, -3712.2224226263074, -75199.6949553126, -38763.22224893836, -64426.489404021435, -187500.02235174447, -49297.487652002295, -36435.153953451394, 0.512, -0.86, 0.152, 192.0, 0.0, 0.0, 0.0, 0.0, 0.0, 0.0, 0.0, 0.0, 0.0, 1.6635922822737684E9, 0.0, 2022-09-19 17:58:02.273
6.0, 4701.085949073547, -3684.4392042683608, -75163.97686767303, -38713.69078322539, -64389.63137741463, -187500.02235174447, -49225.24681392274, -36400.93343269032, 0.512, -0.86, 0.152, 192.0, 0.0, 0.0, 0.0, 0.0, 0.0, 0.0, 0.0, 0.0, 0.0, 1.6635922822778025E9, 0.0, 2022-09-19 17:58:02.277
7.0, 4775.13727845398, -3629.6774303528587, -75229.57923764935, -38771.76061532028, -64462.40865736111, -187500.02235174447, -49242.256491453234, -36466.93813406684, 0.512, -0.86, 0.152, 192.0, 0.0, 0.0, 0.0, 0.0, 0.0, 0.0, 0.0, 0.0, 0.0, 1.66359228228175E9, 0.0, 2022-09-19 17:58:02.281
8.0, 4986.517725767819, -3582.7834704856245, -75375.58083243143, -38910.3861344321, -64614.10994697928, -187500.02235174447, -49332.06580067466, -36604.78134212272, 0.512, -0.86, 0.152, 192.0, 0.0, 0.0, 0.0, 0.0, 0.0, 0.0, 0.0, 0.0, 0.0, 1.6635922822857766E9, 0.0, 2022-09-19 17:58:02.285
9.0, 5025.409761120053, -3645.1001340270204, -75381.54874820099, -38950.03812909581, -64619.429662159644, -187500.02235174447, -49406.92179285548, -36611.48686545931, 0.512, -0.86, 0.152, 192.0, 0.0, 0.0, 0.0, 0.0, 0.0, 0.0, 0.0, 0.0, 0.0, 1.6635922822897456E9, 0.0, 2022-09-19 17:58:02.289
10.0, 4808.061398036647, -3731.489626346782, -75212.88248454125, -38814.47479897437, -64444.37079958568, -187500.02235174447, -49314.74319872179, -36444.944017522816, 0.512, -0.86, 0.152, 192.0, 0.0, 0.0, 0.0, 0.0, 0.0, 0.0, 0.0, 0.0, 0.0, 1.6635922822927735E9, 0.0, 2022-09-19 17:58:02.292
11.0, 4741.721420493295, -3706.075692901098, -75188.72024878506, -38781.1036445026, -64413.30187479281, -187500.02235174447, -49258.64032013897, -36412.53398806262, 0.512, -0.86, 0.152, 192.0, 0.0, 0.0, 0.0, 0.0, 0.0, 0.0, 0.0, 0.0, 0.0, 1.6635922822967827E9, 0.0, 2022-09-19 17:58:02.296
12.0, 4829.116741313546, -3649.2352067512525, -75269.3653427798, -38852.0704331482, -64480.37945990318, -187500.02235174447, -49308.79763469668, -36486.87589012097, 0.512, -0.86, 0.152, 192.0, 0.0, 0.0, 0.0, 0.0, 0.0, 0.0, 0.0, 0.0, 0.0, 1.6635922823017623E9, 0.0, 2022-09-19 17:58:02.301
13.0, 5040.8324647942145, -3591.500650823194, -75411.47773402664, -39004.755199522406, -64627.58804888583, -187500.02235174447, -49390.00152230281, -36634.24094131481, 0.512, -0.86, 0.152, 192.0, 0.0, 0.0, 0.0, 0.0, 0.0, 0.0, 0.0, 0.0, 0.0, 1.6635922823058E9, 0.0, 2022-09-19 17:58:02.305
14.0, 5036.51857811434, -3668.055375582621, -75385.70617266967, -38991.18769063803, -64604.83397303033, -187500.02235174447, -49423.752656430326, -36625.61316795506, 0.516, -0.858, 0.15, 192.0, 16.0, 32.0, 229.0, 48.0, 4.0, 176.0, 0.0, 0.0, 0.0, 1.6635922823097951E9, 0.0, 2022-09-19 17:58:02.309
15.0, 4810.944773071382, -3767.3865279420056, -75212.01076650749, -38822.901406634024, -64426.914087166086, -187500.02235174447, -49316.2407656003, -36451.82835481505, 0.516, -0.858, 0.15, 192.0, 0.0, 0.0, 0.0, 0.0, 0.0, 0.0, 0.0, 0.0, 0.0, 1.6635922823138103E9, 0.0, 2022-09-19 17:58:02.313
16.0, 4742.548435038142, -3739.648013072969, -75179.37721960274, -38794.22411849786, -64405.97050261146, -187500.02235174447, -49218.65304930843, -36421.385278866925, 0.516, -0.858, 0.15, 192.0, 0.0, 0.0, 0.0, 0.0, 0.0, 0.0, 0.0, 0.0, 0.0, 1.663592282317895E9, 0.0, 2022-09-19 17:58:02.317
17.0, 4815.5492324291745, -3677.2195908092967, -75247.72885414706, -38848.09182263516, -64476.60201509023, -187500.02235174447, -49225.22446217829, -36486.5629656986, 0.516, -0.858, 0.15, 192.0, 0.0, 0.0, 0.0, 0.0, 0.0, 0.0, 0.0, 0.0, 0.0, 1.6635922823208375E9, 0.0, 2022-09-19 17:58:02.320
18.0, 5025.476816353419, -3623.9777355167553, -75382.3981144903, -38974.267420085365, -64618.043854003416, -187500.02235174447, -49311.23397484231, -36616.33719400611, 0.516, -0.858, 0.15, 192.0, 0.0, 0.0, 0.0, 0.0, 0.0, 0.0, 0.0, 0.0, 0.0, 1.6635922823248355E9, 0.0, 2022-09-19 17:58:02.324
19.0, 5038.865511282148, -3679.4771169992828, -75358.4370444342, -38976.12261487515, -64593.88161824723, -187500.02235174447, -49380.30086520921, -36594.544243162185, 0.516, -0.858, 0.15, 192.0, 0.0, 0.0, 0.0, 0.0, 0.0, 0.0, 0.0, 0.0, 0.0, 1.6635922823288555E9, 0.0, 2022-09-19 17:58:02.328
20.0, 4817.940869085893, -3757.4176499149385, -75195.55988258838, -38833.38437478356, -64431.47384303497, -187500.02235174447, -49288.4351954979, -36431.73413654973, 0.516, -0.858, 0.15, 192.0, 0.0, 0.0, 0.0, 0.0, 0.0, 0.0, 0.0, 0.0, 0.0, 1.6635922823338485E9, 0.0, 2022-09-19 17:58:02.333
21.0, 4756.853551489538, -3717.3409721065727, -75169.65421076468, -38814.56420595219, -64410.59731371371, -187500.02235174447, -49213.75801727272, -36413.137485162915, 0.516, -0.858, 0.15, 192.0, 0.0, 0.0, 0.0, 0.0, 0.0, 0.0, 0.0, 0.0, 0.0, 1.663592282337845E9, 0.0, 2022-09-19 17:58:02.337
22.0, 4839.912633885459, -3650.5986631630262, -75239.6598743987, -38869.325979867695, -64488.359032673725, -187500.02235174447, -49230.3206599141, -36493.71552392429, 0.516, -0.858, 0.15, 192.0, 0.0, 0.0, 0.0, 0.0, 0.0, 0.0, 0.0, 0.0, 0.0, 1.66359228234191E9, 0.0, 2022-09-19 17:58:02.341
23.0, 5048.253243953377, -3599.7931480161133, -75392.29993728398, -38992.41703658307, -64642.161386270694, -187500.02235174447, -49340.67122228995, -36630.32938603513, 0.516, -0.858, 0.15, 192.0, 0.0, 0.0, 0.0, 0.0, 0.0, 0.0, 0.0, 0.0, 0.0, 1.6635922823449557E9, 0.0, 2022-09-19 17:58:02.344
24.0, 5047.225063708433, -3664.859076125512, -75363.64500089228, -38972.63574274012, -64609.25961843248, -187500.02235174447, -49404.41839747648, -36601.51798743224, 0.52, -0.864, 0.156, 192.0, 16.0, 64.0, 229.0, 0.0, 4.0, 224.0, 0.0, 0.0, 0.0, 1.6635922823489172E9, 0.0, 2022-09-19 17:58:02.348
25.0, 4824.981668589315, -3741.637318329492, -75200.92430125765, -38827.19294156945, -64453.713828768, -187500.02235174447, -49314.1397016215, -36449.481421647244, 0.52, -0.864, 0.156, 192.0, 0.0, 0.0, 0.0, 0.0, 0.0, 0.0, 0.0, 0.0, 0.0, 1.6635922823529122E9, 0.0, 2022-09-19 17:58:02.352
26.0, 4781.306359923645, -3693.5810677505815, -75183.89227198271, -38798.60506041111, -64445.13075889716, -187500.02235174447, -49257.79095384967, -36431.667081316366, 0.52, -0.864, 0.156, 192.0, 0.0, 0.0, 0.0, 0.0, 0.0, 0.0, 0.0, 0.0, 0.0, 1.663592282357022E9, 0.0, 2022-09-19 17:58:02.357
27.0, 4855.2459305818, -3646.8435700945342, -75254.8143571394, -38860.89937220805, -64521.90900110114, -187500.02235174447, -49276.92404710341, -36497.64943094843, 0.52, -0.864, 0.156, 192.0, 0.0, 0.0, 0.0, 0.0, 0.0, 0.0, 0.0, 0.0, 0.0, 1.6635922823620217E9, 0.0, 2022-09-19 17:58:02.362
28.0, 5041.748886316882, -3630.303279197607, -75403.87814091184, -38988.19255688102, -64662.74734291403, -187500.02235174447, -49385.19589724492, -36626.708403433375, 0.52, -0.864, 0.156, 192.0, 0.0, 0.0, 0.0, 0.0, 0.0, 0.0, 0.0, 0.0, 0.0, 1.6635922823659585E9, 0.0, 2022-09-19 17:58:02.365
29.0, 5039.379601404619, -3702.8123382106232, -75357.31945721143, -38975.027379396844, -64613.03706324543, -187500.02235174447, -49427.28423205426, -36583.68129535691, 0.52, -0.864, 0.156, 192.0, 0.0, 0.0, 0.0, 0.0, 0.0, 0.0, 0.0, 0.0, 0.0, 1.663592282369953E9, 0.0, 2022-09-19 17:58:02.369
30.0, 4839.890282141004, -3771.499248921782, -75183.06525743786, -38827.12588633608, -64446.360104842206, -187500.02235174447, -49296.28065780171, -36432.69526156131, 0.52, -0.864, 0.156, 192.0, 0.0, 0.0, 0.0, 0.0, 0.0, 0.0, 0.0, 0.0, 0.0, 1.663592282373026E9, 0.0, 2022-09-19 17:58:02.373
31.0, 4790.448223405865, -3729.880300746, -75162.85928045027, -38804.371810480574, -64429.32807556726, -187500.02235174447, -49223.659840066415, -36415.506770075175, 0.52, -0.864, 0.156, 192.0, 0.0, 0.0, 0.0, 0.0, 0.0, 0.0, 0.0, 0.0, 0.0, 1.6635922823768952E9, 0.0, 2022-09-19 17:58:02.376
32.0, 4881.911561716982, -3663.8979511139337, -75232.03792953944, -38890.73895105588, -64501.077175268794, -187500.02235174447, -49238.121418729, -36486.07122732058, 0.52, -0.864, 0.156, 192.0, 0.0, 0.0, 0.0, 0.0, 0.0, 0.0, 0.0, 0.0, 0.0, 1.6635922823810303E9, 0.0, 2022-09-19 17:58:02.381
33.0, 5095.281314287343, -3603.9058689958897, -75373.68093415273, -39040.13801099516, -64642.6084211598, -187500.02235174447, -49337.4972745773, -36631.804601169184, 0.52, -0.864, 0.156, 192.0, 0.0, 0.0, 0.0, 0.0, 0.0, 0.0, 0.0, 0.0, 0.0, 1.663592282384992E9, 0.0, 2022-09-19 17:58:02.384
34.0, 5064.502962172385, -3660.7240034012802, -75323.34480563937, -39015.84166477223, -64586.14791466569, -187500.02235174447, -49377.261027963286, -36585.871766313525, 0.52, -0.864, 0.156, 192.0, 0.0, 0.0, 0.0, 0.0, 0.0, 0.0, 0.0, 0.0, 0.0, 1.6635922823900404E9, 0.0, 2022-09-19 17:58:02.390
35.0, 4834.749380916283, -3727.30985013364, -75176.27032712345, -38878.87017475011, -64435.63126750365, -187500.02235174447, -49274.10772730204, -36440.2501511872, 0.514, -0.86, 0.152, 192.0, 16.0, 16.0, 229.0, 32.0, 4.0, 192.0, 0.0, 0.0, 0.0, 1.6635922823939495E9, 0.0, 2022-09-19 17:58:02.393
36.0, 4792.571639129119, -3683.6121897235143, -75174.66100152266, -38857.9712936844, -64435.54186052583, -187500.02235174447, -49225.02329647819, -36437.92556976385, 0.514, -0.86, 0.152, 192.0, 0.0, 0.0, 0.0, 0.0, 0.0, 0.0, 0.0, 0.0, 0.0, 1.6635922823981197E9, 0.0, 2022-09-19 17:58:02.398
37.0, 4897.088396202135, -3609.7173225542692, -75264.15738632172, -38931.620291664636, -64535.67767568561, -187500.02235174447, -49259.802610850646, -36527.13138188498, 0.514, -0.86, 0.152, 192.0, 0.0, 0.0, 0.0, 0.0, 0.0, 0.0, 0.0, 0.0, 0.0, 1.6635922824009871E9, 0.0, 2022-09-19 17:58:02.400
38.0, 5104.847860914214, -3559.0682696185436, -75413.6458532388, -39058.53349668187, -64686.32843331438, -187500.02235174447, -49368.901475537, -36656.45857530339, 0.514, -0.86, 0.152, 192.0, 0.0, 0.0, 0.0, 0.0, 0.0, 0.0, 0.0, 0.0, 0.0, 1.663592282404944E9, 0.0, 2022-09-19 17:58:02.404
39.0, 5051.583653877217, -3644.4295816933613, -75354.52548915452, -39017.58510083975, -64624.07882500635, -187500.02235174447, -49401.84794686412, -36596.645307140985, 0.514, -0.86, 0.152, 192.0, 0.0, 0.0, 0.0, 0.0, 0.0, 0.0, 0.0, 0.0, 0.0, 1.6635922824089952E9, 0.0, 2022-09-19 17:58:02.408
40.0, 4829.988459347303, -3702.4100068104276, -75205.21583619306, -38869.884773479076, -64478.90424476913, -187500.02235174447, -49296.66063745745, -36452.54361063762, 0.514, -0.86, 0.152, 192.0, 0.0, 0.0, 0.0, 0.0, 0.0, 0.0, 0.0, 0.0, 0.0, 1.6635922824129899E9, 0.0, 2022-09-19 17:58:02.412
41.0, 4801.914668311438, -3634.3936484329283, -75207.2051414496, -38839.911084164516, -64485.25214019444, -187500.02235174447, -49251.487761913275, -36452.4542036598, 0.514, -0.86, 0.152, 192.0, 0.0, 0.0, 0.0, 0.0, 0.0, 0.0, 0.0, 0.0, 0.0, 1.6635922824179907E9, 0.0, 2022-09-19 17:58:02.417
42.0, 4901.156413693001, -3552.183932326309, -75298.53436929398, -38895.52222436931, -64579.800019240385, -187500.02235174447, -49293.66550370044, -36538.10608841254, 0.514, -0.86, 0.152, 192.0, 0.0, 0.0, 0.0, 0.0, 0.0, 0.0, 0.0, 0.0, 0.0, 1.6635922824220076E9, 0.0, 2022-09-19 17:58:02.422
43.0, 5106.166613837077, -3498.74091133367, -75445.54179257654, -39014.589967082735, -64724.5275645885, -187500.02235174447, -49418.231775549866, -36670.763691754786, 0.514, -0.86, 0.152, 192.0, 0.0, 0.0, 0.0, 0.0, 0.0, 0.0, 0.0, 0.0, 0.0, 1.6635922824259984E9, 0.0, 2022-09-19 17:58:02.425
44.0, 5045.9957177633905, -3569.37242381244, -75370.28346899552, -38977.195498609006, -64646.18470027265, -187500.02235174447, -49443.06456363971, -36605.138970034, 0.514, -0.86, 0.152, 192.0, 0.0, 0.0, 0.0, 0.0, 0.0, 0.0, 0.0, 0.0, 0.0, 1.6635922824290013E9, 0.0, 2022-09-19 17:58:02.429
45.0, 4824.042895322192, -3615.3946656459175, -75206.62399609375, -38824.086049090154, -64490.19187571906, -187500.02235174447, -49300.61689622604, -36464.41238694339, 0.516, -0.856, 0.146, 192.0, 16.0, 32.0, 229.0, 64.0, 4.0, 144.0, 0.0, 0.0, 0.0, 1.6635922824330487E9, 0.0, 2022-09-19 17:58:02.433
46.0, 4790.559982128141, -3559.0682696185436, -75206.71340307158, -38801.46608370139, -64495.980977532985, -187500.02235174447, -49241.69769784185, -36464.81471834359, 0.516, -0.856, 0.146, 192.0, 0.0, 0.0, 0.0, 0.0, 0.0, 0.0, 0.0, 0.0, 0.0, 1.6635922824371257E9, 0.0, 2022-09-19 17:58:02.437
47.0, 4897.289561902233, -3492.5941816084605, -75297.84146521587, -38868.700131022946, -64585.253844887484, -187500.02235174447, -49282.55668670615, -36548.58905656207, 0.516, -0.856, 0.146, 192.0, 0.0, 0.0, 0.0, 0.0, 0.0, 0.0, 0.0, 0.0, 0.0, 1.6635922824411397E9, 0.0, 2022-09-19 17:58:02.441
48.0, 5092.599104952706, -3461.413498093307, -75433.94123720423, -39001.62595529866, -64724.5275645885, -187500.02235174447, -49391.11910952558, -36688.868604763586, 0.516, -0.856, 0.146, 192.0, 0.0, 0.0, 0.0, 0.0, 0.0, 0.0, 0.0, 0.0, 0.0, 1.6635922824451249E9, 0.0, 2022-09-19 17:58:02.445
49.0, 5013.339819114187, -3545.053725845066, -75347.19411697319, -38947.75825116137, -64638.875679835764, -187500.02235174447, -49402.96553408689, -36610.68220265892, 0.516, -0.856, 0.146, 192.0, 0.0, 0.0, 0.0, 0.0, 0.0, 0.0, 0.0, 0.0, 0.0, 1.6635922824501424E9, 0.0, 2022-09-19 17:58:02.450
50.0, 4801.177060744412, -3592.528831068138, -75201.7960192914, -38781.304810202695, -64484.35807041622, -187500.02235174447, -49292.79378566668, -36452.23068621525, 0.516, -0.856, 0.146, 192.0, 0.0, 0.0, 0.0, 0.0, 0.0, 0.0, 0.0, 0.0, 0.0, 1.6635922824541476E9, 0.0, 2022-09-19 17:58:02.454
51.0, 4785.03910124768, -3536.515359463139, -75209.52972287295, -38730.9910334338, -64486.63794835067, -187500.02235174447, -49266.731651631795, -36437.07620347455, 0.516, -0.856, 0.146, 192.0, 0.0, 0.0, 0.0, 0.0, 0.0, 0.0, 0.0, 0.0, 0.0, 1.66359228245714E9, 0.0, 2022-09-19 17:58:02.457
52.0, 4902.2069456824, -3465.459163839718, -75313.8229625014, -38796.52634817676, -64600.54243809491, -187500.02235174447, -49336.424390843444, -36546.577399561094, 0.516, -0.856, 0.146, 192.0, 0.0, 0.0, 0.0, 0.0, 0.0, 0.0, 0.0, 0.0, 0.0, 1.6635922824611464E9, 0.0, 2022-09-19 17:58:02.461
53.0, 5100.981009123446, -3424.354305786408, -75454.50484210311, -38915.392925190084, -64749.24859395607, -187500.02235174447, -49460.54362780376, -36690.63439257555, 0.516, -0.856, 0.146, 192.0, 0.0, 0.0, 0.0, 0.0, 0.0, 0.0, 0.0, 0.0, 0.0, 1.663592282465106E9, 0.0, 2022-09-19 17:58:02.465
54.0, 5010.769368501827, -3507.793367838069, -75368.24946025008, -38839.15112485303, -64660.623927190776, -187500.02235174447, -49489.9808752514, -36598.34403971959, 0.516, -0.856, 0.146, 192.0, 0.0, 0.0, 0.0, 0.0, 0.0, 0.0, 0.0, 0.0, 0.0, 1.663592282469107E9, 0.0, 2022-09-19 17:58:02.469
55.0, 4804.954505557359, -3555.1120108499545, -75229.98156904955, -38671.356579227046, -64523.652437168654, -187500.02235174447, -49366.420431902465, -36459.65146537441, 0.52, -0.868, 0.146, 192.0, 16.0, 64.0, 228.0, 224.0, 4.0, 144.0, 0.0, 0.0, 0.0, 1.663592282473164E9, 0.0, 2022-09-19 17:58:02.473
56.0, 4768.811734773128, -3512.1966614957646, -75218.76099333298, -38639.326529422586, -64528.8827453712, -187500.02235174447, -49278.265151770735, -36459.31618920758, 0.52, -0.868, 0.146, 192.0, 0.0, 0.0, 0.0, 0.0, 0.0, 0.0, 0.0, 0.0, 0.0, 1.663592282478088E9, 0.0, 2022-09-19 17:58:02.478
57.0, 4877.351805848099, -3459.021861436589, -75309.26320663253, -38720.17278911743, -64619.49671739301, -187500.02235174447, -49302.29327706019, -36537.61435003452, 0.52, -0.868, 0.146, 192.0, 0.0, 0.0, 0.0, 0.0, 0.0, 0.0, 0.0, 0.0, 0.0, 1.6635922824822233E9, 0.0, 2022-09-19 17:58:02.482
58.0, 5075.589427422217, -3443.5544542735165, -75433.60596103739, -38854.082090149175, -64757.96577429364, -187500.02235174447, -49379.31738845318, -36679.0561889477, 0.52, -0.868, 0.146, 192.0, 0.0, 0.0, 0.0, 0.0, 0.0, 0.0, 0.0, 0.0, 0.0, 1.663592282485099E9, 0.0, 2022-09-19 17:58:02.485
59.0, 4986.763594956827, -3536.2024350407646, -75323.61302657283, -38779.27080145726, -64651.660877664195, -187500.02235174447, -49358.373803898554, -36584.70947560185, 0.52, -0.868, 0.146, 192.0, 0.0, 0.0, 0.0, 0.0, 0.0, 0.0, 0.0, 0.0, 0.0, 1.6635922824891553E9, 0.0, 2022-09-19 17:58:02.489
60.0, 4792.862211807038, -3565.2597028326636, -75175.3986090897, -38642.41107015742, -64504.8769718262, -187500.02235174447, -49231.482950625774, -36445.39105241192, 0.52, -0.868, 0.146, 192.0, 0.0, 0.0, 0.0, 0.0, 0.0, 0.0, 0.0, 0.0, 0.0, 1.6635922824931877E9, 0.0, 2022-09-19 17:58:02.493
61.0, 4775.427851131899, -3506.519318404117, -75201.86307452478, -38718.00466990527, -64520.0761580558, -187500.02235174447, -49219.23419466427, -36459.71852060778, 0.52, -0.868, 0.146, 192.0, 0.0, 0.0, 0.0, 0.0, 0.0, 0.0, 0.0, 0.0, 0.0, 1.6635922824972E9, 0.0, 2022-09-19 17:58:02.497
62.0, 4899.234163669845, -3432.646802979327, -75306.91627346471, -38870.6223810461, -64617.97679877005, -187500.02235174447, -49286.20002105237, -36552.63472230849, 0.52, -0.868, 0.146, 192.0, 0.0, 0.0, 0.0, 0.0, 0.0, 0.0, 0.0, 0.0, 0.0, 1.6635922825011275E9, 0.0, 2022-09-19 17:58:02.501
63.0, 5103.082073102245, -3389.6867501362267, -75434.88001047134, -39011.41601937008, -64741.783111307996, -187500.02235174447, -49410.58747894615, -36673.22238364487, 0.52, -0.868, 0.146, 192.0, 0.0, 0.0, 0.0, 0.0, 0.0, 0.0, 0.0, 0.0, 0.0, 1.6635922825061443E9, 0.0, 2022-09-19 17:58:02.506
64.0, 4989.490507780374, -3482.40178613684, -75326.45169811866, -38943.37730924813, -64623.34121743932, -187500.02235174447, -49413.180281302964, -36570.89609752847, 0.52, -0.868, 0.146, 192.0, 0.0, 0.0, 0.0, 0.0, 0.0, 0.0, 0.0, 0.0, 0.0, 1.6635922825102482E9, 0.0, 2022-09-19 17:58:02.510
65.0, 4796.438490919887, -3519.5950889104715, -75183.04290569341, -38812.418438484485, -64485.16273321662, -187500.02235174447, -49285.50711697425, -36435.8021540406, 0.51, -0.864, 0.14400000000000002, 192.0, 15.0, 240.0, 229.0, 0.0, 4.0, 128.0, 0.0, 0.0, 0.0, 1.6635922825132093E9, 0.0, 2022-09-19 17:58:02.513
66.0, 4797.421967675921, -3458.954806203223, -75191.20129241959, -38805.9587843369, -64497.83617232277, -187500.02235174447, -49241.18360771938, -36435.95861625178, 0.51, -0.864, 0.14400000000000002, 192.0, 0.0, 0.0, 0.0, 0.0, 0.0, 0.0, 0.0, 0.0, 0.0, 1.6635922825172799E9, 0.0, 2022-09-19 17:58:02.517
67.0, 4932.158283252512, -3379.784927342526, -75296.81328497092, -38890.26956442232, -64600.274217161445, -187500.02235174447, -49298.15820433595, -36538.59782679055, 0.51, -0.864, 0.14400000000000002, 192.0, 0.0, 0.0, 0.0, 0.0, 0.0, 0.0, 0.0, 0.0, 0.0, 1.6635922825212338E9, 0.0, 2022-09-19 17:58:02.521
68.0, 5114.034427885345, -3333.226243642121, -75428.10743190139, -39022.34602240873, -64728.05914021244, -187500.02235174447, -49424.2667465528, -36666.270991119265, 0.51, -0.864, 0.14400000000000002, 192.0, 0.0, 0.0, 0.0, 0.0, 0.0, 0.0, 0.0, 0.0, 0.0, 1.66359228252527E9, 0.0, 2022-09-19 17:58:02.525
69.0, 4973.039623861268, -3424.1978435752208, -75316.19224741367, -38950.641626196106, -64615.518106879965, -187500.02235174447, -49413.604964447615, -36555.38398687649, 0.51, -0.864, 0.14400000000000002, 192.0, 0.0, 0.0, 0.0, 0.0, 0.0, 0.0, 0.0, 0.0, 0.0, 1.663592282529235E9, 0.0, 2022-09-19 17:58:02.529
70.0, 4765.5930835715635, -3431.9762506456677, -75184.87574873873, -38808.931566349456, -64490.86242805272, -187500.02235174447, -49282.84725938407, -36429.633072570934, 0.51, -0.864, 0.14400000000000002, 192.0, 0.0, 0.0, 0.0, 0.0, 0.0, 0.0, 0.0, 0.0, 0.0, 1.6635922825343013E9, 0.0, 2022-09-19 17:58:02.534
71.0, 4773.907932508938, -3344.580929825417, -75198.17503668964, -38807.948089593425, -64504.6758061261, -187500.02235174447, -49249.29729095665, -36440.22779944275, 0.51, -0.864, 0.14400000000000002, 192.0, 0.0, 0.0, 0.0, 0.0, 0.0, 0.0, 0.0, 0.0, 0.0, 1.6635922825382106E9, 0.0, 2022-09-19 17:58:02.538
72.0, 4919.753065079816, -3254.54810315944, -75291.78414246847, -38919.50564616986, -64607.78440329843, -187500.02235174447, -49287.1834978084, -36541.66001578093, 0.51, -0.864, 0.14400000000000002, 192.0, 0.0, 0.0, 0.0, 0.0, 0.0, 0.0, 0.0, 0.0, 0.0, 1.6635922825412636E9, 0.0, 2022-09-19 17:58:02.541
73.0, 5098.34350327772, -3209.866965993281, -75408.08026886944, -39054.219610001994, -64726.04748321146, -187500.02235174447, -49395.41064446099, -36656.5032787923, 0.51, -0.864, 0.14400000000000002, 192.0, 0.0, 0.0, 0.0, 0.0, 0.0, 0.0, 0.0, 0.0, 0.0, 1.6635922825452375E9, 0.0, 2022-09-19 17:58:02.545
74.0, 4959.6509289325395, -3300.5703449929174, -75292.05236340193, -38983.29752484531, -64608.678473076645, -187500.02235174447, -49386.98403680135, -36544.074004182105, 0.51, -0.864, 0.14400000000000002, 192.0, 0.0, 0.0, 0.0, 0.0, 0.0, 0.0, 0.0, 0.0, 0.0, 1.663592282549282E9, 0.0, 2022-09-19 17:58:02.549
75.0, 4761.860342247527, -3341.6081478128613, -75169.56480378685, -38855.289084349766, -64488.33668092927, -187500.02235174447, -49267.290445243176, -36424.82744751304, 0.508, -0.864, 0.14200000000000002, 192.0, 15.0, 224.0, 229.0, 0.0, 4.0, 112.0, 0.0, 0.0, 0.0, 1.663592282553337E9, 0.0, 2022-09-19 17:58:02.553
76.0, 4769.258769662234, -3287.65103669775, -75195.93986224412, -38845.67783423398, -64518.1762597771, -187500.02235174447, -49252.78416309168, -36445.011072756184, 0.508, -0.864, 0.14200000000000002, 192.0, 0.0, 0.0, 0.0, 0.0, 0.0, 0.0, 0.0, 0.0, 0.0, 1.6635922825573215E9, 0.0, 2022-09-19 17:58:02.557
77.0, 4930.3030884627215, -3205.843651991326, -75308.63735778778, -38913.023640277825, -64634.27122047797, -187500.02235174447, -49316.017248155746, -36548.834925751085, 0.508, -0.864, 0.14200000000000002, 192.0, 0.0, 0.0, 0.0, 0.0, 0.0, 0.0, 0.0, 0.0, 0.0, 1.6635922825612724E9, 0.0, 2022-09-19 17:58:02.561
78.0, 5102.925610891058, -3186.7329104820387, -75416.32806257345, -39006.25276640091, -64747.54986137747, -187500.02235174447, -49411.54860395773, -36659.74428173832, 0.508, -0.864, 0.14200000000000002, 192.0, 0.0, 0.0, 0.0, 0.0, 0.0, 0.0, 0.0, 0.0, 0.0, 1.6635922825663068E9, 0.0, 2022-09-19 17:58:02.566
79.0, 4948.877388105081, -3293.1272140893, -75288.7219534781, -38918.835093836205, -64622.447147661114, -187500.02235174447, -49377.953932041404, -36544.632797793485, 0.508, -0.864, 0.14200000000000002, 192.0, 0.0, 0.0, 0.0, 0.0, 0.0, 0.0, 0.0, 0.0, 0.0, 1.6635922825693853E9, 0.0, 2022-09-19 17:58:02.569
80.0, 4777.350101155055, -3307.0299991405013, -75168.71543749755, -38852.98685467087, -64502.59709389175, -187500.02235174447, -49257.65684338294, -36428.62724407044, 0.508, -0.864, 0.14200000000000002, 192.0, 0.0, 0.0, 0.0, 0.0, 0.0, 0.0, 0.0, 0.0, 0.0, 1.6635922825734093E9, 0.0, 2022-09-19 17:58:02.573
81.0, 4800.104177010558, -3241.137056486256, -75197.45978086708, -38898.56206161524, -64527.072254070314, -187500.02235174447, -49248.85025606755, -36435.712747062775, 0.508, -0.864, 0.14200000000000002, 192.0, 0.0, 0.0, 0.0, 0.0, 0.0, 0.0, 0.0, 0.0, 0.0, 1.6635922825772965E9, 0.0, 2022-09-19 17:58:02.577
82.0, 4946.373992726087, -3178.395709800209, -75319.58971257087, -39017.22747292846, -64647.190528773135, -187500.02235174447, -49315.324344077635, -36548.94668447336, 0.508, -0.864, 0.14200000000000002, 192.0, 0.0, 0.0, 0.0, 0.0, 0.0, 0.0, 0.0, 0.0, 0.0, 1.6635922825812993E9, 0.0, 2022-09-19 17:58:02.581
83.0, 5103.551459735806, -3177.166363855167, -75422.2512748541, -39111.149503129665, -64744.42061715372, -187500.02235174447, -49426.72543844288, -36656.05624390319, 0.508, -0.864, 0.14200000000000002, 192.0, 0.0, 0.0, 0.0, 0.0, 0.0, 0.0, 0.0, 0.0, 0.0, 1.6635922825853608E9, 0.0, 2022-09-19 17:58:02.585
84.0, 4963.562484212218, -3283.493612229063, -75288.81136045592, -38993.33345810574, -64606.24213293102, -187500.02235174447, -49410.92275511298, -36529.83594296407, 0.508, -0.864, 0.14200000000000002, 192.0, 0.0, 0.0, 0.0, 0.0, 0.0, 0.0, 0.0, 0.0, 0.0, 1.6635922825893393E9, 0.0, 2022-09-19 17:58:02.589
85.0, 4789.5988571165635, -3304.280734572498, -75165.69795199609, -38874.779805514794, -64494.438707165566, -187500.02235174447, -49267.55866617664, -36418.56895906555, 0.504, -0.86, 0.14400000000000002, 192.0, 15.0, 192.0, 229.0, 32.0, 4.0, 128.0, 0.0, 0.0, 0.0, 1.6635922825943575E9, 0.0, 2022-09-19 17:58:02.594
86.0, 4797.511374653742, -3246.1885507331554, -75189.63667030772, -38881.95471548494, -64522.73601564598, -187500.02235174447, -49233.74047681576, -36451.91776179287, 0.504, -0.86, 0.14400000000000002, 192.0, 0.0, 0.0, 0.0, 0.0, 0.0, 0.0, 0.0, 0.0, 0.0, 1.6635922825973608E9, 0.0, 2022-09-19 17:58:02.597
87.0, 4948.385649727064, -3171.846648674804, -75303.83173272989, -38967.85246942669, -64641.379075214754, -187500.02235174447, -49289.64218969848, -36561.5307166017, 0.504, -0.86, 0.14400000000000002, 192.0, 0.0, 0.0, 0.0, 0.0, 0.0, 0.0, 0.0, 0.0, 0.0, 1.6635922826013713E9, 0.0, 2022-09-19 17:58:02.601
88.0, 5101.204526567999, -3162.660081703673, -75400.43597226572, -39057.86294434821, -64737.446872883665, -187500.02235174447, -49398.18226077346, -36652.25644734579, 0.504, -0.86, 0.14400000000000002, 192.0, 0.0, 0.0, 0.0, 0.0, 0.0, 0.0, 0.0, 0.0, 0.0, 1.66359228260535E9, 0.0, 2022-09-19 17:58:02.605
89.0, 4932.6500216305285, -3266.3051207429316, -75255.23904028405, -38944.91957961555, -64594.46276360307, -187500.02235174447, -49356.96564399787, -36512.73685845576, 0.504, -0.86, 0.14400000000000002, 192.0, 0.0, 0.0, 0.0, 0.0, 0.0, 0.0, 0.0, 0.0, 0.0, 1.6635922826093223E9, 0.0, 2022-09-19 17:58:02.609
90.0, 4767.090650450069, -3265.232237009077, -75154.76794895744, -38829.69633694844, -64489.5213233854, -187500.02235174447, -49257.52273291621, -36415.506770075175, 0.504, -0.86, 0.14400000000000002, 192.0, 0.0, 0.0, 0.0, 0.0, 0.0, 0.0, 0.0, 0.0, 0.0, 1.6635922826133237E9, 0.0, 2022-09-19 17:58:02.613
91.0, 4802.227592733811, -3189.102195394301, -75203.09242046981, -38826.343575280145, -64519.85264061125, -187500.02235174447, -49292.68202694441, -36446.01690125667, 0.504, -0.86, 0.14400000000000002, 192.0, 0.0, 0.0, 0.0, 0.0, 0.0, 0.0, 0.0, 0.0, 0.0, 1.6635922826174457E9, 0.0, 2022-09-19 17:58:02.617
92.0, 4986.428318789997, -3125.042095785391, -75325.02118647352, -38931.396774220084, -64645.53649968345, -187500.02235174447, -49361.61480684457, -36561.061329968135, 0.504, -0.86, 0.14400000000000002, 192.0, 0.0, 0.0, 0.0, 0.0, 0.0, 0.0, 0.0, 0.0, 0.0, 1.6635922826223588E9, 0.0, 2022-09-19 17:58:02.622
93.0, 5112.648619729116, -3129.847720843282, -75389.43891399371, -39041.05443251782, -64740.799634551964, -187500.02235174447, -49401.04328406374, -36653.32933107964, 0.504, -0.86, 0.14400000000000002, 192.0, 0.0, 0.0, 0.0, 0.0, 0.0, 0.0, 0.0, 0.0, 0.0, 1.6635922826253853E9, 0.0, 2022-09-19 17:58:02.625
94.0, 4920.580079624663, -3224.7979312894263, -75231.14385976123, -38926.34527997318, -64593.61339731377, -187500.02235174447, -49327.93072795043, -36510.25581482123, 0.504, -0.86, 0.14400000000000002, 192.0, 0.0, 0.0, 0.0, 0.0, 0.0, 0.0, 0.0, 0.0, 0.0, 1.663592282629341E9, 0.0, 2022-09-19 17:58:02.629
95.0, 4766.643615560963, -3244.780390832471, -75134.9866551145, -38812.574900695676, -64498.5737798898, -187500.02235174447, -49221.37996213198, -36414.41153459687, 0.514, -0.864, 0.15, 192.0, 16.0, 16.0, 229.0, 0.0, 4.0, 176.0, 0.0, 0.0, 0.0, 1.663592282633505E9, 0.0, 2022-09-19 17:58:02.633
96.0, 4796.147918241968, -3192.209087873589, -75170.61533577625, -38819.88392113256, -64524.72532090251, -187500.02235174447, -49217.53546208566, -36447.58152336854, 0.514, -0.864, 0.15, 192.0, 0.0, 0.0, 0.0, 0.0, 0.0, 0.0, 0.0, 0.0, 0.0, 1.6635922826374145E9, 0.0, 2022-09-19 17:58:02.637
97.0, 4954.2194550299, -3119.431807927109, -75295.56158728142, -38910.296727454275, -64645.89412759473, -187500.02235174447, -49290.37979726551, -36563.76589104723, 0.514, -0.864, 0.15, 192.0, 0.0, 0.0, 0.0, 0.0, 0.0, 0.0, 0.0, 0.0, 0.0, 1.6635922826414812E9, 0.0, 2022-09-19 17:58:02.641
98.0, 5104.7584539363925, -3122.337534706299, -75392.59050996191, -38997.24501338542, -64738.31859091742, -187500.02235174447, -49421.361019773605, -36648.63546474403, 0.514, -0.864, 0.15, 192.0, 0.0, 0.0, 0.0, 0.0, 0.0, 0.0, 0.0, 0.0, 0.0, 1.6635922826454968E9, 0.0, 2022-09-19 17:58:02.645
99.0, 4924.916318048992, -3234.8562162943144, -75239.9057435877, -38877.61847706061, -64584.82916174283, -187500.02235174447, -49376.00933027379, -36498.05176234862, 0.514, -0.864, 0.15, 192.0, 0.0, 0.0, 0.0, 0.0, 0.0, 0.0, 0.0, 0.0, 0.0, 1.6635922826505916E9, 0.0, 2022-09-19 17:58:02.650
100.0, 4768.275292906201, -3253.6540333812277, -75139.79228017239, -38771.71591183137, -64487.12968672868, -187500.02235174447, -49258.349747461056, -36397.9382989333, 0.514, -0.864, 0.15, 192.0, 0.0, 0.0, 0.0, 0.0, 0.0, 0.0, 0.0, 0.0, 0.0, 1.6635922826534452E9, 0.0, 2022-09-19 17:58:02.653
101.0, 4786.42490940391, -3200.7027507666053, -75178.23728063551, -38810.85381637261, -64523.227754024, -187500.02235174447, -49244.290500198666, -36427.84493301451, 0.514, -0.864, 0.15, 192.0, 0.0, 0.0, 0.0, 0.0, 0.0, 0.0, 0.0, 0.0, 0.0, 1.6635922826575143E9, 0.0, 2022-09-19 17:58:02.657
102.0, 4925.83273957166, -3152.1547618096783, -75313.35357586785, -38927.46286719595, -64653.47136896508, -187500.02235174447, -49315.97254466684, -36555.36163513203, 0.514, -0.864, 0.15, 192.0, 0.0, 0.0, 0.0, 0.0, 0.0, 0.0, 0.0, 0.0, 0.0, 1.6635922826614568E9, 0.0, 2022-09-19 17:58:02.661
103.0, 5042.754714817371, -3163.978834626536, -75400.77124843255, -39006.47628384546, -64730.115500702326, -187500.02235174447, -49445.79147646326, -36631.62578721354, 0.514, -0.864, 0.15, 192.0, 0.0, 0.0, 0.0, 0.0, 0.0, 0.0, 0.0, 0.0, 0.0, 1.663592282665488E9, 0.0, 2022-09-19 17:58:02.665
104.0, 4846.081715355124, -3253.83284733687, -75244.17492677867, -38849.611741258115, -64565.316088833344, -187500.02235174447, -49396.483528194854, -36472.99545681423, 0.514, -0.864, 0.15, 192.0, 0.0, 0.0, 0.0, 0.0, 0.0, 0.0, 0.0, 0.0, 0.0, 1.6635922826695352E9, 0.0, 2022-09-19 17:58:02.669
105.0, 4685.9985215662155, -3260.1360392732668, -75153.06921637883, -38743.59741730659, -64483.955739016026, -187500.02235174447, -49266.41872720942, -36394.45142679828, 0.512, -0.862, 0.152, 192.0, 16.0, 0.0, 229.0, 16.0, 4.0, 192.0, 0.0, 0.0, 0.0, 1.6635922826735313E9, 0.0, 2022-09-19 17:58:02.673
106.0, 4698.470794972276, -3206.849480491815, -75184.80869350537, -38776.23096421134, -64525.48528021399, -187500.02235174447, -49225.09035171156, -36436.472706374254, 0.512, -0.862, 0.152, 192.0, 0.0, 0.0, 0.0, 0.0, 0.0, 0.0, 0.0, 0.0, 0.0, 1.66359228267853E9, 0.0, 2022-09-19 17:58:02.678
107.0, 4848.965090389859, -3137.1567412801674, -75318.47212534811, -38885.73216029789, -64649.40335147421, -187500.02235174447, -49302.56149799365, -36562.5812485911, 0.512, -0.862, 0.152, 192.0, 0.0, 0.0, 0.0, 0.0, 0.0, 0.0, 0.0, 0.0, 0.0, 1.6635922826815546E9, 0.0, 2022-09-19 17:58:02.681
108.0, 4976.951179140947, -3139.2801570034217, -75398.15609433128, -38966.17608859254, -64714.8269074949, -187500.02235174447, -49428.80415067723, -36632.028118613736, 0.512, -0.862, 0.152, 192.0, 0.0, 0.0, 0.0, 0.0, 0.0, 0.0, 0.0, 0.0, 0.0, 1.663592282684456E9, 0.0, 2022-09-19 17:58:02.684
109.0, 4774.891409264971, -3242.0534780089233, -75225.62297888077, -38832.33384279416, -64546.16064383515, -187500.02235174447, -49337.07259143265, -36468.41334920089, 0.512, -0.862, 0.152, 192.0, 0.0, 0.0, 0.0, 0.0, 0.0, 0.0, 0.0, 0.0, 0.0, 1.6635922826895413E9, 0.0, 2022-09-19 17:58:02.689
110.0, 4634.67891629683, -3244.4451146656415, -75142.9885796295, -38735.729603258325, -64463.79446551734, -187500.02235174447, -49226.811436034615, -36381.755635947666, 0.512, -0.862, 0.152, 192.0, 0.0, 0.0, 0.0, 0.0, 0.0, 0.0, 0.0, 0.0, 0.0, 1.6635922826934917E9, 0.0, 2022-09-19 17:58:02.693
111.0, 4669.078251013548, -3200.6356955332394, -75182.52881557093, -38761.65762682648, -64508.52030617241, -187500.02235174447, -49215.009714962216, -36420.31239513307, 0.512, -0.862, 0.152, 192.0, 0.0, 0.0, 0.0, 0.0, 0.0, 0.0, 0.0, 0.0, 0.0, 1.6635922826975417E9, 0.0, 2022-09-19 17:58:02.697
112.0, 4848.071020611646, -3167.488058506019, -75319.72382303761, -38885.754512042346, -64651.99615383103, -187500.02235174447, -49284.25541928475, -36556.56862933262, 0.512, -0.862, 0.152, 192.0, 0.0, 0.0, 0.0, 0.0, 0.0, 0.0, 0.0, 0.0, 0.0, 1.6635922827015548E9, 0.0, 2022-09-19 17:58:02.701
113.0, 4964.456553990431, -3217.5112625969964, -75393.5963384624, -38967.38308279313, -64721.46537559812, -187500.02235174447, -49402.87612710907, -36618.70647891837, 0.512, -0.862, 0.152, 192.0, 0.0, 0.0, 0.0, 0.0, 0.0, 0.0, 0.0, 0.0, 0.0, 1.6635922827055588E9, 0.0, 2022-09-19 17:58:02.705
114.0, 4760.854513747038, -3349.1183339498443, -75242.63265641125, -38808.01514482679, -64560.6892777311, -187500.02235174447, -49371.56133312718, -36468.83803234554, 0.512, -0.862, 0.152, 192.0, 0.0, 0.0, 0.0, 0.0, 0.0, 0.0, 0.0, 0.0, 0.0, 1.6635922827095792E9, 0.0, 2022-09-19 17:58:02.709
115.0, 4644.983070490726, -3348.6712990607384, -75164.91564094015, -38683.627686933, -64496.539771144366, -187500.02235174447, -49261.769564362716, -36393.557357020065, 0.506, -0.856, 0.16, 192.0, 15.0, 208.0, 229.0, 64.0, 5.0, 0.0, 0.0, 0.0, 0.0, 1.6635922827126224E9, 0.0, 2022-09-19 17:58:02.712
116.0, 4699.431919983855, -3284.1865163071775, -75197.1468564447, -38692.81425390414, -64552.53089100491, -187500.02235174447, -49208.99709570374, -36444.519334378165, 0.506, -0.856, 0.16, 192.0, 0.0, 0.0, 0.0, 0.0, 0.0, 0.0, 0.0, 0.0, 0.0, 1.6635922827175524E9, 0.0, 2022-09-19 17:58:02.717
117.0, 4888.415919353476, -3226.4072568902084, -75334.07364297792, -38796.79456911023, -64690.687023483166, -187500.02235174447, -49285.35065476307, -36569.51028937224, 0.506, -0.856, 0.16, 192.0, 0.0, 0.0, 0.0, 0.0, 0.0, 0.0, 0.0, 0.0, 0.0, 1.6635922827215464E9, 0.0, 2022-09-19 17:58:02.721
118.0, 4988.372920557609, -3278.330359259887, -75393.77515241803, -38857.50190705084, -64744.3312101759, -187500.02235174447, -49393.01900780428, -36620.695784174895, 0.506, -0.856, 0.16, 192.0, 0.0, 0.0, 0.0, 0.0, 0.0, 0.0, 0.0, 0.0, 0.0, 1.663592282725563E9, 0.0, 2022-09-19 17:58:02.725
119.0, 4784.122679725013, -3404.86358462138, -75227.34406320383, -38702.71607669784, -64579.375336095734, -187500.02235174447, -49321.15814938047, -36462.06545377558, 0.506, -0.856, 0.16, 192.0, 0.0, 0.0, 0.0, 0.0, 0.0, 0.0, 0.0, 0.0, 0.0, 1.663592282729555E9, 0.0, 2022-09-19 17:58:02.729
120.0, 4669.547637647109, -3409.222174790165, -75160.62410600473, -38603.183758638355, -64518.39977722166, -187500.02235174447, -49228.73368605777, -36386.20363309427, 0.506, -0.856, 0.16, 192.0, 0.0, 0.0, 0.0, 0.0, 0.0, 0.0, 0.0, 0.0, 0.0, 1.6635922827325642E9, 0.0, 2022-09-19 17:58:02.732
121.0, 4730.79141745465, -3358.8189910434476, -75214.08947874182, -38622.830942014574, -64572.64746101469, -187500.02235174447, -49241.80945656413, -36435.06454647357, 0.506, -0.856, 0.16, 192.0, 0.0, 0.0, 0.0, 0.0, 0.0, 0.0, 0.0, 0.0, 0.0, 1.6635922827386189E9, 0.0, 2022-09-19 17:58:02.738
122.0, 4932.202986741422, -3302.336132804887, -75355.86659382183, -38736.064879425154, -64704.14277364526, -187500.02235174447, -49348.27081540476, -36572.23720219579, 0.506, -0.856, 0.16, 192.0, 0.0, 0.0, 0.0, 0.0, 0.0, 0.0, 0.0, 0.0, 0.0, 1.6635922827416728E9, 0.0, 2022-09-19 17:58:02.741
123.0, 5034.238700179899, -3341.4963890905847, -75408.84022818092, -38805.53410119225, -64739.972620007116, -187500.02235174447, -49469.059642441236, -36619.28762427421, 0.506, -0.856, 0.16, 192.0, 0.0, 0.0, 0.0, 0.0, 0.0, 0.0, 0.0, 0.0, 0.0, 1.6635922827446032E9, 0.0, 2022-09-19 17:58:02.744
124.0, 4816.890337096494, -3454.73032650117, -75231.92617081717, -38675.469300206816, -64574.65911801567, -187500.02235174447, -49364.52053362376, -36462.914820064885, 0.506, -0.856, 0.16, 192.0, 0.0, 0.0, 0.0, 0.0, 0.0, 0.0, 0.0, 0.0, 0.0, 1.6635922827495532E9, 0.0, 2022-09-19 17:58:02.749
125.0, 4706.159795064902, -3448.382431075863, -75153.42684429012, -38604.39075283894, -64515.695216142565, -187500.02235174447, -49226.47615986779, -36406.05198217058, 0.51, -0.854, 0.16, 192.0, 15.0, 240.0, 229.0, 80.0, 5.0, 0.0, 0.0, 0.0, 0.0, 1.6635922827535684E9, 0.0, 2022-09-19 17:58:02.753
126.0, 4771.806868530139, -3378.644988375305, -75198.53266460093, -38638.208942199824, -64564.19850161058, -187500.02235174447, -49218.630697563975, -36437.97027325276, 0.51, -0.854, 0.16, 192.0, 0.0, 0.0, 0.0, 0.0, 0.0, 0.0, 0.0, 0.0, 0.0, 1.6635922827576084E9, 0.0, 2022-09-19 17:58:02.757
127.0, 4964.769478412804, -3324.79963598247, -75338.8345645469, -38753.25337091129, -64706.64616902425, -187500.02235174447, -49297.04061711319, -36568.43740563839, 0.51, -0.854, 0.16, 192.0, 0.0, 0.0, 0.0, 0.0, 0.0, 0.0, 0.0, 0.0, 0.0, 1.6635922827607167E9, 0.0, 2022-09-19 17:58:02.760
128.0, 5035.289232169299, -3370.352491182386, -75369.54586142849, -38794.84996734261, -64740.799634551964, -187500.02235174447, -49373.77415582826, -36609.1399322915, 0.51, -0.854, 0.16, 192.0, 0.0, 0.0, 0.0, 0.0, 0.0, 0.0, 0.0, 0.0, 0.0, 1.6635922827646005E9, 0.0, 2022-09-19 17:58:02.764
129.0, 4812.017656805237, -3480.188963435765, -75201.23722568003, -38639.952378267335, -64573.56388253735, -187500.02235174447, -49295.02896011221, -36440.40661339839, 0.51, -0.854, 0.16, 192.0, 0.0, 0.0, 0.0, 0.0, 0.0, 0.0, 0.0, 0.0, 0.0, 1.6635922827686357E9, 0.0, 2022-09-19 17:58:02.768
130.0, 4698.493146716732, -3476.858553511924, -75148.4871087655, -38556.133336559935, -64516.79045162087, -187500.02235174447, -49208.30419162562, -36382.00150513667, 0.51, -0.854, 0.16, 192.0, 0.0, 0.0, 0.0, 0.0, 0.0, 0.0, 0.0, 0.0, 0.0, 1.6635922827726443E9, 0.0, 2022-09-19 17:58:02.772
131.0, 4758.127600923491, -3428.422323277274, -75208.23332169454, -38588.92334567587, -64567.86418770125, -187500.02235174447, -49228.57722384659, -36433.768145295166, 0.51, -0.854, 0.16, 192.0, 0.0, 0.0, 0.0, 0.0, 0.0, 0.0, 0.0, 0.0, 0.0, 1.6635922827776296E9, 0.0, 2022-09-19 17:58:02.777
132.0, 4970.759745926827, -3371.358319682875, -75359.26405897905, -38718.29524258319, -64712.05529118244, -187500.02235174447, -49337.05023968819, -36574.964115019335, 0.51, -0.854, 0.16, 192.0, 0.0, 0.0, 0.0, 0.0, 0.0, 0.0, 0.0, 0.0, 0.0, 1.6635922827816584E9, 0.0, 2022-09-19 17:58:02.781
133.0, 5055.539912645807, -3402.1366717978326, -75405.26394906807, -38770.888897286524, -64739.972620007116, -187500.02235174447, -49466.13156391759, -36612.96208059336, 0.51, -0.854, 0.16, 192.0, 0.0, 0.0, 0.0, 0.0, 0.0, 0.0, 0.0, 0.0, 0.0, 1.6635922827856877E9, 0.0, 2022-09-19 17:58:02.785
134.0, 4847.601633978085, -3488.347350161952, -75241.47036569958, -38618.78527626816, -64569.98760342451, -187500.02235174447, -49384.41358618899, -36453.54943913811, 0.51, -0.854, 0.16, 192.0, 0.0, 0.0, 0.0, 0.0, 0.0, 0.0, 0.0, 0.0, 0.0, 1.663592282788648E9, 0.0, 2022-09-19 17:58:02.788
135.0, 4744.537740294664, -3468.0072627076224, -75177.1420451572, -38541.22472300824, -64524.97119009152, -187500.02235174447, -49249.185532234376, -36397.82654021103, 0.506, -0.852, 0.158, 192.0, 15.0, 208.0, 229.0, 96.0, 4.0, 240.0, 0.0, 0.0, 0.0, 1.6635922827926452E9, 0.0, 2022-09-19 17:58:02.792
136.0, 4796.214973475334, -3424.5331197420505, -75213.03894675242, -38566.102214587, -64577.296623861395, -187500.02235174447, -49212.126339927476, -36439.57959885354, 0.506, -0.852, 0.158, 192.0, 0.0, 0.0, 0.0, 0.0, 0.0, 0.0, 0.0, 0.0, 0.0, 1.6635922827966852E9, 0.0, 2022-09-19 17:58:02.796
137.0, 4990.8763159366035, -3378.890857564313, -75350.16689898574, -38668.0261693032, -64716.23506739558, -187500.02235174447, -49285.61887569653, -36568.10212947156, 0.506, -0.852, 0.158, 192.0, 0.0, 0.0, 0.0, 0.0, 0.0, 0.0, 0.0, 0.0, 0.0, 1.663592282800656E9, 0.0, 2022-09-19 17:58:02.800
138.0, 5041.167740961045, -3440.961651916701, -75367.55655617197, -38698.08926559559, -64727.947381490165, -187500.02235174447, -49369.840248804125, -36580.775568577716, 0.506, -0.852, 0.158, 192.0, 0.0, 0.0, 0.0, 0.0, 0.0, 0.0, 0.0, 0.0, 0.0, 1.663592282805697E9, 0.0, 2022-09-19 17:58:02.805
139.0, 4807.524956169719, -3557.9730341402337, -75203.56180710338, -38554.23343828123, -64554.67665847262, -187500.02235174447, -49296.727692690816, -36426.68264230283, 0.506, -0.852, 0.158, 192.0, 0.0, 0.0, 0.0, 0.0, 0.0, 0.0, 0.0, 0.0, 0.0, 1.6635922828097167E9, 0.0, 2022-09-19 17:58:02.809
140.0, 4715.860452158506, -3541.678612432315, -75172.62699277724, -38504.27728942362, -64512.700082385556, -187500.02235174447, -49240.93773853037, -36395.14433087639, 0.506, -0.852, 0.158, 192.0, 0.0, 0.0, 0.0, 0.0, 0.0, 0.0, 0.0, 0.0, 0.0, 1.6635922828136744E9, 0.0, 2022-09-19 17:58:02.813
141.0, 4796.460842664343, -3478.892562257357, -75254.72495016157, -38546.63384516643, -64576.17903663863, -187500.02235174447, -49323.23686161481, -36454.68937810533, 0.506, -0.852, 0.158, 192.0, 0.0, 0.0, 0.0, 0.0, 0.0, 0.0, 0.0, 0.0, 0.0, 1.663592282816718E9, 0.0, 2022-09-19 17:58:02.816
142.0, 5027.488473354397, -3426.455369765207, -75391.74114367261, -38664.74046286827, -64723.85701225484, -187500.02235174447, -49404.21723177639, -36595.41596119594, 0.506, -0.852, 0.158, 192.0, 0.0, 0.0, 0.0, 0.0, 0.0, 0.0, 0.0, 0.0, 0.0, 1.663592282820686E9, 0.0, 2022-09-19 17:58:02.820
143.0, 5076.394090222609, -3491.566001363516, -75366.30485848247, -38679.02322757521, -64720.57130581991, -187500.02235174447, -49402.429092219965, -36593.7395803618, 0.506, -0.852, 0.158, 192.0, 0.0, 0.0, 0.0, 0.0, 0.0, 0.0, 0.0, 0.0, 0.0, 1.6635922828247037E9, 0.0, 2022-09-19 17:58:02.824
144.0, 4838.795046662694, -3600.3295898830406, -75182.21589114856, -38501.86330102245, -64547.74761769148, -187500.02235174447, -49262.37306146301, -36415.68558403082, 0.506, -0.852, 0.158, 192.0, 0.0, 0.0, 0.0, 0.0, 0.0, 0.0, 0.0, 0.0, 0.0, 1.6635922828287427E9, 0.0, 2022-09-19 17:58:02.828
145.0, 4745.364754839511, -3593.3558456129845, -75153.06921637883, -38422.91693960631, -64514.26470449743, -187500.02235174447, -49194.7590344857, -36368.948086374774, 0.506, -0.852, 0.158, 192.0, 0.0, 0.0, 0.0, 0.0, 0.0, 0.0, 0.0, 0.0, 0.0, 1.6635922828327498E9, 0.0, 2022-09-19 17:58:02.832
146.0, 4817.605592919063, -3541.32098452103, -75224.30422595791, -38459.46204179073, -64577.698955261585, -187500.02235174447, -49236.69090708386, -36440.51837212066, 0.506, -0.856, 0.152, 192.0, 15.0, 208.0, 229.0, 64.0, 4.0, 192.0, 0.0, 0.0, 0.0, 1.6635922828387237E9, 0.0, 2022-09-19 17:58:02.838
147.0, 5031.623546078628, -3485.5980855939492, -75364.94140207069, -38591.13616837694, -64716.838564495876, -187500.02235174447, -49336.6926117769, -36586.162338991446, 0.506, -0.856, 0.152, 192.0, 0.0, 0.0, 0.0, 0.0, 0.0, 0.0, 0.0, 0.0, 0.0, 1.6635922828417463E9, 0.0, 2022-09-19 17:58:02.841
