%OpenBCI Raw EEG Data
%Number of channels = 8
%Sample Rate = 250 Hz
%Board = OpenBCI_GUI$BoardCytonSerial
Sample Index, EXG Channel 0, EXG Channel 1, EXG Channel 2, EXG Channel 3, EXG Channel 4, EXG Channel 5, EXG Channel 6, EXG Channel 7, Accel Channel 0, Accel Channel 1, Accel Channel 2, Other, Other, Other, Other, Other, Other, Other, Analog Channel 0, Analog Channel 1, Analog Channel 2, Timestamp, Other, Timestamp (Formatted)
92.0, 12842.641811685779, -103947.59225220588, 8080.781469438251, 2628.7663136442084, -184363.0667761644, 187500.0, 22872.070714482157, 10684.089146147866, 0.0, 0.0, 0.0, 192.0, 0.0, 0.0, 0.0, 0.0, 0.0, 0.0, 0.0, 0.0, 0.0, 1.6635871690172791E9, 0.0, 2022-09-19 16:32:49.017
93.0, 12831.7788638805, -103952.0849528414, 8075.506457746799, 2629.6380316779655, -184230.61033852224, 187500.0, 22864.22525217834, 10679.842314701356, 0.628, -0.684, 0.426, 192.0, 19.0, 160.0, 234.0, 160.0, 13.0, 80.0, 0.0, 0.0, 0.0, 1.6635871690173225E9, 0.0, 2022-09-19 16:32:49.017
94.0, 12812.377549693294, -103977.87886594282, 8055.076963314648, 2624.720647897798, -184214.56178600335, 187500.0, 22847.014408947758, 10661.133904592265, 0.628, -0.684, 0.426, 192.0, 0.0, 0.0, 0.0, 0.0, 0.0, 0.0, 0.0, 0.0, 0.0, 1.663587169017354E9, 0.0, 2022-09-19 16:32:49.017
0.0, 0.0, 0.0, 0.0, 0.0, 0.0, 0.0, 0.0, 0.0, 0.628, -0.684, 0.426, 192.0, 0.0, 0.0, 0.0, 0.0, 0.0, 0.0, 0.0, 0.0, 0.0, 1.6635871691097474E9, 0.0, 2022-09-19 16:32:49.109
1.0, 12410.560239620238, -111549.82287285602, 7167.109211338665, 2036.3333268562947, -184381.8198897624, 187500.0, 23953.157538551994, 9449.892872559176, 0.628, -0.686, 0.424, 192.0, 19.0, 160.0, 234.0, 144.0, 13.0, 64.0, 0.0, 0.0, 0.0, 1.6635871691277623E9, 0.0, 2022-09-19 16:32:49.127
2.0, 12412.683655343493, -111575.90735863536, 7168.897350895089, 2039.931957713599, -184386.55845958693, 187500.0, 23956.331486264648, 9455.30199471736, 0.628, -0.686, 0.424, 192.0, 0.0, 0.0, 0.0, 0.0, 0.0, 0.0, 0.0, 0.0, 0.0, 1.663587169130766E9, 0.0, 2022-09-19 16:32:49.130
3.0, 12426.541736905783, -111588.06670761904, 7180.699071967491, 2039.708440269046, -184377.528354827, 187500.0, 23970.010753871295, 9461.359317464749, 0.628, -0.686, 0.424, 192.0, 0.0, 0.0, 0.0, 0.0, 0.0, 0.0, 0.0, 0.0, 0.0, 1.663587169133786E9, 0.0, 2022-09-19 16:32:49.133
4.0, 12444.870167359135, -111596.13568736741, 7191.807888961779, 2039.9543094580545, -184364.09495640933, 187500.0, 23981.99128889934, 9466.857846600753, 0.628, -0.686, 0.424, 192.0, 0.0, 0.0, 0.0, 0.0, 0.0, 0.0, 0.0, 0.0, 0.0, 1.6635871691367817E9, 0.0, 2022-09-19 16:32:49.136
5.0, 12436.197690510475, -111628.79158601661, 7178.2850835663185, 2041.2954141253729, -184375.516697826, 187500.0, 23968.89316664853, 9460.241730241982, 0.628, -0.686, 0.424, 192.0, 0.0, 0.0, 0.0, 0.0, 0.0, 0.0, 0.0, 0.0, 0.0, 1.663587169140814E9, 0.0, 2022-09-19 16:32:49.140
6.0, 12424.753597349358, -111668.62239463597, 7161.3201095247405, 2038.16616990163, -184398.09195972586, 187500.0, 23952.777558896254, 9448.775285336409, 0.628, -0.686, 0.424, 192.0, 0.0, 0.0, 0.0, 0.0, 0.0, 0.0, 0.0, 0.0, 0.0, 1.6635871691457846E9, 0.0, 2022-09-19 16:32:49.145
7.0, 12421.780815336802, -111697.14322056095, 7160.157818813064, 2037.160341401141, -184407.524395886, 187500.0, 23953.157538551994, 9449.021154525419, 0.628, -0.686, 0.424, 192.0, 0.0, 0.0, 0.0, 0.0, 0.0, 0.0, 0.0, 0.0, 0.0, 1.6635871691507936E9, 0.0, 2022-09-19 16:32:49.150
8.0, 12429.492167173883, -111709.74960443373, 7173.568865486249, 2033.6064140327471, -184396.66144808073, 187500.0, 23963.059361345695, 9451.189273737584, 0.628, -0.682, 0.424, 192.0, 19.0, 160.0, 234.0, 176.0, 13.0, 64.0, 0.0, 0.0, 0.0, 1.6635871691549408E9, 0.0, 2022-09-19 16:32:49.154
9.0, 12435.661248643548, -111721.4172150394, 7186.622284248148, 2038.16616990163, -184384.50209909704, 187500.0, 23974.659916718, 9457.53716916289, 0.628, -0.682, 0.424, 192.0, 0.0, 0.0, 0.0, 0.0, 0.0, 0.0, 0.0, 0.0, 0.0, 1.663587169157812E9, 0.0, 2022-09-19 16:32:49.157
10.0, 12430.229774740908, -111748.9769159528, 7177.748641699392, 2041.7871525033895, -184391.9228782562, 187500.0, 23964.78044566875, 9454.832608083798, 0.628, -0.682, 0.424, 192.0, 0.0, 0.0, 0.0, 0.0, 0.0, 0.0, 0.0, 0.0, 0.0, 1.663587169160854E9, 0.0, 2022-09-19 16:32:49.160
11.0, 12423.568954893228, -111783.75623032526, 7167.064507849755, 2041.1836554030963, -184407.1220644858, 187500.0, 23953.02342808526, 9449.065858014328, 0.628, -0.682, 0.424, 192.0, 0.0, 0.0, 0.0, 0.0, 0.0, 0.0, 0.0, 0.0, 0.0, 1.6635871691648898E9, 0.0, 2022-09-19 16:32:49.164
12.0, 12427.256992728353, -111805.05744279116, 7171.758374185369, 2043.0388501928867, -184406.16093947424, 187500.0, 23960.31009677769, 9456.799561595864, 0.628, -0.682, 0.424, 192.0, 0.0, 0.0, 0.0, 0.0, 0.0, 0.0, 0.0, 0.0, 0.0, 1.6635871691688807E9, 0.0, 2022-09-19 16:32:49.168
13.0, 12436.063580043743, -111812.56762892815, 7183.984778402421, 2040.4013443471606, -184390.49236661106, 187500.0, 23969.429608515456, 9463.840361099286, 0.628, -0.682, 0.424, 192.0, 0.0, 0.0, 0.0, 0.0, 0.0, 0.0, 0.0, 0.0, 0.0, 1.6635871691738412E9, 0.0, 2022-09-19 16:32:49.173
14.0, 12445.406609226062, -111818.40143423098, 7197.440528564517, 2038.9261292131102, -184370.8675349793, 187500.0, 23978.035030130748, 9465.986128566996, 0.628, -0.682, 0.424, 192.0, 0.0, 0.0, 0.0, 0.0, 0.0, 0.0, 0.0, 0.0, 0.0, 1.6635871691779432E9, 0.0, 2022-09-19 16:32:49.177
15.0, 12434.99069630989, -111845.93878339992, 7185.929380170033, 2040.960137958543, -184377.1707269157, 187500.0, 23967.105027092104, 9458.654756385655, 0.628, -0.682, 0.424, 192.0, 0.0, 0.0, 0.0, 0.0, 0.0, 0.0, 0.0, 0.0, 0.0, 1.6635871691809354E9, 0.0, 2022-09-19 16:32:49.180
16.0, 12427.07817877271, -111873.25261512431, 7174.887618409111, 2040.6025100472582, -184384.59150607485, 187500.0, 23954.677457174952, 9454.430276683603, 0.628, -0.682, 0.424, 192.0, 0.0, 0.0, 0.0, 0.0, 0.0, 0.0, 0.0, 0.0, 0.0, 1.6635871691849585E9, 0.0, 2022-09-19 16:32:49.184
17.0, 12429.380408451607, -111888.18358042045, 7179.022691133344, 2038.0991146682638, -184377.23778214905, 187500.0, 23955.727989164352, 9459.951157564063, 0.628, -0.682, 0.424, 192.0, 0.0, 0.0, 0.0, 0.0, 0.0, 0.0, 0.0, 0.0, 0.0, 1.6635871691888936E9, 0.0, 2022-09-19 16:32:49.188
18.0, 12438.589327167194, -111888.6082635651, 7197.060548908777, 2037.383858845694, -184359.6693110072, 187500.0, 23967.283841047745, 9470.322366991326, 0.624, -0.686, 0.422, 192.0, 19.0, 128.0, 234.0, 144.0, 13.0, 48.0, 0.0, 0.0, 0.0, 1.6635871691929965E9, 0.0, 2022-09-19 16:32:49.192
19.0, 12439.192824267486, -111894.53147584575, 7208.839918236723, 2034.6569460221467, -184370.80047974593, 187500.0, 23972.424742272466, 9471.082326302807, 0.624, -0.686, 0.422, 192.0, 0.0, 0.0, 0.0, 0.0, 0.0, 0.0, 0.0, 0.0, 0.0, 1.6635871691969543E9, 0.0, 2022-09-19 16:32:49.196
20.0, 12431.369713708129, -111918.20197322393, 7201.441490822017, 2037.4062105901494, -184358.77524122898, 187500.0, 23961.628849700555, 9464.309747732848, 0.624, -0.686, 0.422, 192.0, 0.0, 0.0, 0.0, 0.0, 0.0, 0.0, 0.0, 0.0, 0.0, 1.663587169200934E9, 0.0, 2022-09-19 16:32:49.200
21.0, 12430.900327074567, -111943.5712031807, 7190.355025572184, 2037.093286167775, -184348.13581086826, 187500.0, 23954.83391938614, 9457.7830383519, 0.624, -0.686, 0.422, 192.0, 0.0, 0.0, 0.0, 0.0, 0.0, 0.0, 0.0, 0.0, 0.0, 1.6635871692060132E9, 0.0, 2022-09-19 16:32:49.206
22.0, 12432.55435616426, -111955.41762774202, 7193.6630837515695, 2032.9135099546327, -184359.84812496282, 187500.0, 23957.11379732058, 9460.554654664356, 0.624, -0.686, 0.422, 192.0, 0.0, 0.0, 0.0, 0.0, 0.0, 0.0, 0.0, 0.0, 0.0, 1.663587169208896E9, 0.0, 2022-09-19 16:32:49.208
23.0, 12438.432864956007, -111955.66349693103, 7206.783557746835, 2033.4723035660154, -184409.64781160926, 187500.0, 23966.03214335825, 9467.059012300851, 0.624, -0.686, 0.422, 192.0, 0.0, 0.0, 0.0, 0.0, 0.0, 0.0, 0.0, 0.0, 0.0, 1.6635871692139518E9, 0.0, 2022-09-19 16:32:49.213
24.0, 12448.044115071789, -111952.33308700718, 7222.630944565648, 2036.4897890674818, -184426.3892682063, 187500.0, 23975.330469051656, 9473.026928070418, 0.624, -0.686, 0.422, 192.0, 0.0, 0.0, 0.0, 0.0, 0.0, 0.0, 0.0, 0.0, 0.0, 1.6635871692179236E9, 0.0, 2022-09-19 16:32:49.217
25.0, 12430.721513118926, -111976.33886055218, 7208.594049047715, 2031.5053500539484, -184357.74706098402, 187500.0, 23958.96899211037, 9460.956986064552, 0.624, -0.686, 0.422, 192.0, 0.0, 0.0, 0.0, 0.0, 0.0, 0.0, 0.0, 0.0, 0.0, 1.6635871692229185E9, 0.0, 2022-09-19 16:32:49.222
26.0, 12428.039303784288, -111995.47195380593, 7197.529935542338, 2028.1525883856523, -184360.0716424074, 187500.0, 23949.871832117064, 9451.837474326787, 0.624, -0.686, 0.422, 192.0, 0.0, 0.0, 0.0, 0.0, 0.0, 0.0, 0.0, 0.0, 0.0, 1.6635871692268748E9, 0.0, 2022-09-19 16:32:49.226
27.0, 12436.488263188394, -111997.90829395155, 7205.733025757436, 2028.5996232747584, -184390.98410498907, 187500.0, 23957.091445576127, 9457.201892996061, 0.624, -0.686, 0.422, 192.0, 0.0, 0.0, 0.0, 0.0, 0.0, 0.0, 0.0, 0.0, 0.0, 1.6635871692299123E9, 0.0, 2022-09-19 16:32:49.229
28.0, 12449.474626716928, -111997.86359046264, 7219.144072430619, 2032.1088471542416, -184441.07436431342, 187500.0, 23972.69296320593, 9473.697480404076, 0.628, -0.686, 0.422, 192.0, 19.0, 160.0, 234.0, 144.0, 13.0, 48.0, 0.0, 0.0, 0.0, 1.6635871692340083E9, 0.0, 2022-09-19 16:32:49.234
29.0, 12453.877920374623, -111994.35436658317, 7232.7562848039015, 2028.711381997035, -184398.89662252626, 187500.0, 23978.482065019856, 9477.40786998366, 0.628, -0.686, 0.422, 192.0, 0.0, 0.0, 0.0, 0.0, 0.0, 0.0, 0.0, 0.0, 0.0, 1.6635871692369058E9, 0.0, 2022-09-19 16:32:49.236
30.0, 12431.928507319511, -112021.04234946279, 7219.121720686165, 2030.2760041089064, -184357.6129505173, 187500.0, 23959.5054339773, 9465.91907333363, 0.628, -0.686, 0.422, 192.0, 0.0, 0.0, 0.0, 0.0, 0.0, 0.0, 0.0, 0.0, 0.0, 1.663587169240936E9, 0.0, 2022-09-19 16:32:49.240
31.0, 12425.066521771732, -112044.93636428552, 7207.945848458511, 2034.455780322049, -184359.57990402938, 187500.0, 23947.524898949254, 9466.097887289274, 0.628, -0.686, 0.422, 192.0, 0.0, 0.0, 0.0, 0.0, 0.0, 0.0, 0.0, 0.0, 0.0, 1.663587169244936E9, 0.0, 2022-09-19 16:32:49.244
32.0, 12434.588364909694, -112049.58552713222, 7215.545441573316, 2033.8746349662108, -184402.76347431703, 187500.0, 23954.27512577476, 9472.602244925767, 0.628, -0.686, 0.422, 192.0, 0.0, 0.0, 0.0, 0.0, 0.0, 0.0, 0.0, 0.0, 0.0, 1.6635871692490532E9, 0.0, 2022-09-19 16:32:49.249
33.0, 12449.429923228017, -112040.22014620545, 7233.33743015974, 2033.8969867106662, -184487.297771847, 187500.0, 23965.674515446965, 9480.559465951857, 0.628, -0.686, 0.422, 192.0, 0.0, 0.0, 0.0, 0.0, 0.0, 0.0, 0.0, 0.0, 0.0, 1.6635871692529695E9, 0.0, 2022-09-19 16:32:49.252
34.0, 12461.589272211704, -112020.81883201824, 7249.38598267865, 2033.44995182156, -184518.81373152896, 187500.0, 23973.877605662063, 9495.669245203644, 0.628, -0.686, 0.422, 192.0, 0.0, 0.0, 0.0, 0.0, 0.0, 0.0, 0.0, 0.0, 0.0, 1.6635871692569876E9, 0.0, 2022-09-19 16:32:49.256
35.0, 12461.902196634079, -112014.62739880412, 7248.178988478064, 2039.350812357761, -184446.34937600486, 187500.0, 23969.65312596001, 9499.670207461144, 0.628, -0.686, 0.422, 192.0, 0.0, 0.0, 0.0, 0.0, 0.0, 0.0, 0.0, 0.0, 0.0, 1.66358716926201E9, 0.0, 2022-09-19 16:32:49.262
36.0, 12450.592213939693, -112033.33580891321, 7230.990496991933, 2041.9436147145766, -184388.92774449917, 187500.0, 23955.392712997524, 9486.281512532416, 0.628, -0.686, 0.422, 192.0, 0.0, 0.0, 0.0, 0.0, 0.0, 0.0, 0.0, 0.0, 0.0, 1.6635871692649727E9, 0.0, 2022-09-19 16:32:49.264
37.0, 12455.688411675503, -112044.17640497404, 7229.403523135606, 2044.35760311575, -184392.16874744522, 187500.0, 23957.650239187507, 9488.78490791141, 0.628, -0.686, 0.422, 192.0, 0.0, 0.0, 0.0, 0.0, 0.0, 0.0, 0.0, 0.0, 0.0, 1.6635871692689724E9, 0.0, 2022-09-19 16:32:49.268
38.0, 12467.423077514539, -112031.07828272323, 7244.28978494284, 2039.4625710800376, -184496.1490626513, 187500.0, 23967.08267534765, 9497.993826626996, 0.628, -0.686, 0.418, 192.0, 19.0, 160.0, 234.0, 144.0, 13.0, 16.0, 0.0, 0.0, 0.0, 1.6635871692729893E9, 0.0, 2022-09-19 16:32:49.272
39.0, 12475.581464240726, -112016.79551801628, 7260.204226995019, 2037.9426524570767, -184484.81672821246, 187500.0, 23975.46457951839, 9503.581762740823, 0.628, -0.686, 0.418, 192.0, 0.0, 0.0, 0.0, 0.0, 0.0, 0.0, 0.0, 0.0, 0.0, 1.6635871692769873E9, 0.0, 2022-09-19 16:32:49.276
40.0, 12465.791400169303, -112022.53991634131, 7252.29170945784, 2041.7200972700236, -184383.25040140754, 187500.0, 23961.539442722733, 9500.944256895096, 0.628, -0.686, 0.418, 192.0, 0.0, 0.0, 0.0, 0.0, 0.0, 0.0, 0.0, 0.0, 0.0, 1.6635871692809856E9, 0.0, 2022-09-19 16:32:49.280
41.0, 12458.70589717697, -112034.2969339248, 7243.7309913314575, 2047.2633298949397, -184391.98993348956, 187500.0, 23951.145881551016, 9498.440861516103, 0.628, -0.686, 0.418, 192.0, 0.0, 0.0, 0.0, 0.0, 0.0, 0.0, 0.0, 0.0, 0.0, 1.6635871692849803E9, 0.0, 2022-09-19 16:32:49.284
42.0, 12460.158760566565, -112036.75562581488, 7246.8602355552, 2047.5091990839483, -184443.26483527003, 187500.0, 23953.537518207733, 9495.06574810335, 0.628, -0.686, 0.418, 192.0, 0.0, 0.0, 0.0, 0.0, 0.0, 0.0, 0.0, 0.0, 0.0, 1.663587169290028E9, 0.0, 2022-09-19 16:32:49.290
43.0, 12470.8428944162, -112024.43981462, 7261.902959573622, 2051.197236919074, -184511.3482488809, 187500.0, 23965.450998002412, 9505.63812323071, 0.628, -0.686, 0.418, 192.0, 0.0, 0.0, 0.0, 0.0, 0.0, 0.0, 0.0, 0.0, 0.0, 1.6635871692930784E9, 0.0, 2022-09-19 16:32:49.293
44.0, 12474.910911907067, -112011.29698888028, 7271.6706719005915, 2047.352736872761, -184446.3940794938, 187500.0, 23971.73183819435, 9505.280495319426, 0.628, -0.686, 0.418, 192.0, 0.0, 0.0, 0.0, 0.0, 0.0, 0.0, 0.0, 0.0, 0.0, 1.6635871692980435E9, 0.0, 2022-09-19 16:32:49.298
45.0, 12458.258862287863, -112032.35233215718, 7252.67168911358, 2050.0349462073978, -184350.7509649695, 187500.0, 23957.69494267642, 9489.455460245068, 0.628, -0.686, 0.418, 192.0, 0.0, 0.0, 0.0, 0.0, 0.0, 0.0, 0.0, 0.0, 0.0, 1.6635871693011346E9, 0.0, 2022-09-19 16:32:49.301
46.0, 12445.540719692794, -112057.09571326921, 7234.3432586602285, 2046.9057019836548, -184348.8510666908, 187500.0, 23944.5521169367, 9482.146439808183, 0.628, -0.686, 0.418, 192.0, 0.0, 0.0, 0.0, 0.0, 0.0, 0.0, 0.0, 0.0, 0.0, 1.6635871693060808E9, 0.0, 2022-09-19 16:32:49.306
47.0, 12455.174321553031, -112063.01892554987, 7235.5726046052705, 2045.318728127328, -184380.03175020596, 187500.0, 23950.16240479498, 9482.079384574818, 0.628, -0.686, 0.418, 192.0, 0.0, 0.0, 0.0, 0.0, 0.0, 0.0, 0.0, 0.0, 0.0, 1.6635871693111026E9, 0.0, 2022-09-19 16:32:49.311
48.0, 12466.75252518088, -112064.18121626154, 7245.832055310257, 2048.4926758399815, -184421.94127105968, 187500.0, 23960.623021200066, 9486.795602654887, 0.63, -0.684, 0.418, 192.0, 19.0, 176.0, 234.0, 160.0, 13.0, 16.0, 0.0, 0.0, 0.0, 1.663587169314102E9, 0.0, 2022-09-19 16:32:49.314
49.0, 12467.423077514539, -112065.81289360678, 7251.554101890815, 2044.9387484715878, -184412.777055833, 187500.0, 23963.618154957076, 9486.706195677067, 0.63, -0.684, 0.418, 192.0, 0.0, 0.0, 0.0, 0.0, 0.0, 0.0, 0.0, 0.0, 0.0, 1.663587169317122E9, 0.0, 2022-09-19 16:32:49.317
50.0, 12448.155873794065, -112088.0081758509, 7235.639659838636, 2045.4751903385152, -184350.23687484706, 187500.0, 23947.74841639381, 9473.742183892988, 0.63, -0.684, 0.418, 192.0, 0.0, 0.0, 0.0, 0.0, 0.0, 0.0, 0.0, 0.0, 0.0, 1.6635871693211136E9, 0.0, 2022-09-19 16:32:49.321
51.0, 12438.924603334022, -112118.49595528793, 7221.33454338724, 2048.4479723510713, -184352.18147661467, 187500.0, 23937.31015173318, 9462.454552943058, 0.63, -0.684, 0.418, 192.0, 0.0, 0.0, 0.0, 0.0, 0.0, 0.0, 0.0, 0.0, 0.0, 1.6635871693241107E9, 0.0, 2022-09-19 16:32:49.324
52.0, 12447.574728438227, -112128.42012982609, 7227.637735323637, 2047.352736872761, -184358.39526157323, 187500.0, 23945.06620705917, 9464.980300066507, 0.63, -0.684, 0.418, 192.0, 0.0, 0.0, 0.0, 0.0, 0.0, 0.0, 0.0, 0.0, 0.0, 1.6635871693290892E9, 0.0, 2022-09-19 16:32:49.329
53.0, 12456.18015005352, -112126.78845248086, 7239.305345929307, 2043.0164984484315, -184411.43595116568, 187500.0, 23956.912631620486, 9474.055108315362, 0.63, -0.684, 0.418, 192.0, 0.0, 0.0, 0.0, 0.0, 0.0, 0.0, 0.0, 0.0, 0.0, 1.6635871693330624E9, 0.0, 2022-09-19 16:32:49.333
54.0, 12452.961498851955, -112134.09747291774, 7241.540520374838, 2038.032059434898, -184380.09880543934, 187500.0, 23958.61136419909, 9471.30584374736, 0.63, -0.684, 0.418, 192.0, 0.0, 0.0, 0.0, 0.0, 0.0, 0.0, 0.0, 0.0, 0.0, 1.663587169337202E9, 0.0, 2022-09-19 16:32:49.337
55.0, 12438.097588789176, -112156.09158946176, 7227.458921367994, 2036.2439198784734, -184355.37777607178, 187500.0, 23943.12160529156, 9459.325308719315, 0.63, -0.684, 0.418, 192.0, 0.0, 0.0, 0.0, 0.0, 0.0, 0.0, 0.0, 0.0, 0.0, 1.663587169341127E9, 0.0, 2022-09-19 16:32:49.341
56.0, 12430.497995674372, -112177.66102286114, 7216.461863095983, 2035.8415884782778, -184345.6100637448, 187500.0, 23932.63863714202, 9455.078477272806, 0.63, -0.684, 0.418, 192.0, 0.0, 0.0, 0.0, 0.0, 0.0, 0.0, 0.0, 0.0, 0.0, 1.6635871693451197E9, 0.0, 2022-09-19 16:32:49.345
57.0, 12435.527138176816, -112181.9302060521, 7219.635810808637, 2032.287661109884, -184384.90443049723, 187500.0, 23936.617247655064, 9460.286433730893, 0.63, -0.684, 0.418, 192.0, 0.0, 0.0, 0.0, 0.0, 0.0, 0.0, 0.0, 0.0, 0.0, 1.663587169348166E9, 0.0, 2022-09-19 16:32:49.348
58.0, 12451.151007551076, -112168.45210414554, 7238.008944750899, 2032.8911582101773, -184471.83036468393, 187500.0, 23949.69301816142, 9472.177561781116, 0.632, -0.6880000000000001, 0.418, 192.0, 19.0, 192.0, 234.0, 128.0, 13.0, 16.0, 0.0, 0.0, 0.0, 1.6635871693521636E9, 0.0, 2022-09-19 16:32:49.352
59.0, 12454.012030841355, -112159.51140636342, 7251.263529212896, 2035.8639402227332, -184439.6885561572, 187500.0, 23954.900974619508, 9481.475887474524, 0.632, -0.6880000000000001, 0.418, 192.0, 0.0, 0.0, 0.0, 0.0, 0.0, 0.0, 0.0, 0.0, 0.0, 1.6635871693571415E9, 0.0, 2022-09-19 16:32:49.357
60.0, 12438.879899845113, -112168.58621461228, 7240.981726763454, 2034.6345942776913, -184361.68096800818, 187500.0, 23938.248925000302, 9476.647910672178, 0.632, -0.6880000000000001, 0.418, 192.0, 0.0, 0.0, 0.0, 0.0, 0.0, 0.0, 0.0, 0.0, 0.0, 1.663587169361163E9, 0.0, 2022-09-19 16:32:49.361
61.0, 12432.464949186438, -112179.65032811766, 7231.6386975811365, 2038.1214664127192, -184363.0220726755, 187500.0, 23931.07401503015, 9472.579893181311, 0.632, -0.6880000000000001, 0.418, 192.0, 0.0, 0.0, 0.0, 0.0, 0.0, 0.0, 0.0, 0.0, 0.0, 1.6635871693652089E9, 0.0, 2022-09-19 16:32:49.365
62.0, 12440.824501612724, -112181.70668860755, 7237.181930206053, 2042.9717949595208, -184460.25216105607, 187500.0, 23939.522974434254, 9473.295149003881, 0.632, -0.6880000000000001, 0.418, 192.0, 0.0, 0.0, 0.0, 0.0, 0.0, 0.0, 0.0, 0.0, 0.0, 1.6635871693691E9, 0.0, 2022-09-19 16:32:49.369
63.0, 12453.967327352444, -112170.79903731335, 7250.168293734586, 2038.7920187463785, -184485.91196369077, 187500.0, 23949.760073394787, 9481.252370029972, 0.632, -0.6880000000000001, 0.418, 192.0, 0.0, 0.0, 0.0, 0.0, 0.0, 0.0, 0.0, 0.0, 0.0, 1.6635871693721924E9, 0.0, 2022-09-19 16:32:49.372
64.0, 12465.769048424847, -112160.13725520817, 7263.221712496485, 2035.8862919671885, -184462.33087329043, 187500.0, 23954.900974619508, 9493.21055331356, 0.632, -0.6880000000000001, 0.418, 192.0, 0.0, 0.0, 0.0, 0.0, 0.0, 0.0, 0.0, 0.0, 0.0, 1.6635871693781967E9, 0.0, 2022-09-19 16:32:49.378
65.0, 12453.140312807598, -112167.0215925004, 7253.7669245918905, 2034.1652076441299, -184371.15810765722, 187500.0, 23939.03123605624, 9487.801431155376, 0.632, -0.6880000000000001, 0.418, 192.0, 0.0, 0.0, 0.0, 0.0, 0.0, 0.0, 0.0, 0.0, 0.0, 1.6635871693812807E9, 0.0, 2022-09-19 16:32:49.381
66.0, 12450.100475561676, -112171.4248861581, 7248.178988478064, 2038.8814257241997, -184415.39220993427, 187500.0, 23936.84076509962, 9490.282474789916, 0.632, -0.6880000000000001, 0.418, 192.0, 0.0, 0.0, 0.0, 0.0, 0.0, 0.0, 0.0, 0.0, 0.0, 1.6635871693862157E9, 0.0, 2022-09-19 16:32:49.386
67.0, 12455.42019074204, -112170.39670591315, 7252.224654224474, 2036.0874576672863, -184422.5224164155, 187500.0, 23943.434529713933, 9493.434070758114, 0.632, -0.6880000000000001, 0.418, 192.0, 0.0, 0.0, 0.0, 0.0, 0.0, 0.0, 0.0, 0.0, 0.0, 1.663587169389208E9, 0.0, 2022-09-19 16:32:49.389
68.0, 12462.528045478826, -112159.75727555243, 7265.076907286276, 2033.6287657772025, -184490.18114688172, 187500.0, 23948.910707105486, 9497.16681208215, 0.632, -0.684, 0.426, 192.0, 19.0, 192.0, 234.0, 160.0, 13.0, 80.0, 0.0, 0.0, 0.0, 1.6635871693932192E9, 0.0, 2022-09-19 16:32:49.393
69.0, 12471.424039772039, -112141.13827242116, 7277.035090569865, 2030.4995215534595, -184468.92463790474, 187500.0, 23952.88931761853, 9501.100719106284, 0.632, -0.684, 0.426, 192.0, 0.0, 0.0, 0.0, 0.0, 0.0, 0.0, 0.0, 0.0, 0.0, 1.663587169397221E9, 0.0, 2022-09-19 16:32:49.397
70.0, 12456.850702387179, -112151.4200748706, 7261.992366551443, 2030.9465564425657, -184385.50792759753, 187500.0, 23937.01957905526, 9489.723681178533, 0.632, -0.684, 0.426, 192.0, 0.0, 0.0, 0.0, 0.0, 0.0, 0.0, 0.0, 0.0, 0.0, 1.6635871694002683E9, 0.0, 2022-09-19 16:32:49.400
71.0, 12445.473664459429, -112165.9263570221, 7248.514264644893, 2031.6841640095909, -184397.91314577023, 187500.0, 23924.05556727118, 9485.074518331829, 0.632, -0.684, 0.426, 192.0, 0.0, 0.0, 0.0, 0.0, 0.0, 0.0, 0.0, 0.0, 0.0, 1.6635871694042335E9, 0.0, 2022-09-19 16:32:49.404
72.0, 12452.492112218395, -112164.65230758814, 7253.208130980508, 2032.645289021169, -184467.18120183723, 187500.0, 23927.944770806407, 9490.036605600906, 0.632, -0.684, 0.426, 192.0, 0.0, 0.0, 0.0, 0.0, 0.0, 0.0, 0.0, 0.0, 0.0, 1.6635871694082716E9, 0.0, 2022-09-19 16:32:49.408
73.0, 12469.144161837597, -112144.222813156, 7268.586131165759, 2031.1700738871186, -184525.42984788775, 187500.0, 23938.584201167134, 9499.02200687194, 0.632, -0.684, 0.426, 192.0, 0.0, 0.0, 0.0, 0.0, 0.0, 0.0, 0.0, 0.0, 0.0, 1.6635871694122505E9, 0.0, 2022-09-19 16:32:49.412
74.0, 12478.107211364177, -112122.69808324553, 7280.9466458495435, 2032.3770680877053, -184491.47754806012, 187500.0, 23945.177965781448, 9502.128899351228, 0.632, -0.684, 0.426, 192.0, 0.0, 0.0, 0.0, 0.0, 0.0, 0.0, 0.0, 0.0, 0.0, 1.6635871694172668E9, 0.0, 2022-09-19 16:32:49.417
75.0, 12463.176246068031, -112130.34237984924, 7263.668747385592, 2030.678335509102, -184390.35825614433, 187500.0, 23924.63671262702, 9487.06382358835, 0.632, -0.684, 0.426, 192.0, 0.0, 0.0, 0.0, 0.0, 0.0, 0.0, 0.0, 0.0, 0.0, 1.6635871694212277E9, 0.0, 2022-09-19 16:32:49.421
76.0, 12453.006202340866, -112141.85352824374, 7247.307270444307, 2031.6618122651355, -184399.63423009327, 187500.0, 23911.44918339839, 9483.6887101756, 0.632, -0.684, 0.426, 192.0, 0.0, 0.0, 0.0, 0.0, 0.0, 0.0, 0.0, 0.0, 0.0, 1.6635871694253268E9, 0.0, 2022-09-19 16:32:49.425
77.0, 12458.70589717697, -112134.8127287403, 7251.352936190718, 2038.8143704908337, -184471.24921932808, 187500.0, 23921.30630270318, 9495.40102427018, 0.632, -0.684, 0.426, 192.0, 0.0, 0.0, 0.0, 0.0, 0.0, 0.0, 0.0, 0.0, 0.0, 1.663587169428292E9, 0.0, 2022-09-19 16:32:49.428
78.0, 12468.875940904134, -112116.64076049815, 7265.546293919837, 2043.3741263597165, -184520.49011236313, 187500.0, 23934.4491284429, 9506.6439517312, 0.632, -0.684, 0.426, 192.0, 0.0, 0.0, 0.0, 0.0, 0.0, 0.0, 0.0, 0.0, 0.0, 1.6635871694322293E9, 0.0, 2022-09-19 16:32:49.432
79.0, 12473.055717117277, -112099.34051028974, 7273.928198090577, 2042.2341873924956, -184485.75550147958, 187500.0, 23937.399558711, 9509.996713399496, 0.63, -0.684, 0.43, 192.0, 19.0, 176.0, 234.0, 160.0, 13.0, 112.0, 0.0, 0.0, 0.0, 1.6635871694363089E9, 0.0, 2022-09-19 16:32:49.436
80.0, 12459.957594866466, -112105.80016443731, 7261.880607829167, 2042.6365187926913, -184386.8713840093, 187500.0, 23923.385014937525, 9499.02200687194, 0.63, -0.684, 0.43, 192.0, 0.0, 0.0, 0.0, 0.0, 0.0, 0.0, 0.0, 0.0, 0.0, 1.6635871694403028E9, 0.0, 2022-09-19 16:32:49.440
81.0, 12453.922623863535, -112113.60092325222, 7254.236311225452, 2042.5024083259593, -184404.50691038455, 187500.0, 23915.561904378166, 9494.953989381074, 0.63, -0.684, 0.43, 192.0, 0.0, 0.0, 0.0, 0.0, 0.0, 0.0, 0.0, 0.0, 0.0, 1.663587169445312E9, 0.0, 2022-09-19 16:32:49.445
82.0, 12460.18111231102, -112108.72824296096, 7260.651261884125, 2041.5412833143812, -184482.9391816782, 187500.0, 23920.747509091798, 9498.373806282736, 0.63, -0.684, 0.43, 192.0, 0.0, 0.0, 0.0, 0.0, 0.0, 0.0, 0.0, 0.0, 0.0, 1.6635871694492877E9, 0.0, 2022-09-19 16:32:49.449
83.0, 12474.03919387331, -112090.73508867444, 7277.862105114711, 2044.6928792825795, -184528.3579264114, 187500.0, 23936.505488932788, 9509.147347110194, 0.63, -0.684, 0.43, 192.0, 0.0, 0.0, 0.0, 0.0, 0.0, 0.0, 0.0, 0.0, 0.0, 1.6635871694533737E9, 0.0, 2022-09-19 16:32:49.453
84.0, 12476.408478785574, -112070.57381517575, 7290.602599454236, 2040.6248617917136, -184496.46198707368, 187500.0, 23941.91461109097, 9513.863565190264, 0.63, -0.684, 0.43, 192.0, 0.0, 0.0, 0.0, 0.0, 0.0, 0.0, 0.0, 0.0, 0.0, 1.663587169456324E9, 0.0, 2022-09-19 16:32:49.456
85.0, 12459.108228577164, -112072.67487915455, 7278.912637104111, 2043.2400158929845, -184407.7255615861, 187500.0, 23926.514259161268, 9507.605076742779, 0.63, -0.684, 0.43, 192.0, 0.0, 0.0, 0.0, 0.0, 0.0, 0.0, 0.0, 0.0, 0.0, 1.6635871694603405E9, 0.0, 2022-09-19 16:32:49.460
86.0, 12448.491149960893, -112080.05095482481, 7267.781468365368, 2047.5539025728588, -184400.21537544913, 187500.0, 23914.891352044506, 9506.420434286647, 0.63, -0.684, 0.43, 192.0, 0.0, 0.0, 0.0, 0.0, 0.0, 0.0, 0.0, 0.0, 0.0, 1.6635871694643598E9, 0.0, 2022-09-19 16:32:49.464
87.0, 12459.488208232906, -112074.5077221999, 7271.335395733762, 2050.3702223742275, -184478.82646069844, 187500.0, 23917.618264868055, 9511.293114577904, 0.63, -0.684, 0.43, 192.0, 0.0, 0.0, 0.0, 0.0, 0.0, 0.0, 0.0, 0.0, 0.0, 1.6635871694703336E9, 0.0, 2022-09-19 16:32:49.470
88.0, 12478.46483927546, -112052.62536437815, 7286.512230218916, 2050.0349462073978, -184544.58529288595, 187500.0, 23931.297532474702, 9520.211460615572, 0.63, -0.684, 0.43, 192.0, 0.0, 0.0, 0.0, 0.0, 0.0, 0.0, 0.0, 0.0, 0.0, 1.6635871694744003E9, 0.0, 2022-09-19 16:32:49.474
89.0, 12480.096516620699, -112031.9947042459, 7295.475279745493, 2044.379954860205, -184484.66026600127, 187500.0, 23933.91268657597, 9522.781911227932, 0.632, -0.684, 0.426, 192.0, 19.0, 192.0, 234.0, 160.0, 13.0, 80.0, 0.0, 0.0, 0.0, 1.6635871694773164E9, 0.0, 2022-09-19 16:32:49.477
90.0, 12467.55718798127, -112035.48157638093, 7280.589017938259, 2048.0456409508756, -184406.40680866325, 187500.0, 23921.865096314563, 9515.204669857583, 0.632, -0.684, 0.426, 192.0, 0.0, 0.0, 0.0, 0.0, 0.0, 0.0, 0.0, 0.0, 0.0, 1.663587169481495E9, 0.0, 2022-09-19 16:32:49.481
91.0, 12469.412382771061, -112033.02288449084, 7272.162410278608, 2052.6948037975794, -184450.6856144292, 187500.0, 23915.24897995579, 9518.713893737066, 0.632, -0.684, 0.426, 192.0, 0.0, 0.0, 0.0, 0.0, 0.0, 0.0, 0.0, 0.0, 0.0, 1.663587169484403E9, 0.0, 2022-09-19 16:32:49.484
92.0, 12471.80401942778, -112016.99668371638, 7275.448116713538, 2046.3469083722723, -184496.3502283514, 187500.0, 23915.427793911433, 9522.133710638727, 0.632, -0.684, 0.426, 192.0, 0.0, 0.0, 0.0, 0.0, 0.0, 0.0, 0.0, 0.0, 0.0, 1.663587169488388E9, 0.0, 2022-09-19 16:32:49.488
93.0, 12477.32490030824, -111996.70129975097, 7287.182782552574, 2045.966928716532, -184546.552246398, 187500.0, 23926.514259161268, 9528.571013041856, 0.632, -0.684, 0.426, 192.0, 0.0, 0.0, 0.0, 0.0, 0.0, 0.0, 0.0, 0.0, 0.0, 1.663587169492376E9, 0.0, 2022-09-19 16:32:49.492
94.0, 12486.198542856997, -111972.0249738723, 7300.2585530589295, 2050.258463651951, -184528.96142351168, 187500.0, 23932.236305741826, 9538.629298046744, 0.632, -0.684, 0.426, 192.0, 0.0, 0.0, 0.0, 0.0, 0.0, 0.0, 0.0, 0.0, 0.0, 1.6635871694964828E9, 0.0, 2022-09-19 16:32:49.496
95.0, 12469.680603704526, -111974.23779657339, 7284.835849384767, 2049.0067659624538, -184408.08318949738, 187500.0, 23913.460840399366, 9535.544757311913, 0.632, -0.684, 0.426, 192.0, 0.0, 0.0, 0.0, 0.0, 0.0, 0.0, 0.0, 0.0, 0.0, 1.663587169501429E9, 0.0, 2022-09-19 16:32:49.501
96.0, 12462.70685943447, -111981.94914841047, 7269.703718388524, 2048.4926758399815, -184431.3737072198, 187500.0, 23904.609549595065, 9532.773140999454, 0.632, -0.684, 0.426, 192.0, 0.0, 0.0, 0.0, 0.0, 0.0, 0.0, 0.0, 0.0, 0.0, 1.663587169505411E9, 0.0, 2022-09-19 16:32:49.505
97.0, 12471.55815023877, -111973.2766715618, 7272.207113767518, 2045.1175624272303, -184500.7088185202, 187500.0, 23910.756279320274, 9535.656516034189, 0.632, -0.684, 0.426, 192.0, 0.0, 0.0, 0.0, 0.0, 0.0, 0.0, 0.0, 0.0, 0.0, 1.663587169508417E9, 0.0, 2022-09-19 16:32:49.508
98.0, 12484.544513767305, -111948.19801428296, 7286.48987847446, 2042.1894839035851, -184563.5172204396, 187500.0, 23924.144974249004, 9539.277498635949, 0.632, -0.684, 0.426, 192.0, 0.0, 0.0, 0.0, 0.0, 0.0, 0.0, 0.0, 0.0, 0.0, 1.6635871695124116E9, 0.0, 2022-09-19 16:32:49.512
99.0, 12488.724289980448, -111923.70050235993, 7297.263419301918, 2038.9037774686549, -184510.36477212489, 187500.0, 23928.369453951058, 9539.232795147038, 0.624, -0.6900000000000001, 0.42, 192.0, 19.0, 128.0, 234.0, 112.0, 13.0, 32.0, 0.0, 0.0, 0.0, 1.6635871695163984E9, 0.0, 2022-09-19 16:32:49.516
100.0, 12473.882731662123, -111923.74520584884, 7285.841677885256, 2038.5685013018253, -184431.6419281533, 187500.0, 23913.103212488084, 9531.230870632038, 0.624, -0.6900000000000001, 0.42, 192.0, 0.0, 0.0, 0.0, 0.0, 0.0, 0.0, 0.0, 0.0, 0.0, 1.6635871695203795E9, 0.0, 2022-09-19 16:32:49.520
101.0, 12469.23356881542, -111925.15336574953, 7273.861142857211, 2036.9815274454986, -184444.3377190039, 187500.0, 23904.25192168378, 9525.441768818113, 0.624, -0.6900000000000001, 0.42, 192.0, 0.0, 0.0, 0.0, 0.0, 0.0, 0.0, 0.0, 0.0, 0.0, 1.6635871695245376E9, 0.0, 2022-09-19 16:32:49.524
102.0, 12474.709746206969, -111915.34094993366, 7273.928198090577, 2036.1321611561968, -184510.43182735823, 187500.0, 23907.269407185246, 9527.02874267444, 0.624, -0.6900000000000001, 0.42, 192.0, 0.0, 0.0, 0.0, 0.0, 0.0, 0.0, 0.0, 0.0, 0.0, 1.6635871695284066E9, 0.0, 2022-09-19 16:32:49.528
103.0, 12481.839952688213, -111898.17481019198, 7283.785317395368, 2035.908643711644, -184537.92447303826, 187500.0, 23918.06529975716, 9532.683734021633, 0.624, -0.6900000000000001, 0.42, 192.0, 0.0, 0.0, 0.0, 0.0, 0.0, 0.0, 0.0, 0.0, 0.0, 1.6635871695334868E9, 0.0, 2022-09-19 16:32:49.533
104.0, 12480.856475932178, -111878.34881286012, 7293.307160533329, 2031.0136116759315, -184516.3997431278, 187500.0, 23920.188715480414, 9533.778969499943, 0.624, -0.6900000000000001, 0.42, 192.0, 0.0, 0.0, 0.0, 0.0, 0.0, 0.0, 0.0, 0.0, 0.0, 1.6635871695364747E9, 0.0, 2022-09-19 16:32:49.536
105.0, 12458.147103565587, -111885.16609491898, 7276.029262069376, 2033.9416901995767, -184403.45637839515, 187500.0, 23901.01091873776, 9520.591440271312, 0.624, -0.6900000000000001, 0.42, 192.0, 0.0, 0.0, 0.0, 0.0, 0.0, 0.0, 0.0, 0.0, 0.0, 1.6635871695414884E9, 0.0, 2022-09-19 16:32:49.541
106.0, 12451.486283717906, -111895.26908341279, 7260.5171514173935, 2031.1700738871186, -184415.43691342318, 187500.0, 23888.896273242986, 9510.399044799691, 0.624, -0.6900000000000001, 0.42, 192.0, 0.0, 0.0, 0.0, 0.0, 0.0, 0.0, 0.0, 0.0, 0.0, 1.6635871695454514E9, 0.0, 2022-09-19 16:32:49.545
107.0, 12459.287042532807, -111882.97562396237, 7266.8650468427, 2029.44898956406, -184533.61058635838, 187500.0, 23891.86905525554, 9514.847041946297, 0.624, -0.6900000000000001, 0.42, 192.0, 0.0, 0.0, 0.0, 0.0, 0.0, 0.0, 0.0, 0.0, 0.0, 1.6635871695494273E9, 0.0, 2022-09-19 16:32:49.549
108.0, 12474.352118295685, -111854.41009454848, 7283.673558673091, 2033.6958210105684, -184560.23151400467, 187500.0, 23906.263578684757, 9522.983076928029, 0.624, -0.6900000000000001, 0.42, 192.0, 0.0, 0.0, 0.0, 0.0, 0.0, 0.0, 0.0, 0.0, 0.0, 1.663587169554696E9, 0.0, 2022-09-19 16:32:49.554
109.0, 12481.95171141049, -111837.1992513179, 7291.295503532351, 2034.6345942776913, -184488.25889685858, 187500.0, 23915.271331700245, 9525.061789162373, 0.62, -0.686, 0.424, 192.0, 19.0, 96.0, 234.0, 144.0, 13.0, 64.0, 0.0, 0.0, 0.0, 1.6635871695574937E9, 0.0, 2022-09-19 16:32:49.557
110.0, 12467.825408914734, -111845.42469327745, 7275.4928202024485, 2038.54614955737, -184410.2289569651, 187500.0, 23900.25095942628, 9518.669190248154, 0.62, -0.686, 0.424, 192.0, 0.0, 0.0, 0.0, 0.0, 0.0, 0.0, 0.0, 0.0, 0.0, 1.6635871695625205E9, 0.0, 2022-09-19 16:32:49.562
111.0, 12462.237472800907, -111852.95723115889, 7263.57934040777, 2037.7638385014343, -184422.25419548206, 187500.0, 23889.92445348793, 9514.377655312735, 0.62, -0.686, 0.424, 192.0, 0.0, 0.0, 0.0, 0.0, 0.0, 0.0, 0.0, 0.0, 0.0, 1.6635871695655074E9, 0.0, 2022-09-19 16:32:49.565
112.0, 12462.304528034274, -111847.01166713377, 7267.6250061541805, 2037.4062105901494, -184498.6971615192, 187500.0, 23894.215988423348, 9520.12205363775, 0.62, -0.686, 0.424, 192.0, 0.0, 0.0, 0.0, 0.0, 0.0, 0.0, 0.0, 0.0, 0.0, 1.6635871695695553E9, 0.0, 2022-09-19 16:32:49.569
113.0, 12475.51440900736, -111824.68227442293, 7285.305236018328, 2037.2721001234174, -184546.4628394202, 187500.0, 23904.900122272986, 9531.052056676395, 0.62, -0.686, 0.424, 192.0, 0.0, 0.0, 0.0, 0.0, 0.0, 0.0, 0.0, 0.0, 0.0, 1.6635871695725527E9, 0.0, 2022-09-19 16:32:49.572
114.0, 12475.693222963004, -111813.03701556171, 7291.273151787896, 2032.2653093654287, -184458.6875389442, 187500.0, 23905.21304669536, 9524.324181595348, 0.62, -0.686, 0.424, 192.0, 0.0, 0.0, 0.0, 0.0, 0.0, 0.0, 0.0, 0.0, 0.0, 1.6635871695765245E9, 0.0, 2022-09-19 16:32:49.576
115.0, 12459.510559977361, -111818.80376563118, 7276.453945214027, 2031.8853297096884, -184392.54872710095, 187500.0, 23885.81173250815, 9512.254239589482, 0.62, -0.686, 0.424, 192.0, 0.0, 0.0, 0.0, 0.0, 0.0, 0.0, 0.0, 0.0, 0.0, 1.6635871695805147E9, 0.0, 2022-09-19 16:32:49.580
116.0, 12453.36383025215, -111829.75612041428, 7260.047764783832, 2034.1875593885852, -184408.73139008658, 187500.0, 23874.166473646936, 9506.196916842095, 0.62, -0.686, 0.424, 192.0, 0.0, 0.0, 0.0, 0.0, 0.0, 0.0, 0.0, 0.0, 0.0, 1.6635871695846941E9, 0.0, 2022-09-19 16:32:49.584
117.0, 12461.879844889623, -111827.40918724648, 7259.4666194279935, 2033.315841354828, -184467.71764370415, 187500.0, 23875.999316692272, 9508.968533154552, 0.62, -0.686, 0.424, 192.0, 0.0, 0.0, 0.0, 0.0, 0.0, 0.0, 0.0, 0.0, 0.0, 1.6635871695895424E9, 0.0, 2022-09-19 16:32:49.589
118.0, 12477.95074915299, -111807.71730038135, 7277.169201036597, 2037.7191350125236, -184528.24616768913, 187500.0, 23889.522122087732, 9519.898536193197, 0.62, -0.686, 0.424, 192.0, 0.0, 0.0, 0.0, 0.0, 0.0, 0.0, 0.0, 0.0, 0.0, 1.6635871695926034E9, 0.0, 2022-09-19 16:32:49.592
119.0, 12484.969196911956, -111787.62308211603, 7289.239143042463, 2034.5898907887806, -184496.3502283514, 187500.0, 23893.076049456125, 9521.485510049524, 0.618, -0.684, 0.426, 192.0, 19.0, 80.0, 234.0, 160.0, 13.0, 80.0, 0.0, 0.0, 0.0, 1.6635871695965087E9, 0.0, 2022-09-19 16:32:49.596
120.0, 12466.32784203623, -111791.86991356254, 7275.090488802253, 2031.9076814541438, -184405.24451795156, 187500.0, 23875.4852265698, 9507.873297676242, 0.618, -0.684, 0.426, 192.0, 0.0, 0.0, 0.0, 0.0, 0.0, 0.0, 0.0, 0.0, 0.0, 1.663587169600577E9, 0.0, 2022-09-19 16:32:49.600
121.0, 12453.050905829778, -111807.04674804768, 7260.6959653730355, 2037.674431523613, -184380.1658606727, 187500.0, 23867.259784610247, 9501.346588295291, 0.618, -0.684, 0.426, 192.0, 0.0, 0.0, 0.0, 0.0, 0.0, 0.0, 0.0, 0.0, 0.0, 1.663587169604598E9, 0.0, 2022-09-19 16:32:49.604
122.0, 12455.934280864512, -111804.25277999077, 7262.148828762631, 2037.6520797791577, -184470.91394316126, 187500.0, 23870.791360234187, 9503.827631929831, 0.618, -0.684, 0.426, 192.0, 0.0, 0.0, 0.0, 0.0, 0.0, 0.0, 0.0, 0.0, 0.0, 1.6635871696085582E9, 0.0, 2022-09-19 16:32:49.608
123.0, 12470.731135693924, -111783.64447160298, 7281.728956905479, 2039.194350146574, -184556.87875233637, 187500.0, 23886.72815403082, 9515.674056491143, 0.618, -0.684, 0.426, 192.0, 0.0, 0.0, 0.0, 0.0, 0.0, 0.0, 0.0, 0.0, 0.0, 1.6635871696126368E9, 0.0, 2022-09-19 16:32:49.612
124.0, 12469.300624048785, -111771.95450925286, 7286.4675267300045, 2033.3605448437388, -184453.81485865294, 187500.0, 23886.4375813529, 9513.17066111215, 0.618, -0.684, 0.426, 192.0, 0.0, 0.0, 0.0, 0.0, 0.0, 0.0, 0.0, 0.0, 0.0, 1.663587169616577E9, 0.0, 2022-09-19 16:32:49.616
125.0, 12450.547510450782, -111782.72805008032, 7266.7979916093345, 2037.2050448900516, -184381.66342755122, 187500.0, 23865.695162498378, 9502.374768540236, 0.618, -0.684, 0.426, 192.0, 0.0, 0.0, 0.0, 0.0, 0.0, 0.0, 0.0, 0.0, 0.0, 1.6635871696196184E9, 0.0, 2022-09-19 16:32:49.619
126.0, 12443.305545247264, -111795.51324790875, 7250.81649432379, 2041.7200972700236, -184408.06083775294, 187500.0, 23853.356999559048, 9492.808221913365, 0.618, -0.684, 0.426, 192.0, 0.0, 0.0, 0.0, 0.0, 0.0, 0.0, 0.0, 0.0, 0.0, 1.6635871696255856E9, 0.0, 2022-09-19 16:32:49.625
127.0, 12450.636917428603, -111791.60169262908, 7253.833979825256, 2043.7541060154565, -184479.47466128765, 187500.0, 23856.642705993978, 9498.507916749468, 0.618, -0.684, 0.426, 192.0, 0.0, 0.0, 0.0, 0.0, 0.0, 0.0, 0.0, 0.0, 0.0, 1.66358716962865E9, 0.0, 2022-09-19 16:32:49.628
128.0, 12464.137371079609, -111776.69307907738, 7268.362613721206, 2041.2954141253729, -184536.06927824847, 187500.0, 23868.19855787737, 9508.02975988743, 0.618, -0.684, 0.426, 192.0, 0.0, 0.0, 0.0, 0.0, 0.0, 0.0, 0.0, 0.0, 0.0, 1.6635871696337373E9, 0.0, 2022-09-19 16:32:49.633
129.0, 12470.462914760461, -111767.35004989506, 7274.10701204622, 2034.3440215997723, -184439.59914917938, 187500.0, 23866.745694487774, 9505.88399241972, 0.624, -0.6880000000000001, 0.426, 192.0, 19.0, 128.0, 234.0, 128.0, 13.0, 80.0, 0.0, 0.0, 0.0, 1.6635871696386137E9, 0.0, 2022-09-19 16:32:49.638
130.0, 12457.722420420936, -111777.63185234451, 7261.210055495508, 2034.7016495110572, -184385.93261074217, 187500.0, 23847.657304722943, 9496.049224859384, 0.624, -0.6880000000000001, 0.426, 192.0, 0.0, 0.0, 0.0, 0.0, 0.0, 0.0, 0.0, 0.0, 0.0, 1.6635871696416492E9, 0.0, 2022-09-19 16:32:49.641
131.0, 12454.660231430558, -111788.5842071276, 7250.548273390326, 2039.8201989913225, -184413.7828843335, 187500.0, 23838.67190345191, 9490.505992234468, 0.624, -0.6880000000000001, 0.426, 192.0, 0.0, 0.0, 0.0, 0.0, 0.0, 0.0, 0.0, 0.0, 0.0, 1.6635871696447592E9, 0.0, 2022-09-19 16:32:49.644
132.0, 12462.41628675655, -111786.01375651524, 7256.806761837812, 2043.7541060154565, -184476.9936176531, 187500.0, 23845.980923888794, 9496.11628009275, 0.624, -0.6880000000000001, 0.426, 192.0, 0.0, 0.0, 0.0, 0.0, 0.0, 0.0, 0.0, 0.0, 0.0, 1.663587169648636E9, 0.0, 2022-09-19 16:32:49.648
133.0, 12473.636862473115, -111772.60270984206, 7271.715375389502, 2040.513103069437, -184521.04890597452, 187500.0, 23856.15096761596, 9501.145422595195, 0.624, -0.6880000000000001, 0.426, 192.0, 0.0, 0.0, 0.0, 0.0, 0.0, 0.0, 0.0, 0.0, 0.0, 1.6635871696526625E9, 0.0, 2022-09-19 16:32:49.652
134.0, 12485.32682482324, -111751.45795958734, 7285.573456951793, 2043.6870507820906, -184498.71951326367, 187500.0, 23862.856490952552, 9504.565239496857, 0.624, -0.6880000000000001, 0.426, 192.0, 0.0, 0.0, 0.0, 0.0, 0.0, 0.0, 0.0, 0.0, 0.0, 1.6635871696566863E9, 0.0, 2022-09-19 16:32:49.656
135.0, 12464.98673736891, -111762.56677658163, 7268.273206743384, 2050.92901598561, -184375.00260770353, 187500.0, 23846.29384831117, 9496.965646382052, 0.624, -0.6880000000000001, 0.426, 192.0, 0.0, 0.0, 0.0, 0.0, 0.0, 0.0, 0.0, 0.0, 0.0, 1.6635871696607614E9, 0.0, 2022-09-19 16:32:49.660
136.0, 12455.062562830755, -111774.41320114293, 7254.549235647826, 2054.5947020762806, -184390.47001486662, 187500.0, 23836.257915050737, 9494.931637636619, 0.624, -0.6880000000000001, 0.426, 192.0, 0.0, 0.0, 0.0, 0.0, 0.0, 0.0, 0.0, 0.0, 0.0, 1.6635871696646824E9, 0.0, 2022-09-19 16:32:49.664
137.0, 12457.633013443115, -111773.630890087, 7255.443305426038, 2049.7220217850236, -184453.90426563076, 187500.0, 23837.688426695877, 9495.266913803449, 0.624, -0.6880000000000001, 0.426, 192.0, 0.0, 0.0, 0.0, 0.0, 0.0, 0.0, 0.0, 0.0, 0.0, 1.663587169668692E9, 0.0, 2022-09-19 16:32:49.668
138.0, 12471.46874326095, -111761.3821341255, 7267.9155788320995, 2046.995108961476, -184521.89827226382, 187500.0, 23848.506671012245, 9498.105585349273, 0.624, -0.6880000000000001, 0.426, 192.0, 0.0, 0.0, 0.0, 0.0, 0.0, 0.0, 0.0, 0.0, 0.0, 1.6635871696717126E9, 0.0, 2022-09-19 16:32:49.671
139.0, 12482.152877110586, -111745.84767172906, 7279.784355137868, 2047.1515711726634, -184459.9392366337, 187500.0, 23854.742807715276, 9500.005483627974, 0.63, -0.684, 0.426, 192.0, 19.0, 176.0, 234.0, 160.0, 13.0, 80.0, 0.0, 0.0, 0.0, 1.6635871696757925E9, 0.0, 2022-09-19 16:32:49.675
140.0, 12462.885673390112, -111759.66104980244, 7265.00985205291, 2046.995108961476, -184370.53225881248, 187500.0, 23839.00717961874, 9491.958855624063, 0.63, -0.684, 0.426, 192.0, 0.0, 0.0, 0.0, 0.0, 0.0, 0.0, 0.0, 0.0, 0.0, 1.663587169679733E9, 0.0, 2022-09-19 16:32:49.679
141.0, 12454.190844796998, -111773.09444822007, 7251.8893780576445, 2042.770629259423, -184388.41365437672, 187500.0, 23828.032473091185, 9482.906399119664, 0.63, -0.684, 0.426, 192.0, 0.0, 0.0, 0.0, 0.0, 0.0, 0.0, 0.0, 0.0, 0.0, 1.6635871696847243E9, 0.0, 2022-09-19 16:32:49.684
142.0, 12460.941071622501, -111777.40833489996, 7251.844674568734, 2043.9776234600097, -184434.45824795464, 187500.0, 23834.112147583026, 9482.92875086412, 0.63, -0.684, 0.426, 192.0, 0.0, 0.0, 0.0, 0.0, 0.0, 0.0, 0.0, 0.0, 0.0, 1.663587169688788E9, 0.0, 2022-09-19 16:32:49.688
143.0, 12476.833161930224, -111768.60174758456, 7265.501590430927, 2046.5927775612806, -184494.1374056503, 187500.0, 23849.221926834816, 9491.467117246046, 0.63, -0.684, 0.426, 192.0, 0.0, 0.0, 0.0, 0.0, 0.0, 0.0, 0.0, 0.0, 0.0, 1.663587169692767E9, 0.0, 2022-09-19 16:32:49.692
144.0, 12481.147048610097, -111755.95066022285, 7278.309140003817, 2045.318728127328, -184455.4912394871, 187500.0, 23854.943973415375, 9493.143498080195, 0.63, -0.684, 0.426, 192.0, 0.0, 0.0, 0.0, 0.0, 0.0, 0.0, 0.0, 0.0, 0.0, 1.663587169696715E9, 0.0, 2022-09-19 16:32:49.696
145.0, 12463.80209491278, -111769.8310935296, 7264.048727041331, 2048.872655495722, -184355.82481096088, 187500.0, 23836.10145283955, 9480.514762462946, 0.63, -0.684, 0.426, 192.0, 0.0, 0.0, 0.0, 0.0, 0.0, 0.0, 0.0, 0.0, 0.0, 1.6635871697007835E9, 0.0, 2022-09-19 16:32:49.700
146.0, 12458.70589717697, -111787.13134373802, 7251.330584446262, 2052.73950728649, -184387.09490145385, 187500.0, 23828.881839380487, 9474.993881582484, 0.63, -0.684, 0.426, 192.0, 0.0, 0.0, 0.0, 0.0, 0.0, 0.0, 0.0, 0.0, 0.0, 1.6635871697057772E9, 0.0, 2022-09-19 16:32:49.705
147.0, 12466.059621102766, -111787.64543386048, 7253.364593191695, 2052.136010186197, -184439.8450183684, 187500.0, 23835.25208655025, 9478.54780895088, 0.63, -0.684, 0.426, 192.0, 0.0, 0.0, 0.0, 0.0, 0.0, 0.0, 0.0, 0.0, 0.0, 1.6635871697087612E9, 0.0, 2022-09-19 16:32:49.708
148.0, 12477.146086352597, -111775.30727092116, 7265.970977064488, 2052.158361930652, -184486.8507369579, 187500.0, 23846.09268261107, 9487.846134644287, 0.63, -0.684, 0.426, 192.0, 0.0, 0.0, 0.0, 0.0, 0.0, 0.0, 0.0, 0.0, 0.0, 1.6635871697137895E9, 0.0, 2022-09-19 16:32:49.713
149.0, 12488.61253125817, -111762.99145972628, 7273.615273668203, 2053.745335786979, -184469.4387280272, 187500.0, 23850.652438479956, 9492.78587016891, 0.628, -0.682, 0.428, 192.0, 19.0, 160.0, 234.0, 176.0, 13.0, 96.0, 0.0, 0.0, 0.0, 1.663587169716834E9, 0.0, 2022-09-19 16:32:49.716
150.0, 12471.960481638967, -111775.95547151036, 7256.315023459795, 2054.035908464898, -184384.63620956376, 187500.0, 23833.41924350491, 9483.040509586395, 0.628, -0.682, 0.428, 192.0, 0.0, 0.0, 0.0, 0.0, 0.0, 0.0, 0.0, 0.0, 0.0, 1.6635871697218382E9, 0.0, 2022-09-19 16:32:49.721
151.0, 12461.656327445071, -111797.10022176508, 7241.495816885927, 2054.5947020762806, -184365.14548839873, 187500.0, 23821.61752243251, 9477.720794406032, 0.628, -0.682, 0.428, 192.0, 0.0, 0.0, 0.0, 0.0, 0.0, 0.0, 0.0, 0.0, 0.0, 1.6635871697257693E9, 0.0, 2022-09-19 16:32:49.725
152.0, 12465.299661791285, -111801.16823925595, 7244.28978494284, 2051.800734019367, -184456.20649530966, 187500.0, 23830.111185325528, 9477.564332194845, 0.628, -0.682, 0.428, 192.0, 0.0, 0.0, 0.0, 0.0, 0.0, 0.0, 0.0, 0.0, 0.0, 1.6635871697288532E9, 0.0, 2022-09-19 16:32:49.728
153.0, 12481.28115907683, -111786.4831431488, 7259.824247339278, 2050.3478706297724, -184495.81378648448, 187500.0, 23847.836118678584, 9487.801431155376, 0.628, -0.682, 0.428, 192.0, 0.0, 0.0, 0.0, 0.0, 0.0, 0.0, 0.0, 0.0, 0.0, 1.663587169731788E9, 0.0, 2022-09-19 16:32:49.731
154.0, 12483.046946888799, -111779.62115760102, 7267.468543942994, 2047.2186264060292, -184441.56610269143, 187500.0, 23850.00423789075, 9493.165849824649, 0.628, -0.682, 0.428, 192.0, 0.0, 0.0, 0.0, 0.0, 0.0, 0.0, 0.0, 0.0, 0.0, 1.6635871697358048E9, 0.0, 2022-09-19 16:32:49.735
155.0, 12462.013955356355, -111792.3393001961, 7250.972956534977, 2048.313861884339, -184372.34275011334, 187500.0, 23830.51351672572, 9485.767422409943, 0.628, -0.682, 0.428, 192.0, 0.0, 0.0, 0.0, 0.0, 0.0, 0.0, 0.0, 0.0, 0.0, 1.6635871697398083E9, 0.0, 2022-09-19 16:32:49.739
156.0, 12450.815731384246, -111809.72895738232, 7238.81360755129, 2047.8891787396883, -184394.96271550213, 187500.0, 23820.05290032064, 9480.894742118686, 0.628, -0.682, 0.428, 192.0, 0.0, 0.0, 0.0, 0.0, 0.0, 0.0, 0.0, 0.0, 0.0, 1.6635871697448304E9, 0.0, 2022-09-19 16:32:49.744
157.0, 12454.74963840838, -111818.71435865336, 7239.215938951485, 2050.861960752244, -184418.61086113585, 187500.0, 23824.076214322595, 9483.867524131241, 0.628, -0.682, 0.428, 192.0, 0.0, 0.0, 0.0, 0.0, 0.0, 0.0, 0.0, 0.0, 0.0, 1.6635871697488754E9, 0.0, 2022-09-19 16:32:49.748
158.0, 12469.099458348688, -111807.02439630323, 7256.002099037421, 2044.4470100935712, -184503.92746972173, 187500.0, 23833.508650482734, 9491.511820734957, 0.628, -0.682, 0.428, 192.0, 0.0, 0.0, 0.0, 0.0, 0.0, 0.0, 0.0, 0.0, 0.0, 1.6635871697529423E9, 0.0, 2022-09-19 16:32:49.752
159.0, 12468.205388570475, -111795.75911709775, 7266.015680553399, 2048.224454906518, -184470.66807397225, 187500.0, 23836.816708662118, 9497.323274293336, 0.626, -0.6880000000000001, 0.426, 192.0, 19.0, 144.0, 234.0, 128.0, 13.0, 80.0, 0.0, 0.0, 0.0, 1.663587169755897E9, 0.0, 2022-09-19 16:32:49.755
160.0, 12454.928452364024, -111811.65120740548, 7253.096372258231, 2053.2088939200517, -184357.88117145078, 187500.0, 23821.773984643696, 9493.411719013659, 0.626, -0.6880000000000001, 0.426, 192.0, 0.0, 0.0, 0.0, 0.0, 0.0, 0.0, 0.0, 0.0, 0.0, 1.6635871697598903E9, 0.0, 2022-09-19 16:32:49.759
161.0, 12448.491149960893, -111830.80665240368, 7239.595918607226, 2049.4985043404704, -184372.767433258, 187500.0, 23810.24048450476, 9485.54390496539, 0.626, -0.6880000000000001, 0.426, 192.0, 0.0, 0.0, 0.0, 0.0, 0.0, 0.0, 0.0, 0.0, 0.0, 1.6635871697639005E9, 0.0, 2022-09-19 16:32:49.763
162.0, 12461.812789656256, -111828.03503609123, 7247.9107675446, 2050.4372776075934, -184456.7876406655, 187500.0, 23817.884781108474, 9488.360224766759, 0.626, -0.6880000000000001, 0.426, 192.0, 0.0, 0.0, 0.0, 0.0, 0.0, 0.0, 0.0, 0.0, 0.0, 1.66358716976796E9, 0.0, 2022-09-19 16:32:49.767
163.0, 12472.541626994805, -111819.56372494267, 7258.5278461608705, 2044.73758277149, -184483.9450101787, 187500.0, 23823.070385822106, 9490.327178278825, 0.626, -0.6880000000000001, 0.426, 192.0, 0.0, 0.0, 0.0, 0.0, 0.0, 0.0, 0.0, 0.0, 0.0, 1.6635871697728758E9, 0.0, 2022-09-19 16:32:49.772
164.0, 12472.832199672725, -111811.20417251637, 7261.835904340256, 2039.0155361909315, -184467.24825707058, 187500.0, 23819.42705147589, 9487.73437592201, 0.626, -0.6880000000000001, 0.426, 192.0, 0.0, 0.0, 0.0, 0.0, 0.0, 0.0, 0.0, 0.0, 0.0, 1.6635871697769089E9, 0.0, 2022-09-19 16:32:49.776
165.0, 12453.453237229973, -111824.48110872283, 7243.5521773758155, 2042.9270914706103, -184370.93459021268, 187500.0, 23801.14332451145, 9478.056070572862, 0.626, -0.6880000000000001, 0.426, 192.0, 0.0, 0.0, 0.0, 0.0, 0.0, 0.0, 0.0, 0.0, 0.0, 1.6635871697799804E9, 0.0, 2022-09-19 16:32:49.779
166.0, 12441.60681266866, -111843.65890546548, 7226.386037634139, 2046.9280537281102, -184347.21938934558, 187500.0, 23792.448495918336, 9472.602244925767, 0.626, -0.6880000000000001, 0.426, 192.0, 0.0, 0.0, 0.0, 0.0, 0.0, 0.0, 0.0, 0.0, 0.0, 1.663587169783959E9, 0.0, 2022-09-19 16:32:49.783
167.0, 12443.909042347555, -111850.99027764682, 7227.369514390173, 2046.7268880280124, -184436.0899252999, 187500.0, 23800.450420433335, 9475.01623332694, 0.626, -0.6880000000000001, 0.426, 192.0, 0.0, 0.0, 0.0, 0.0, 0.0, 0.0, 0.0, 0.0, 0.0, 1.6635871697879467E9, 0.0, 2022-09-19 16:32:49.787
168.0, 12453.922623863535, -111843.72596069885, 7244.490950642938, 2044.8269897493112, -184502.11697842088, 187500.0, 23815.023757818195, 9486.929713121619, 0.626, -0.6880000000000001, 0.426, 192.0, 0.0, 0.0, 0.0, 0.0, 0.0, 0.0, 0.0, 0.0, 0.0, 1.6635871697919602E9, 0.0, 2022-09-19 16:32:49.791
169.0, 12462.505693734372, -111833.6006204606, 7257.253796726918, 2045.6093008052471, -184464.40958552476, 187500.0, 23821.10343231004, 9492.629407957722, 0.624, -0.6880000000000001, 0.422, 192.0, 19.0, 128.0, 234.0, 128.0, 13.0, 48.0, 0.0, 0.0, 0.0, 1.6635871697959635E9, 0.0, 2022-09-19 16:32:49.795
170.0, 12450.391048239595, -111851.92905091394, 7242.43459015305, 2051.0184229634315, -184364.3184738539, 187500.0, 23804.741955368754, 9483.487544475502, 0.624, -0.6880000000000001, 0.422, 192.0, 0.0, 0.0, 0.0, 0.0, 0.0, 0.0, 0.0, 0.0, 0.0, 1.663587169801918E9, 0.0, 2022-09-19 16:32:49.801
171.0, 12442.858510358157, -111869.02813542225, 7233.76211330439, 2048.157399673152, -184384.94913398614, 187500.0, 23793.297862207637, 9478.72662290652, 0.624, -0.6880000000000001, 0.422, 192.0, 0.0, 0.0, 0.0, 0.0, 0.0, 0.0, 0.0, 0.0, 0.0, 1.6635871698048832E9, 0.0, 2022-09-19 16:32:49.804
172.0, 12447.552376693771, -111868.96108018889, 7241.026430252366, 2048.805600262356, -184467.24825707058, 187500.0, 23798.774039599186, 9482.079384574818, 0.624, -0.6880000000000001, 0.422, 192.0, 0.0, 0.0, 0.0, 0.0, 0.0, 0.0, 0.0, 0.0, 0.0, 1.6635871698090203E9, 0.0, 2022-09-19 16:32:49.809
173.0, 12463.645632701593, -111854.67831548194, 7258.997232794432, 2052.247768908473, -184492.7515974941, 187500.0, 23812.587417672567, 9494.238733558504, 0.624, -0.6880000000000001, 0.422, 192.0, 0.0, 0.0, 0.0, 0.0, 0.0, 0.0, 0.0, 0.0, 0.0, 1.663587169811932E9, 0.0, 2022-09-19 16:32:49.811
174.0, 12462.729211178925, -111852.91252766998, 7265.00985205291, 2048.895007240177, -184442.61663468083, 187500.0, 23815.4707927073, 9497.45738476007, 0.624, -0.6880000000000001, 0.422, 192.0, 0.0, 0.0, 0.0, 0.0, 0.0, 0.0, 0.0, 0.0, 0.0, 1.6635871698159363E9, 0.0, 2022-09-19 16:32:49.815
175.0, 12447.150045293576, -111869.13989414454, 7249.0730582562755, 2041.3624693587387, -184371.4263285907, 187500.0, 23796.024775031183, 9484.247503786983, 0.624, -0.6880000000000001, 0.422, 192.0, 0.0, 0.0, 0.0, 0.0, 0.0, 0.0, 0.0, 0.0, 0.0, 1.6635871698199677E9, 0.0, 2022-09-19 16:32:49.819
176.0, 12442.545585935783, -111884.58494956314, 7239.5065116294045, 2042.8600362372442, -184395.94619225815, 187500.0, 23793.34256569655, 9476.983186839007, 0.624, -0.6880000000000001, 0.422, 192.0, 0.0, 0.0, 0.0, 0.0, 0.0, 0.0, 0.0, 0.0, 0.0, 1.6635871698240669E9, 0.0, 2022-09-19 16:32:49.824
177.0, 12451.553338951271, -111882.93092047346, 7247.57549137777, 2044.8493414937666, -184461.32504478993, 187500.0, 23799.75751635522, 9478.346643250781, 0.624, -0.6880000000000001, 0.422, 192.0, 0.0, 0.0, 0.0, 0.0, 0.0, 0.0, 0.0, 0.0, 0.0, 1.663587169827984E9, 0.0, 2022-09-19 16:32:49.827
178.0, 12461.186940811509, -111874.32549885816, 7260.025413039376, 2043.7541060154565, -184486.4484055577, 187500.0, 23807.89355133695, 9487.935541622108, 0.624, -0.6880000000000001, 0.422, 192.0, 0.0, 0.0, 0.0, 0.0, 0.0, 0.0, 0.0, 0.0, 0.0, 1.6635871698329666E9, 0.0, 2022-09-19 16:32:49.832
179.0, 12469.501789748883, -111859.39453356202, 7275.671634158091, 2048.0456409508756, -184490.22585037065, 187500.0, 23815.09081305156, 9499.670207461144, 0.624, -0.6880000000000001, 0.422, 192.0, 0.0, 0.0, 0.0, 0.0, 0.0, 0.0, 0.0, 0.0, 0.0, 1.663587169836054E9, 0.0, 2022-09-19 16:32:49.836
180.0, 12455.263728530852, -111869.0504871667, 7265.970977064488, 2053.9465014870766, -184394.15805270174, 187500.0, 23800.673937877888, 9493.009387613463, 0.634, -0.6900000000000001, 0.426, 192.0, 19.0, 208.0, 234.0, 112.0, 13.0, 80.0, 0.0, 0.0, 0.0, 1.6635871698399727E9, 0.0, 2022-09-19 16:32:49.839
181.0, 12449.340516250197, -111882.37212686207, 7255.800933337323, 2051.510161341448, -184396.16970970272, 187500.0, 23790.05685926162, 9484.672186931633, 0.634, -0.6900000000000001, 0.426, 192.0, 0.0, 0.0, 0.0, 0.0, 0.0, 0.0, 0.0, 0.0, 0.0, 1.6635871698439865E9, 0.0, 2022-09-19 16:32:49.843
182.0, 12453.36383025215, -111884.96492921888, 7256.247968226429, 2045.8775217387108, -184435.6875938997, 187500.0, 23790.615652873, 9484.560428209357, 0.634, -0.6900000000000001, 0.426, 192.0, 0.0, 0.0, 0.0, 0.0, 0.0, 0.0, 0.0, 0.0, 0.0, 1.6635871698480449E9, 0.0, 2022-09-19 16:32:49.848
183.0, 12466.104324591675, -111871.911510457, 7271.648320156136, 2047.3974403616717, -184523.84287403143, 187500.0, 23800.450420433335, 9494.998692869985, 0.634, -0.6900000000000001, 0.426, 192.0, 0.0, 0.0, 0.0, 0.0, 0.0, 0.0, 0.0, 0.0, 0.0, 1.6635871698520885E9, 0.0, 2022-09-19 16:32:49.852
184.0, 12471.446391516494, -111857.76285621678, 7282.064233072309, 2044.7822862604007, -184460.05099535597, 187500.0, 23803.24438849025, 9493.92580913613, 0.634, -0.6900000000000001, 0.426, 192.0, 0.0, 0.0, 0.0, 0.0, 0.0, 0.0, 0.0, 0.0, 0.0, 1.663587169856018E9, 0.0, 2022-09-19 16:32:49.856
185.0, 12452.402705240573, -111876.82889423716, 7259.488971172449, 2042.3235943703169, -184359.021110418, 187500.0, 23785.050068503628, 9477.743146150488, 0.634, -0.6900000000000001, 0.426, 192.0, 0.0, 0.0, 0.0, 0.0, 0.0, 0.0, 0.0, 0.0, 0.0, 1.663587169861015E9, 0.0, 2022-09-19 16:32:49.861
186.0, 12448.111170305154, -111892.98920547834, 7246.502607643915, 2043.9776234600097, -184419.86255882532, 187500.0, 23780.55736786811, 9472.736355392499, 0.634, -0.6900000000000001, 0.426, 192.0, 0.0, 0.0, 0.0, 0.0, 0.0, 0.0, 0.0, 0.0, 0.0, 1.6635871698639772E9, 0.0, 2022-09-19 16:32:49.863
187.0, 12457.811827398757, -111888.96589147639, 7253.6551658696135, 2043.7317542710014, -184478.96057116517, 187500.0, 23788.939272038853, 9478.570160695333, 0.634, -0.6900000000000001, 0.426, 192.0, 0.0, 0.0, 0.0, 0.0, 0.0, 0.0, 0.0, 0.0, 0.0, 1.663587169868054E9, 0.0, 2022-09-19 16:32:49.868
188.0, 12476.475534018939, -111871.64328952352, 7272.274169000884, 2046.6374810501911, -184517.7631995396, 187500.0, 23805.121935024494, 9491.087137590306, 0.634, -0.6900000000000001, 0.426, 192.0, 0.0, 0.0, 0.0, 0.0, 0.0, 0.0, 0.0, 0.0, 0.0, 1.6635871698720405E9, 0.0, 2022-09-19 16:32:49.872
189.0, 12479.850647431691, -111858.03107715024, 7282.064233072309, 2042.4353530925935, -184460.85565815636, 187500.0, 23809.726394382287, 9493.970512625041, 0.634, -0.6900000000000001, 0.426, 192.0, 0.0, 0.0, 0.0, 0.0, 0.0, 0.0, 0.0, 0.0, 0.0, 1.6635871698761103E9, 0.0, 2022-09-19 16:32:49.876
190.0, 12461.812789656256, -111873.67729826896, 7268.317910232296, 2047.1068676837526, -184374.6673315367, 187500.0, 23794.638966874954, 9489.075480589328, 0.634, -0.6900000000000001, 0.424, 192.0, 19.0, 208.0, 234.0, 112.0, 13.0, 64.0, 0.0, 0.0, 0.0, 1.6635871698801205E9, 0.0, 2022-09-19 16:32:49.880
191.0, 12452.13448430711, -111887.26715889778, 7259.19839849453, 2044.3352513712946, -184412.9782215331, 187500.0, 23785.65356560392, 9487.153230566171, 0.634, -0.6900000000000001, 0.424, 192.0, 0.0, 0.0, 0.0, 0.0, 0.0, 0.0, 0.0, 0.0, 0.0, 1.663587169884153E9, 0.0, 2022-09-19 16:32:49.884
192.0, 12455.084914575209, -111889.36822287658, 7258.863122327701, 2039.3955158466717, -184460.07334710044, 187500.0, 23787.486408649256, 9486.72854742152, 0.634, -0.6900000000000001, 0.424, 192.0, 0.0, 0.0, 0.0, 0.0, 0.0, 0.0, 0.0, 0.0, 0.0, 1.6635871698891256E9, 0.0, 2022-09-19 16:32:49.889
193.0, 12473.256882817375, -111874.8619407251, 7277.146849292141, 2042.0106699479427, -184547.24515047614, 187500.0, 23802.216208245303, 9496.317445792847, 0.634, -0.6900000000000001, 0.424, 192.0, 0.0, 0.0, 0.0, 0.0, 0.0, 0.0, 0.0, 0.0, 0.0, 1.663587169892044E9, 0.0, 2022-09-19 16:32:49.892
194.0, 12479.940054409512, -111858.20989110589, 7289.5744192092925, 2038.8143704908337, -184477.66416998676, 187500.0, 23803.356147212526, 9495.445727759092, 0.634, -0.6900000000000001, 0.424, 192.0, 0.0, 0.0, 0.0, 0.0, 0.0, 0.0, 0.0, 0.0, 0.0, 1.6635871698961015E9, 0.0, 2022-09-19 16:32:49.896
195.0, 12462.483341989917, -111868.2011208774, 7271.715375389502, 2038.54614955737, -184381.64107580675, 187500.0, 23780.110332979006, 9483.912227620152, 0.634, -0.6900000000000001, 0.424, 192.0, 0.0, 0.0, 0.0, 0.0, 0.0, 0.0, 0.0, 0.0, 0.0, 1.6635871699000645E9, 0.0, 2022-09-19 16:32:49.900
196.0, 12445.540719692794, -111886.68601354194, 7256.560892648804, 2039.2390536354847, -184406.25034645206, 187500.0, 23767.70511480631, 9478.54780895088, 0.634, -0.6900000000000001, 0.424, 192.0, 0.0, 0.0, 0.0, 0.0, 0.0, 0.0, 0.0, 0.0, 0.0, 1.6635871699040616E9, 0.0, 2022-09-19 16:32:49.904
197.0, 12448.89348136109, -111881.45570533941, 7260.427744439572, 2043.2847193818952, -184511.057676203, 187500.0, 23773.337754409047, 9485.454497987568, 0.634, -0.6900000000000001, 0.424, 192.0, 0.0, 0.0, 0.0, 0.0, 0.0, 0.0, 0.0, 0.0, 0.0, 1.6635871699081123E9, 0.0, 2022-09-19 16:32:49.908
198.0, 12461.835141400712, -111865.2506906093, 7275.470468457994, 2044.5587688158475, -184511.9070424923, 187500.0, 23786.74880108223, 9494.506954491968, 0.634, -0.6900000000000001, 0.424, 192.0, 0.0, 0.0, 0.0, 0.0, 0.0, 0.0, 0.0, 0.0, 0.0, 1.6635871699122093E9, 0.0, 2022-09-19 16:32:49.912
199.0, 12466.260786802863, -111852.91252766998, 7284.522924962393, 2039.6860885245908, -184475.2948850745, 187500.0, 23790.190969728348, 9494.886934147708, 0.634, -0.6900000000000001, 0.424, 192.0, 0.0, 0.0, 0.0, 0.0, 0.0, 0.0, 0.0, 0.0, 0.0, 1.663587169917148E9, 0.0, 2022-09-19 16:32:49.917
200.0, 12450.547510450782, -111865.49655979831, 7268.876703843678, 2041.8095042478449, -184381.14933742874, 187500.0, 23775.058838732104, 9487.488506733001, 0.628, -0.6920000000000001, 0.424, 192.0, 19.0, 160.0, 234.0, 96.0, 13.0, 64.0, 0.0, 0.0, 0.0, 1.663587169920113E9, 0.0, 2022-09-19 16:32:49.920
201.0, 12444.825463870224, -111881.54511231722, 7257.00792753791, 2042.0553734368532, -184397.06377948093, 187500.0, 23769.04621947363, 9485.49920147648, 0.628, -0.6920000000000001, 0.424, 192.0, 0.0, 0.0, 0.0, 0.0, 0.0, 0.0, 0.0, 0.0, 0.0, 1.6635871699231677E9, 0.0, 2022-09-19 16:32:49.923
202.0, 12457.051868087277, -111882.32742337316, 7261.143000262142, 2041.5189315699258, -184474.9372571632, 187500.0, 23773.78478929815, 9490.505992234468, 0.628, -0.6920000000000001, 0.424, 192.0, 0.0, 0.0, 0.0, 0.0, 0.0, 0.0, 0.0, 0.0, 0.0, 1.663587169928333E9, 0.0, 2022-09-19 16:32:49.928
203.0, 12470.574673482737, -111866.01064992079, 7278.353843492729, 2037.093286167775, -184530.16841771227, 187500.0, 23785.072420248085, 9497.45738476007, 0.628, -0.6920000000000001, 0.424, 192.0, 0.0, 0.0, 0.0, 0.0, 0.0, 0.0, 0.0, 0.0, 0.0, 1.663587169932161E9, 0.0, 2022-09-19 16:32:49.932
204.0, 12470.351156038185, -111852.77841720324, 7288.613294197714, 2040.2448821359733, -184476.21130659716, 187500.0, 23788.246367960735, 9501.033663872919, 0.628, -0.6920000000000001, 0.424, 192.0, 0.0, 0.0, 0.0, 0.0, 0.0, 0.0, 0.0, 0.0, 0.0, 1.6635871699361744E9, 0.0, 2022-09-19 16:32:49.936
205.0, 12454.682583175014, -111867.9999551773, 7271.8494858562335, 2041.8095042478449, -184376.09784318184, 187500.0, 23769.157978195904, 9488.82961140032, 0.628, -0.6920000000000001, 0.424, 192.0, 0.0, 0.0, 0.0, 0.0, 0.0, 0.0, 0.0, 0.0, 0.0, 1.6635871699401965E9, 0.0, 2022-09-19 16:32:49.940
206.0, 12452.17918779602, -111880.27106288327, 7261.545331662337, 2044.4246583491158, -184401.86940453883, 187500.0, 23759.882004246952, 9482.235846786005, 0.628, -0.6920000000000001, 0.424, 192.0, 0.0, 0.0, 0.0, 0.0, 0.0, 0.0, 0.0, 0.0, 0.0, 1.6635871699442277E9, 0.0, 2022-09-19 16:32:49.944
207.0, 12459.644670444093, -111876.98535644835, 7266.395660209139, 2048.962062473543, -184479.07232988745, 187500.0, 23764.37470488247, 9486.840306143798, 0.628, -0.6920000000000001, 0.424, 192.0, 0.0, 0.0, 0.0, 0.0, 0.0, 0.0, 0.0, 0.0, 0.0, 1.6635871699491515E9, 0.0, 2022-09-19 16:32:49.949
208.0, 12473.480400261928, -111863.59666151961, 7279.426727226583, 2047.2186264060292, -184525.51925486556, 187500.0, 23774.298879420625, 9490.461288745557, 0.628, -0.6920000000000001, 0.424, 192.0, 0.0, 0.0, 0.0, 0.0, 0.0, 0.0, 0.0, 0.0, 0.0, 1.6635871699521775E9, 0.0, 2022-09-19 16:32:49.952
209.0, 12477.995452641899, -111854.11952187057, 7285.998140096443, 2043.9105682266438, -184440.5379224465, 187500.0, 23775.058838732104, 9488.695500933589, 0.628, -0.6920000000000001, 0.424, 192.0, 0.0, 0.0, 0.0, 0.0, 0.0, 0.0, 0.0, 0.0, 0.0, 1.6635871699572194E9, 0.0, 2022-09-19 16:32:49.957
210.0, 12458.571786710238, -111875.53249305875, 7263.959320063511, 2043.418829848627, -184372.58861930235, 187500.0, 23757.98210596825, 9474.30097750437, 0.624, -0.686, 0.418, 192.0, 19.0, 128.0, 234.0, 144.0, 13.0, 16.0, 0.0, 0.0, 0.0, 1.6635871699601889E9, 0.0, 2022-09-19 16:32:49.960
211.0, 12443.573766180727, -111896.3643188911, 7246.4355524105495, 2038.54614955737, -184385.3738171308, 187500.0, 23748.32615236356, 9470.411773969146, 0.624, -0.686, 0.418, 192.0, 0.0, 0.0, 0.0, 0.0, 0.0, 0.0, 0.0, 0.0, 0.0, 1.6635871699641733E9, 0.0, 2022-09-19 16:32:49.964
212.0, 12448.267632516341, -111892.67628105597, 7253.521055402882, 2039.3284606133059, -184460.69919594517, 187500.0, 23757.84799550152, 9482.660529930656, 0.624, -0.686, 0.418, 192.0, 0.0, 0.0, 0.0, 0.0, 0.0, 0.0, 0.0, 0.0, 0.0, 1.6635871699702475E9, 0.0, 2022-09-19 16:32:49.970
213.0, 12460.89636813359, -111879.86873148307, 7273.995253323943, 2039.9096059691437, -184511.43765585872, 187500.0, 23772.488388119746, 9494.372844025236, 0.624, -0.686, 0.418, 192.0, 0.0, 0.0, 0.0, 0.0, 0.0, 0.0, 0.0, 0.0, 0.0, 1.6635871699733012E9, 0.0, 2022-09-19 16:32:49.973
214.0, 12462.349231523185, -111868.58110053315, 7282.175991794586, 2038.5014460684595, -184464.58839948042, 187500.0, 23772.242518930736, 9496.608018470766, 0.624, -0.686, 0.418, 192.0, 0.0, 0.0, 0.0, 0.0, 0.0, 0.0, 0.0, 0.0, 0.0, 1.6635871699762378E9, 0.0, 2022-09-19 16:32:49.976
215.0, 12448.200577282976, -111877.92412971547, 7266.932102076066, 2041.45187633656, -184405.6244976073, 187500.0, 23753.623515799467, 9486.169753810138, 0.624, -0.686, 0.418, 192.0, 0.0, 0.0, 0.0, 0.0, 0.0, 0.0, 0.0, 0.0, 0.0, 1.6635871699802296E9, 0.0, 2022-09-19 16:32:49.980
216.0, 12444.758408636859, -111891.13401068855, 7259.310157216806, 2041.8095042478449, -184403.36697141733, 187500.0, 23744.906335461896, 9479.665396173645, 0.624, -0.686, 0.418, 192.0, 0.0, 0.0, 0.0, 0.0, 0.0, 0.0, 0.0, 0.0, 0.0, 1.6635871699842615E9, 0.0, 2022-09-19 16:32:49.984
217.0, 12458.504731476873, -111890.37405137708, 7266.015680553399, 2046.324556627817, -184458.64283545528, 187500.0, 23754.629344299956, 9487.086175332806, 0.624, -0.686, 0.418, 192.0, 0.0, 0.0, 0.0, 0.0, 0.0, 0.0, 0.0, 0.0, 0.0, 1.663587169988218E9, 0.0, 2022-09-19 16:32:49.988
218.0, 12476.699051463493, -111874.43725758044, 7284.455869729027, 2047.1739229171185, -184516.24328091662, 187500.0, 23767.347486895025, 9498.239695816004, 0.624, -0.686, 0.418, 192.0, 0.0, 0.0, 0.0, 0.0, 0.0, 0.0, 0.0, 0.0, 0.0, 1.66358716999225E9, 0.0, 2022-09-19 16:32:49.992
219.0, 12472.809847928269, -111866.61414702109, 7292.34603552175, 2045.385783360694, -184432.0889630424, 187500.0, 23766.140492694438, 9497.524439993434, 0.624, -0.686, 0.418, 192.0, 0.0, 0.0, 0.0, 0.0, 0.0, 0.0, 0.0, 0.0, 0.0, 1.6635871699962623E9, 0.0, 2022-09-19 16:32:49.996
220.0, 12451.08395231771, -111884.11556292958, 7273.995253323943, 2043.6646990376353, -184360.74219474103, 187500.0, 23743.833451728042, 9484.359262509259, 0.626, -0.686, 0.41600000000000004, 192.0, 19.0, 144.0, 234.0, 144.0, 13.0, 0.0, 0.0, 0.0, 0.0, 1.6635871700004103E9, 0.0, 2022-09-19 16:32:50.000
221.0, 12441.383295224106, -111897.70542355841, 7259.690136872547, 2044.4023066046605, -184387.89956425424, 187500.0, 23736.189155124328, 9477.966663595042, 0.626, -0.686, 0.41600000000000004, 192.0, 0.0, 0.0, 0.0, 0.0, 0.0, 0.0, 0.0, 0.0, 0.0, 1.6635871700033464E9, 0.0, 2022-09-19 16:32:50.003
222.0, 12455.643708186593, -111892.78803977824, 7265.658052642114, 2045.4751903385152, -184460.60978896735, 187500.0, 23746.85093722951, 9483.644006686689, 0.626, -0.686, 0.41600000000000004, 192.0, 0.0, 0.0, 0.0, 0.0, 0.0, 0.0, 0.0, 0.0, 0.0, 1.6635871700073206E9, 0.0, 2022-09-19 16:32:50.007
223.0, 12471.17817058303, -111878.10294367111, 7282.10893656122, 2047.9562339730544, -184526.10040022142, 187500.0, 23761.26781240318, 9495.043396358895, 0.626, -0.686, 0.41600000000000004, 192.0, 0.0, 0.0, 0.0, 0.0, 0.0, 0.0, 0.0, 0.0, 0.0, 1.663587170012238E9, 0.0, 2022-09-19 16:32:50.012
224.0, 12472.18399908352, -111870.14572264501, 7289.417956998105, 2043.3741263597165, -184436.1793322777, 187500.0, 23762.251289159216, 9491.757689923965, 0.626, -0.686, 0.41600000000000004, 192.0, 0.0, 0.0, 0.0, 0.0, 0.0, 0.0, 0.0, 0.0, 0.0, 1.6635871700162609E9, 0.0, 2022-09-19 16:32:50.016
225.0, 12450.36869649514, -111891.89397000003, 7266.44036369805, 2040.289585624884, -184364.13965989824, 187500.0, 23740.435986570836, 9475.195047282583, 0.626, -0.686, 0.41600000000000004, 192.0, 0.0, 0.0, 0.0, 0.0, 0.0, 0.0, 0.0, 0.0, 0.0, 1.663587170020286E9, 0.0, 2022-09-19 16:32:50.020
226.0, 12436.9352980775, -111909.08246148616, 7252.336412946751, 2036.3109751118393, -184384.47974735257, 187500.0, 23731.048253899608, 9466.231997756006, 0.626, -0.686, 0.41600000000000004, 192.0, 0.0, 0.0, 0.0, 0.0, 0.0, 0.0, 0.0, 0.0, 0.0, 1.663587170024288E9, 0.0, 2022-09-19 16:32:50.024
227.0, 12443.909042347555, -111911.65291209852, 7256.180912993063, 2031.2818326093952, -184446.46113472714, 187500.0, 23738.290219103124, 9467.975433823518, 0.626, -0.686, 0.41600000000000004, 192.0, 0.0, 0.0, 0.0, 0.0, 0.0, 0.0, 0.0, 0.0, 0.0, 1.663587170027316E9, 0.0, 2022-09-19 16:32:50.027
228.0, 12458.661193688058, -111899.3594526481, 7271.3800992226725, 2029.2925273528729, -184518.38904838433, 187500.0, 23752.930611721353, 9476.223227527527, 0.626, -0.686, 0.41600000000000004, 192.0, 0.0, 0.0, 0.0, 0.0, 0.0, 0.0, 0.0, 0.0, 0.0, 1.6635871700312912E9, 0.0, 2022-09-19 16:32:50.031
229.0, 12461.835141400712, -111889.54703683223, 7278.5997126817365, 2029.0243064194092, -184455.15596332026, 187500.0, 23754.89756523342, 9477.631387428211, 0.626, -0.686, 0.41600000000000004, 192.0, 0.0, 0.0, 0.0, 0.0, 0.0, 0.0, 0.0, 0.0, 0.0, 1.6635871700353248E9, 0.0, 2022-09-19 16:32:50.035
230.0, 12448.759370894359, -111905.79675505124, 7261.902959573622, 2036.288623367384, -184366.59835178833, 187500.0, 23736.61383826898, 9471.976396081018, 0.626, -0.6940000000000001, 0.422, 192.0, 19.0, 144.0, 234.0, 80.0, 13.0, 48.0, 0.0, 0.0, 0.0, 1.6635871700403104E9, 0.0, 2022-09-19 16:32:50.040
231.0, 12445.116036548143, -111922.67232211499, 7251.9117298021, 2042.3012426258617, -184355.3107208384, 187500.0, 23728.880134687442, 9471.909340847653, 0.626, -0.6940000000000001, 0.422, 192.0, 0.0, 0.0, 0.0, 0.0, 0.0, 0.0, 0.0, 0.0, 0.0, 1.6635871700453131E9, 0.0, 2022-09-19 16:32:50.045
232.0, 12451.240414528897, -111923.45463317093, 7256.024450781876, 2039.3284606133059, -184447.91399811674, 187500.0, 23734.333960334538, 9475.887951360697, 0.626, -0.6940000000000001, 0.422, 192.0, 0.0, 0.0, 0.0, 0.0, 0.0, 0.0, 0.0, 0.0, 0.0, 1.6635871700483441E9, 0.0, 2022-09-19 16:32:50.048
233.0, 12463.243301301396, -111907.27197018529, 7269.301386988329, 2032.7346959989902, -184512.89051924832, 187500.0, 23742.98408543874, 9478.30193976187, 0.626, -0.6940000000000001, 0.422, 192.0, 0.0, 0.0, 0.0, 0.0, 0.0, 0.0, 0.0, 0.0, 0.0, 1.6635871700543299E9, 0.0, 2022-09-19 16:32:50.054
234.0, 12464.98673736891, -111893.07861245617, 7274.844619613245, 2034.6345942776913, -184465.03543436952, 187500.0, 23742.201774382804, 9480.179486296116, 0.626, -0.6940000000000001, 0.422, 192.0, 0.0, 0.0, 0.0, 0.0, 0.0, 0.0, 0.0, 0.0, 0.0, 1.6635871700573292E9, 0.0, 2022-09-19 16:32:50.057
235.0, 12445.048981314778, -111909.79771730873, 7257.454962427016, 2042.8823879816996, -184370.01816869, 187500.0, 23725.907352674887, 9473.295149003881, 0.626, -0.6940000000000001, 0.422, 192.0, 0.0, 0.0, 0.0, 0.0, 0.0, 0.0, 0.0, 0.0, 0.0, 1.66358717006033E9, 0.0, 2022-09-19 16:32:50.060
236.0, 12442.746751635881, -111924.43810992697, 7248.335450689251, 2047.7550682729566, -184358.4176133177, 187500.0, 23720.207657838782, 9471.976396081018, 0.626, -0.6940000000000001, 0.422, 192.0, 0.0, 0.0, 0.0, 0.0, 0.0, 0.0, 0.0, 0.0, 0.0, 1.6635871700633402E9, 0.0, 2022-09-19 16:32:50.063
237.0, 12449.65344067257, -111932.48473793088, 7249.475389656472, 2046.6598327946465, -184438.12393404532, 187500.0, 23724.32037881856, 9472.423430970124, 0.626, -0.6940000000000001, 0.422, 192.0, 0.0, 0.0, 0.0, 0.0, 0.0, 0.0, 0.0, 0.0, 0.0, 1.6635871700673783E9, 0.0, 2022-09-19 16:32:50.067
238.0, 12461.253996044874, -111920.68301685847, 7263.400526452127, 2039.8872542246884, -184519.01489722906, 187500.0, 23737.105576646994, 9479.151306051172, 0.626, -0.6940000000000001, 0.422, 192.0, 0.0, 0.0, 0.0, 0.0, 0.0, 0.0, 0.0, 0.0, 0.0, 1.6635871700723915E9, 0.0, 2022-09-19 16:32:50.072
239.0, 12459.823484399734, -111917.24084821236, 7264.115782274697, 2039.1719984021186, -184421.49423617058, 187500.0, 23733.998684167706, 9478.011367083951, 0.626, -0.6940000000000001, 0.422, 192.0, 0.0, 0.0, 0.0, 0.0, 0.0, 0.0, 0.0, 0.0, 0.0, 1.6635871700763848E9, 0.0, 2022-09-19 16:32:50.076
240.0, 12443.41730396954, -111932.64120014205, 7247.843712311234, 2042.6365187926913, -184369.1240989118, 187500.0, 23714.820887425052, 9469.025965812918, 0.63, -0.6900000000000001, 0.428, 192.0, 19.0, 176.0, 234.0, 112.0, 13.0, 96.0, 0.0, 0.0, 0.0, 1.6635871700804129E9, 0.0, 2022-09-19 16:32:50.080
241.0, 12438.611678911648, -111947.46040671592, 7237.4501511395165, 2040.446047836071, -184384.54680258594, 187500.0, 23705.880189642932, 9461.672241887121, 0.63, -0.6900000000000001, 0.428, 192.0, 0.0, 0.0, 0.0, 0.0, 0.0, 0.0, 0.0, 0.0, 0.0, 1.6635871700834267E9, 0.0, 2022-09-19 16:32:50.083
242.0, 12441.159777779554, -111954.27768877479, 7236.9584127615, 2037.093286167775, -184453.16665806374, 187500.0, 23709.545875733602, 9463.706250632555, 0.63, -0.6900000000000001, 0.428, 192.0, 0.0, 0.0, 0.0, 0.0, 0.0, 0.0, 0.0, 0.0, 0.0, 1.6635871700874145E9, 0.0, 2022-09-19 16:32:50.087
243.0, 12454.883748875112, -111936.32923797719, 7256.203264737519, 2037.227396634507, -184540.62903411736, 187500.0, 23725.907352674887, 9474.435087971102, 0.63, -0.6900000000000001, 0.428, 192.0, 0.0, 0.0, 0.0, 0.0, 0.0, 0.0, 0.0, 0.0, 0.0, 1.6635871700914032E9, 0.0, 2022-09-19 16:32:50.091
244.0, 12459.577615210726, -111926.24860122784, 7264.607520652715, 2039.9766612025096, -184440.96260559114, 187500.0, 23730.46710854377, 9480.335948507303, 0.63, -0.6900000000000001, 0.428, 192.0, 0.0, 0.0, 0.0, 0.0, 0.0, 0.0, 0.0, 0.0, 0.0, 1.6635871700954423E9, 0.0, 2022-09-19 16:32:50.095
245.0, 12443.79728362528, -111943.9735345809, 7245.832055310257, 2044.379954860205, -184373.1250611693, 187500.0, 23713.92681764684, 9473.20574202606, 0.63, -0.6900000000000001, 0.428, 192.0, 0.0, 0.0, 0.0, 0.0, 0.0, 0.0, 0.0, 0.0, 0.0, 1.663587170099412E9, 0.0, 2022-09-19 16:32:50.099
246.0, 12437.047056799776, -111961.8772818896, 7233.493892370927, 2044.871693238222, -184379.4729565946, 187500.0, 23705.433154753824, 9465.91907333363, 0.63, -0.6900000000000001, 0.428, 192.0, 0.0, 0.0, 0.0, 0.0, 0.0, 0.0, 0.0, 0.0, 0.0, 1.6635871701044447E9, 0.0, 2022-09-19 16:32:50.104
247.0, 12442.657344658059, -111963.9783458684, 7237.584261606248, 2046.257501394451, -184451.22205629613, 187500.0, 23709.188247822316, 9470.523532691424, 0.63, -0.6900000000000001, 0.428, 192.0, 0.0, 0.0, 0.0, 0.0, 0.0, 0.0, 0.0, 0.0, 0.0, 1.6635871701074991E9, 0.0, 2022-09-19 16:32:50.107
248.0, 12460.047001844288, -111945.89578460406, 7258.796067094335, 2044.6481757936688, -184533.05179274702, 187500.0, 23725.16974510786, 9481.431183985613, 0.63, -0.6900000000000001, 0.428, 192.0, 0.0, 0.0, 0.0, 0.0, 0.0, 0.0, 0.0, 0.0, 0.0, 1.66358717011243E9, 0.0, 2022-09-19 16:32:50.112
249.0, 12461.544568722793, -111934.89872633205, 7265.211017753008, 2036.1321611561968, -184447.288149272, 187500.0, 23726.242628841715, 9480.49241071849, 0.63, -0.6900000000000001, 0.428, 192.0, 0.0, 0.0, 0.0, 0.0, 0.0, 0.0, 0.0, 0.0, 0.0, 1.6635871701154687E9, 0.0, 2022-09-19 16:32:50.115
250.0, 12440.690391145992, -111951.26020327333, 7246.502607643915, 2036.1545129006522, -184377.0813199379, 187500.0, 23705.5449134761, 9470.456477458058, 0.632, -0.6920000000000001, 0.42, 192.0, 19.0, 192.0, 234.0, 96.0, 13.0, 32.0, 0.0, 0.0, 0.0, 1.6635871701194615E9, 0.0, 2022-09-19 16:32:50.119
251.0, 12433.135501520099, -111965.83354065819, 7234.656183082603, 2035.6627745226353, -184391.83347127837, 187500.0, 23696.55951220507, 9466.097887289274, 0.632, -0.6920000000000001, 0.42, 192.0, 0.0, 0.0, 0.0, 0.0, 0.0, 0.0, 0.0, 0.0, 0.0, 1.6635871701234536E9, 0.0, 2022-09-19 16:32:50.123
252.0, 12441.56210917975, -111968.5828052262, 7239.3276976737625, 2031.840626220778, -184460.87800990083, 187500.0, 23700.493419229202, 9468.288358245893, 0.632, -0.6920000000000001, 0.42, 192.0, 0.0, 0.0, 0.0, 0.0, 0.0, 0.0, 0.0, 0.0, 0.0, 1.6635871701275318E9, 0.0, 2022-09-19 16:32:50.127
253.0, 12455.576652953227, -111946.99102008237, 7257.030279282365, 2023.5257772834036, -184551.6037406449, 187500.0, 23710.015262367164, 9472.736355392499, 0.632, -0.6920000000000001, 0.42, 192.0, 0.0, 0.0, 0.0, 0.0, 0.0, 0.0, 0.0, 0.0, 0.0, 1.6635871701324987E9, 0.0, 2022-09-19 16:32:50.132
254.0, 12450.726324406425, -111940.9784008239, 7260.025413039376, 2021.581175515792, -184437.36397473383, 187500.0, 23708.78591642212, 9470.791753624888, 0.632, -0.6920000000000001, 0.42, 192.0, 0.0, 0.0, 0.0, 0.0, 0.0, 0.0, 0.0, 0.0, 0.0, 1.6635871701354685E9, 0.0, 2022-09-19 16:32:50.135
255.0, 12431.190899752486, -111961.54200572277, 7240.981726763454, 2024.3974953171607, -184366.2630756215, 187500.0, 23689.183436534815, 9460.82287559782, 0.632, -0.6920000000000001, 0.42, 192.0, 0.0, 0.0, 0.0, 0.0, 0.0, 0.0, 0.0, 0.0, 0.0, 1.6635871701394725E9, 0.0, 2022-09-19 16:32:50.139
0.0, 12426.921716561523, -111976.6294332301, 7228.285935912841, 2025.805655217845, -184383.9209537412, 187500.0, 23683.081410298517, 9460.956986064552, 0.632, -0.6920000000000001, 0.42, 192.0, 0.0, 0.0, 0.0, 0.0, 0.0, 0.0, 0.0, 0.0, 0.0, 1.6635871701435208E9, 0.0, 2022-09-19 16:32:50.143
1.0, 12436.041228299287, -111975.40008728506, 7233.471540626471, 2032.9135099546327, -184464.45428901367, 187500.0, 23695.73249766022, 9474.59155018229, 0.632, -0.6920000000000001, 0.42, 192.0, 0.0, 0.0, 0.0, 0.0, 0.0, 0.0, 0.0, 0.0, 0.0, 1.6635871701474829E9, 0.0, 2022-09-19 16:32:50.147
2.0, 12445.853644115168, -111963.26309004583, 7246.077924499265, 2030.2089488755405, -184502.36284760988, 187500.0, 23705.679023942834, 9479.73245140701, 0.632, -0.6920000000000001, 0.42, 192.0, 0.0, 0.0, 0.0, 0.0, 0.0, 0.0, 0.0, 0.0, 0.0, 1.663587170151509E9, 0.0, 2022-09-19 16:32:50.151
3.0, 12449.541681950293, -111954.38944749707, 7254.8845118146555, 2029.873672708711, -184451.71379467414, 187500.0, 23705.83548615402, 9477.676090917123, 0.632, -0.6920000000000001, 0.42, 192.0, 0.0, 0.0, 0.0, 0.0, 0.0, 0.0, 0.0, 0.0, 0.0, 1.6635871701555302E9, 0.0, 2022-09-19 16:32:50.155
4.0, 12432.88963233109, -111973.09785760616, 7237.025467994866, 2032.4664750655265, -184358.73053774008, 187500.0, 23685.853026610974, 9465.337927977793, 0.628, -0.6880000000000001, 0.424, 192.0, 19.0, 160.0, 234.0, 128.0, 13.0, 64.0, 0.0, 0.0, 0.0, 1.6635871701605325E9, 0.0, 2022-09-19 16:32:50.160
5.0, 12426.519385161328, -111993.21442761594, 7224.284973655341, 2032.8464547212668, -184378.28831413845, 187500.0, 23674.87832008342, 9459.481770930503, 0.628, -0.6880000000000001, 0.424, 192.0, 0.0, 0.0, 0.0, 0.0, 0.0, 0.0, 0.0, 0.0, 0.0, 1.6635871701635463E9, 0.0, 2022-09-19 16:32:50.163
6.0, 12432.755521864357, -111994.82375321673, 7230.4093516360945, 2026.5879662737807, -184470.42220478324, 187500.0, 23677.11349452895, 9461.806352353853, 0.628, -0.6880000000000001, 0.424, 192.0, 0.0, 0.0, 0.0, 0.0, 0.0, 0.0, 0.0, 0.0, 0.0, 1.663587170167584E9, 0.0, 2022-09-19 16:32:50.167
7.0, 12448.535853449805, -111973.32137505071, 7251.95643329101, 2024.5763092728032, -184524.17815019825, 187500.0, 23692.759715647666, 9473.764535637443, 0.628, -0.6880000000000001, 0.424, 192.0, 0.0, 0.0, 0.0, 0.0, 0.0, 0.0, 0.0, 0.0, 0.0, 1.6635871701715665E9, 0.0, 2022-09-19 16:32:50.171
8.0, 12447.440617971495, -111969.38746802659, 7257.4102589381055, 2028.0408296633757, -184422.9247478157, 187500.0, 23696.157180804872, 9475.6867856606, 0.628, -0.6880000000000001, 0.424, 192.0, 0.0, 0.0, 0.0, 0.0, 0.0, 0.0, 0.0, 0.0, 0.0, 1.6635871701755393E9, 0.0, 2022-09-19 16:32:50.175
9.0, 12432.576707908716, -111992.32035783773, 7238.970069762478, 2036.73565825649, -184359.3563865848, 187500.0, 23679.68394514131, 9466.388459967191, 0.628, -0.6880000000000001, 0.424, 192.0, 0.0, 0.0, 0.0, 0.0, 0.0, 0.0, 0.0, 0.0, 0.0, 1.6635871701796749E9, 0.0, 2022-09-19 16:32:50.179
10.0, 12430.833271841202, -112006.51371556685, 7227.302459156806, 2036.6015477897583, -184413.80523607795, 187500.0, 23670.117398514438, 9459.079439530307, 0.628, -0.6880000000000001, 0.424, 192.0, 0.0, 0.0, 0.0, 0.0, 0.0, 0.0, 0.0, 0.0, 0.0, 1.663587170183606E9, 0.0, 2022-09-19 16:32:50.183
11.0, 12440.332763234706, -112001.4398695755, 7235.5726046052705, 2035.6180710337248, -184471.87506817284, 187500.0, 23677.15819801786, 9462.29809073187, 0.628, -0.6880000000000001, 0.424, 192.0, 0.0, 0.0, 0.0, 0.0, 0.0, 0.0, 0.0, 0.0, 0.0, 1.6635871701885893E9, 0.0, 2022-09-19 16:32:50.188
12.0, 12448.915833105546, -111988.87818919162, 7251.867026313189, 2035.8192367338227, -184499.52417606403, 187500.0, 23689.96574759075, 9471.529361191913, 0.628, -0.6880000000000001, 0.424, 192.0, 0.0, 0.0, 0.0, 0.0, 0.0, 0.0, 0.0, 0.0, 0.0, 1.6635871701915903E9, 0.0, 2022-09-19 16:32:50.191
13.0, 12453.9896790969, -111980.22806408741, 7259.645433383636, 2038.0544111793533, -184444.0918498149, 187500.0, 23693.899654614885, 9480.000672340473, 0.628, -0.6880000000000001, 0.424, 192.0, 0.0, 0.0, 0.0, 0.0, 0.0, 0.0, 0.0, 0.0, 0.0, 1.6635871701945872E9, 0.0, 2022-09-19 16:32:50.194
14.0, 12438.36580972264, -111996.34367183968, 7241.607575608204, 2039.7307920135013, -184384.21152641912, 187500.0, 23677.58288116251, 9469.361241979748, 0.622, -0.686, 0.426, 192.0, 19.0, 112.0, 234.0, 144.0, 13.0, 80.0, 0.0, 0.0, 0.0, 1.6635871701996784E9, 0.0, 2022-09-19 16:32:50.199
15.0, 12434.878937587613, -112011.72167202493, 7232.644526081625, 2039.9543094580545, -184387.49723285405, 187500.0, 23671.480854926212, 9461.87340758722, 0.622, -0.686, 0.426, 192.0, 0.0, 0.0, 0.0, 0.0, 0.0, 0.0, 0.0, 0.0, 0.0, 1.663587170203678E9, 0.0, 2022-09-19 16:32:50.203
16.0, 12446.211272026452, -112010.20175340197, 7239.953546518511, 2037.383858845694, -184475.63016124134, 187500.0, 23678.700468385276, 9462.789829109888, 0.622, -0.686, 0.426, 192.0, 0.0, 0.0, 0.0, 0.0, 0.0, 0.0, 0.0, 0.0, 0.0, 1.6635871702076402E9, 0.0, 2022-09-19 16:32:50.207
17.0, 12464.249129801885, -111992.76739272683, 7258.751363605424, 2037.1826931455962, -184504.5086150776, 187500.0, 23692.02210808064, 9475.932654849608, 0.622, -0.686, 0.426, 192.0, 0.0, 0.0, 0.0, 0.0, 0.0, 0.0, 0.0, 0.0, 0.0, 1.6635871702117047E9, 0.0, 2022-09-19 16:32:50.211
18.0, 12461.186940811509, -111986.68771823499, 7265.926273575577, 2036.6909547675796, -184441.9907858361, 187500.0, 23690.904520857875, 9477.340814750292, 0.622, -0.686, 0.426, 192.0, 0.0, 0.0, 0.0, 0.0, 0.0, 0.0, 0.0, 0.0, 0.0, 1.6635871702167325E9, 0.0, 2022-09-19 16:32:50.216
19.0, 12439.528100434316, -112008.190096401, 7242.412238408594, 2035.8862919671885, -184368.0735669224, 187500.0, 23670.698543870276, 9465.606148911256, 0.622, -0.686, 0.426, 192.0, 0.0, 0.0, 0.0, 0.0, 0.0, 0.0, 0.0, 0.0, 0.0, 1.6635871702196748E9, 0.0, 2022-09-19 16:32:50.219
20.0, 12434.02957129831, -112024.68568380902, 7227.056589967799, 2033.6064140327471, -184398.04725623695, 187500.0, 23659.567375131533, 9458.006555796452, 0.622, -0.686, 0.426, 192.0, 0.0, 0.0, 0.0, 0.0, 0.0, 0.0, 0.0, 0.0, 0.0, 1.6635871702226636E9, 0.0, 2022-09-19 16:32:50.222
21.0, 12446.41243772655, -112016.57200057173, 7235.460845882994, 2030.320707597817, -184501.78170225403, 187500.0, 23663.702447855765, 9463.30391923236, 0.622, -0.686, 0.426, 192.0, 0.0, 0.0, 0.0, 0.0, 0.0, 0.0, 0.0, 0.0, 0.0, 1.6635871702276556E9, 0.0, 2022-09-19 16:32:50.227
22.0, 12457.811827398757, -111996.05309916177, 7253.878683314167, 2025.8280069623004, -184509.94008898022, 187500.0, 23675.325354972527, 9472.78105888141, 0.622, -0.686, 0.426, 192.0, 0.0, 0.0, 0.0, 0.0, 0.0, 0.0, 0.0, 0.0, 0.0, 1.6635871702317352E9, 0.0, 2022-09-19 16:32:50.231
23.0, 12450.07812381722, -111991.53804678179, 7256.560892648804, 2027.8843674521886, -184452.786678408, 187500.0, 23676.35353521747, 9473.719832148532, 0.622, -0.686, 0.426, 192.0, 0.0, 0.0, 0.0, 0.0, 0.0, 0.0, 0.0, 0.0, 0.0, 1.663587170235744E9, 0.0, 2022-09-19 16:32:50.235
24.0, 12431.190899752486, -112008.03363418981, 7238.366572662184, 2034.098152410764, -184376.43311934866, 187500.0, 23657.86864255293, 9466.25434950046, 0.622, -0.686, 0.426, 192.0, 0.0, 0.0, 0.0, 0.0, 0.0, 0.0, 0.0, 0.0, 0.0, 1.6635871702397172E9, 0.0, 2022-09-19 16:32:50.239
25.0, 12426.519385161328, -112018.941285484, 7228.196528935019, 2039.3061088688505, -184414.58754713388, 187500.0, 23650.023180249118, 9471.886989103197, 0.626, -0.686, 0.424, 192.0, 19.0, 144.0, 234.0, 144.0, 13.0, 64.0, 0.0, 0.0, 0.0, 1.6635871702436576E9, 0.0, 2022-09-19 16:32:50.243
26.0, 12436.242393999386, -112016.05791044926, 7233.270374926374, 2039.0155361909315, -184467.42707102624, 187500.0, 23655.67817159631, 9474.92682634912, 0.626, -0.686, 0.424, 192.0, 0.0, 0.0, 0.0, 0.0, 0.0, 0.0, 0.0, 0.0, 0.0, 1.663587170247779E9, 0.0, 2022-09-19 16:32:50.247
27.0, 12455.75546690887, -112001.8869044646, 7249.028354767365, 2038.8814257241997, -184510.0965511914, 187500.0, 23671.30204097057, 9481.230018285516, 0.626, -0.686, 0.424, 192.0, 0.0, 0.0, 0.0, 0.0, 0.0, 0.0, 0.0, 0.0, 0.0, 1.6635871702507405E9, 0.0, 2022-09-19 16:32:50.250
28.0, 12460.114057077653, -111991.96272992644, 7255.108029259209, 2040.4236960916157, -184454.99950110907, 187500.0, 23674.140712516393, 9482.906399119664, 0.626, -0.686, 0.424, 192.0, 0.0, 0.0, 0.0, 0.0, 0.0, 0.0, 0.0, 0.0, 0.0, 1.6635871702557154E9, 0.0, 2022-09-19 16:32:50.255
29.0, 12442.07619930222, -112006.24549463339, 7237.360744161695, 2042.6812222816018, -184374.8237937479, 187500.0, 23654.270011695626, 9475.44091647159, 0.626, -0.686, 0.424, 192.0, 0.0, 0.0, 0.0, 0.0, 0.0, 0.0, 0.0, 0.0, 0.0, 1.6635871702596776E9, 0.0, 2022-09-19 16:32:50.259
30.0, 12435.683600388003, -112018.87423025063, 7224.866119011179, 2041.0495449363643, -184404.50691038455, 187500.0, 23643.87645052391, 9470.747050135977, 0.626, -0.686, 0.424, 192.0, 0.0, 0.0, 0.0, 0.0, 0.0, 0.0, 0.0, 0.0, 0.0, 1.6635871702638605E9, 0.0, 2022-09-19 16:32:50.263
31.0, 12446.859472615657, -112014.56034357076, 7230.029371980354, 2037.1156379122303, -184469.55048674947, 187500.0, 23649.665552337832, 9470.881160602708, 0.626, -0.686, 0.424, 192.0, 0.0, 0.0, 0.0, 0.0, 0.0, 0.0, 0.0, 0.0, 0.0, 1.663587170267773E9, 0.0, 2022-09-19 16:32:50.267
32.0, 12461.723382678436, -111993.34853808268, 7249.050706511821, 2031.4382948205823, -184530.52604562356, 187500.0, 23661.914308299343, 9471.976396081018, 0.626, -0.686, 0.424, 192.0, 0.0, 0.0, 0.0, 0.0, 0.0, 0.0, 0.0, 0.0, 0.0, 1.6635871702717743E9, 0.0, 2022-09-19 16:32:50.271
33.0, 12457.565958209749, -111984.38548855609, 7252.962261791499, 2029.2925273528729, -184461.03447211202, 187500.0, 23659.74618908718, 9469.763573379943, 0.626, -0.686, 0.424, 192.0, 0.0, 0.0, 0.0, 0.0, 0.0, 0.0, 0.0, 0.0, 0.0, 1.6635871702747147E9, 0.0, 2022-09-19 16:32:50.274
34.0, 12437.65055390007, -112006.35725335566, 7228.442398124028, 2035.8192367338227, -184364.02790117598, 187500.0, 23639.897840010864, 9460.35348896426, 0.626, -0.686, 0.424, 192.0, 0.0, 0.0, 0.0, 0.0, 0.0, 0.0, 0.0, 0.0, 0.0, 1.6635871702788193E9, 0.0, 2022-09-19 16:32:50.278
35.0, 12435.616545154637, -112020.8411837627, 7216.99830496291, 2034.8134082333338, -184367.514773311, 187500.0, 23634.24284866367, 9458.855922085753, 0.628, -0.6880000000000001, 0.43, 192.0, 19.0, 160.0, 234.0, 128.0, 13.0, 112.0, 0.0, 0.0, 0.0, 1.6635871702827392E9, 0.0, 2022-09-19 16:32:50.282
36.0, 12444.84781561468, -112020.55061108478, 7218.898203241612, 2028.1972918745628, -184455.37948076482, 187500.0, 23638.512031854636, 9461.336965720293, 0.628, -0.6880000000000001, 0.43, 192.0, 0.0, 0.0, 0.0, 0.0, 0.0, 0.0, 0.0, 0.0, 0.0, 1.6635871702887628E9, 0.0, 2022-09-19 16:32:50.288
37.0, 12464.964385624455, -112001.21635213094, 7237.360744161695, 2029.381934330694, -184530.10136247892, 187500.0, 23654.091197739985, 9476.87142811673, 0.628, -0.6880000000000001, 0.43, 192.0, 0.0, 0.0, 0.0, 0.0, 0.0, 0.0, 0.0, 0.0, 0.0, 1.663587170291768E9, 0.0, 2022-09-19 16:32:50.291
38.0, 12460.762257666858, -111991.80626771525, 7243.462770397994, 2026.9902976739763, -184436.51460844453, 187500.0, 23649.799662804566, 9477.54198045039, 0.628, -0.6880000000000001, 0.43, 192.0, 0.0, 0.0, 0.0, 0.0, 0.0, 0.0, 0.0, 0.0, 0.0, 1.663587170295808E9, 0.0, 2022-09-19 16:32:50.295
39.0, 12441.763274879846, -112001.99866318688, 7226.453092867505, 2028.8901959526775, -184376.2766571375, 187500.0, 23629.839555005976, 9463.862712843742, 0.628, -0.6880000000000001, 0.43, 192.0, 0.0, 0.0, 0.0, 0.0, 0.0, 0.0, 0.0, 0.0, 0.0, 1.6635871702988577E9, 0.0, 2022-09-19 16:32:50.298
40.0, 12433.694295131481, -112014.67210229303, 7218.831148008246, 2036.1768646451076, -184385.39616887525, 187500.0, 23625.21274390373, 9467.148419278672, 0.628, -0.6880000000000001, 0.43, 192.0, 0.0, 0.0, 0.0, 0.0, 0.0, 0.0, 0.0, 0.0, 0.0, 1.6635871703027945E9, 0.0, 2022-09-19 16:32:50.302
41.0, 12439.818673112235, -112013.442756348, 7224.553194588804, 2037.3391553567835, -184454.73128017562, 187500.0, 23634.10873819694, 9471.864637358742, 0.628, -0.6880000000000001, 0.43, 192.0, 0.0, 0.0, 0.0, 0.0, 0.0, 0.0, 0.0, 0.0, 0.0, 1.6635871703067791E9, 0.0, 2022-09-19 16:32:50.306
42.0, 12452.693277918492, -111999.71878525244, 7242.054610497309, 2034.254614621951, -184509.49305409112, 187500.0, 23646.33514241399, 9478.391346739692, 0.628, -0.6880000000000001, 0.43, 192.0, 0.0, 0.0, 0.0, 0.0, 0.0, 0.0, 0.0, 0.0, 0.0, 1.663587170311902E9, 0.0, 2022-09-19 16:32:50.311
43.0, 12448.982888338911, -111995.40489857255, 7244.312136687296, 2026.029172662398, -184437.11810554483, 187500.0, 23641.06013072254, 9470.992919324985, 0.628, -0.6880000000000001, 0.43, 192.0, 0.0, 0.0, 0.0, 0.0, 0.0, 0.0, 0.0, 0.0, 0.0, 1.663587170315882E9, 0.0, 2022-09-19 16:32:50.315
44.0, 12433.001391053367, -112008.52537256782, 7229.068246968776, 2029.6054517752473, -184382.75866302953, 187500.0, 23624.028101447595, 9461.895759331675, 0.628, -0.6880000000000001, 0.43, 192.0, 0.0, 0.0, 0.0, 0.0, 0.0, 0.0, 0.0, 0.0, 0.0, 1.6635871703199694E9, 0.0, 2022-09-19 16:32:50.319
45.0, 12431.749693363869, -112018.60600931717, 7221.289839898329, 2034.8134082333338, -184408.15024473076, 187500.0, 23623.78223225859, 9463.192160510083, 0.624, -0.6900000000000001, 0.428, 192.0, 19.0, 128.0, 234.0, 112.0, 13.0, 96.0, 0.0, 0.0, 0.0, 1.6635871703240185E9, 0.0, 2022-09-19 16:32:50.324
46.0, 12441.65151615757, -112013.59921855917, 7228.509453357394, 2030.4995215534595, -184481.1957456107, 187500.0, 23630.599514317455, 9471.797582125377, 0.624, -0.6900000000000001, 0.428, 192.0, 0.0, 0.0, 0.0, 0.0, 0.0, 0.0, 0.0, 0.0, 0.0, 1.66358717032691E9, 0.0, 2022-09-19 16:32:50.326
47.0, 12456.068391331244, -112001.99866318688, 7243.060438997798, 2029.44898956406, -184497.11018766288, 187500.0, 23646.178680202804, 9476.334986249803, 0.624, -0.6900000000000001, 0.428, 192.0, 0.0, 0.0, 0.0, 0.0, 0.0, 0.0, 0.0, 0.0, 0.0, 1.663587170330933E9, 0.0, 2022-09-19 16:32:50.330
48.0, 12455.621356442138, -111997.10363115116, 7246.212034965996, 2028.2196436190181, -184460.09569884487, 187500.0, 23642.892973767874, 9472.311672247848, 0.624, -0.6900000000000001, 0.428, 192.0, 0.0, 0.0, 0.0, 0.0, 0.0, 0.0, 0.0, 0.0, 0.0, 1.663587170334882E9, 0.0, 2022-09-19 16:32:50.334
49.0, 12432.55435616426, -112015.1414889266, 7227.369514390173, 2030.097190153264, -184376.65663679322, 187500.0, 23620.6753397793, 9463.080401787807, 0.624, -0.6900000000000001, 0.428, 192.0, 0.0, 0.0, 0.0, 0.0, 0.0, 0.0, 0.0, 0.0, 0.0, 1.6635871703389132E9, 0.0, 2022-09-19 16:32:50.338
50.0, 12430.140367763088, -112027.7925762883, 7219.144072430619, 2034.3663733442277, -184387.63134332077, 187500.0, 23615.601493787944, 9461.96281456504, 0.624, -0.6900000000000001, 0.428, 192.0, 0.0, 0.0, 0.0, 0.0, 0.0, 0.0, 0.0, 0.0, 0.0, 1.6635871703438592E9, 0.0, 2022-09-19 16:32:50.343
51.0, 12438.522271933827, -112027.83727977722, 7221.513357342882, 2033.4946553104705, -184458.86635289984, 187500.0, 23618.686034522776, 9463.281567487904, 0.624, -0.6900000000000001, 0.428, 192.0, 0.0, 0.0, 0.0, 0.0, 0.0, 0.0, 0.0, 0.0, 0.0, 1.663587170347992E9, 0.0, 2022-09-19 16:32:50.347
52.0, 12457.387144254106, -112010.60408480217, 7241.696982586024, 2034.746352999968, -184547.26750222058, 187500.0, 23634.175793430306, 9473.339852492792, 0.624, -0.6900000000000001, 0.428, 192.0, 0.0, 0.0, 0.0, 0.0, 0.0, 0.0, 0.0, 0.0, 0.0, 1.6635871703519304E9, 0.0, 2022-09-19 16:32:50.351
53.0, 12456.873054131634, -112002.2892358648, 7247.307270444307, 2029.1807686305963, -184439.040355568, 187500.0, 23628.6772642943, 9470.322366991326, 0.624, -0.6900000000000001, 0.428, 192.0, 0.0, 0.0, 0.0, 0.0, 0.0, 0.0, 0.0, 0.0, 0.0, 1.6635871703548534E9, 0.0, 2022-09-19 16:32:50.354
54.0, 12435.46008294345, -112019.72359653993, 7227.19070043453, 2030.7230389980125, -184377.55070657143, 187500.0, 23608.560694284522, 9464.242692499482, 0.624, -0.6900000000000001, 0.428, 192.0, 0.0, 0.0, 0.0, 0.0, 0.0, 0.0, 0.0, 0.0, 0.0, 1.6635871703589103E9, 0.0, 2022-09-19 16:32:50.358
55.0, 12437.829367855713, -112025.13271869812, 7220.775749775858, 2035.416905333627, -184428.3785734628, 187500.0, 23606.72785123919, 9468.511875690447, 0.626, -0.6940000000000001, 0.424, 192.0, 19.0, 144.0, 234.0, 80.0, 13.0, 64.0, 0.0, 0.0, 0.0, 1.6635871703629525E9, 0.0, 2022-09-19 16:32:50.362
56.0, 12446.814769126746, -112021.73525354092, 7227.078941712254, 2035.0369256778868, -184474.7360914631, 187500.0, 23612.38284258638, 9471.797582125377, 0.626, -0.6940000000000001, 0.424, 192.0, 0.0, 0.0, 0.0, 0.0, 0.0, 0.0, 0.0, 0.0, 0.0, 1.6635871703670104E9, 0.0, 2022-09-19 16:32:50.367
57.0, 12458.32591752123, -112006.7372330114, 7243.239252953441, 2031.4606465650377, -184505.2462226446, 187500.0, 23624.609246803433, 9477.229056028016, 0.626, -0.6940000000000001, 0.424, 192.0, 0.0, 0.0, 0.0, 0.0, 0.0, 0.0, 0.0, 0.0, 0.0, 1.663587170371916E9, 0.0, 2022-09-19 16:32:50.371
58.0, 12453.229719785419, -111999.6293782746, 7246.971994277477, 2035.9756989450098, -184439.80031487948, 187500.0, 23624.653950292344, 9481.274721774427, 0.626, -0.6940000000000001, 0.424, 192.0, 0.0, 0.0, 0.0, 0.0, 0.0, 0.0, 0.0, 0.0, 0.0, 1.663587170376922E9, 0.0, 2022-09-19 16:32:50.376
59.0, 12429.425111940518, -112024.03748321981, 7225.469616111472, 2037.2050448900516, -184360.78689822997, 187500.0, 23602.61513025941, 9470.523532691424, 0.626, -0.6940000000000001, 0.424, 192.0, 0.0, 0.0, 0.0, 0.0, 0.0, 0.0, 0.0, 0.0, 0.0, 1.6635871703809855E9, 0.0, 2022-09-19 16:32:50.380
60.0, 12428.687504373493, -112038.1414339711, 7215.210165406485, 2032.9135099546327, -184405.93742202967, 187500.0, 23594.18852259976, 9462.476904687514, 0.626, -0.6940000000000001, 0.424, 192.0, 0.0, 0.0, 0.0, 0.0, 0.0, 0.0, 0.0, 0.0, 0.0, 1.6635871703839605E9, 0.0, 2022-09-19 16:32:50.383
61.0, 12440.46687370144, -112032.95582925748, 7222.697999799014, 2031.0583151648423, -184458.75459417756, 187500.0, 23598.65887149082, 9466.164942522639, 0.626, -0.6940000000000001, 0.424, 192.0, 0.0, 0.0, 0.0, 0.0, 0.0, 0.0, 0.0, 0.0, 0.0, 1.6635871703869889E9, 0.0, 2022-09-19 16:32:50.386
62.0, 12454.79434189729, -112021.93641924101, 7234.544424360326, 2034.0087454329428, -184509.94008898022, 187500.0, 23612.06991816401, 9475.396212982681, 0.626, -0.6940000000000001, 0.424, 192.0, 0.0, 0.0, 0.0, 0.0, 0.0, 0.0, 0.0, 0.0, 0.0, 1.6635871703909252E9, 0.0, 2022-09-19 16:32:50.390
63.0, 12457.9906413544, -112017.08609069421, 7235.840825538734, 2034.5675390443255, -184451.42322199623, 187500.0, 23611.265255363614, 9476.893779861186, 0.626, -0.6940000000000001, 0.424, 192.0, 0.0, 0.0, 0.0, 0.0, 0.0, 0.0, 0.0, 0.0, 0.0, 1.663587170395059E9, 0.0, 2022-09-19 16:32:50.395
64.0, 12435.951821321467, -112034.58750660271, 7215.388979362128, 2032.0417919208758, -184368.83352623388, 187500.0, 23588.108848107917, 9465.06970704433, 0.626, -0.6940000000000001, 0.424, 192.0, 0.0, 0.0, 0.0, 0.0, 0.0, 0.0, 0.0, 0.0, 0.0, 1.663587170399969E9, 0.0, 2022-09-19 16:32:50.399
65.0, 12430.78856835229, -112048.37853293163, 7205.598915290704, 2037.2497483789623, -184395.40975039123, 187500.0, 23585.069010861997, 9467.036660556396, 0.624, -0.6900000000000001, 0.426, 192.0, 19.0, 128.0, 234.0, 112.0, 13.0, 80.0, 0.0, 0.0, 0.0, 1.6635871704040003E9, 0.0, 2022-09-19 16:32:50.404
66.0, 12438.164644022543, -112050.27843121033, 7209.845746737212, 2035.5957192892695, -184449.16569580624, 187500.0, 23593.249749332637, 9470.970567580529, 0.624, -0.6900000000000001, 0.426, 192.0, 0.0, 0.0, 0.0, 0.0, 0.0, 0.0, 0.0, 0.0, 0.0, 1.663587170407012E9, 0.0, 2022-09-19 16:32:50.407
67.0, 12453.140312807598, -112037.35912291516, 7225.201395178008, 2028.5102162969372, -184523.28408042004, 187500.0, 23606.81725821701, 9474.748012393477, 0.624, -0.6900000000000001, 0.426, 192.0, 0.0, 0.0, 0.0, 0.0, 0.0, 0.0, 0.0, 0.0, 0.0, 1.6635871704110148E9, 0.0, 2022-09-19 16:32:50.411
68.0, 12455.688411675503, -112028.37372164414, 7231.973973747966, 2027.2361668629846, -184448.71866091713, 187500.0, 23608.09130765096, 9474.457439715557, 0.624, -0.6900000000000001, 0.426, 192.0, 0.0, 0.0, 0.0, 0.0, 0.0, 0.0, 0.0, 0.0, 0.0, 1.663587170415027E9, 0.0, 2022-09-19 16:32:50.415
69.0, 12439.595155667683, -112043.66231485156, 7216.573621818259, 2027.929070941099, -184354.8189824604, 187500.0, 23592.310976065517, 9464.689727388588, 0.624, -0.6900000000000001, 0.426, 192.0, 0.0, 0.0, 0.0, 0.0, 0.0, 0.0, 0.0, 0.0, 0.0, 1.6635871704190085E9, 0.0, 2022-09-19 16:32:50.419
70.0, 12431.056789285754, -112061.07432378225, 7204.61543853467, 2028.3090505968394, -184384.39034037475, 187500.0, 23585.627804473377, 9459.504122674958, 0.624, -0.6900000000000001, 0.426, 192.0, 0.0, 0.0, 0.0, 0.0, 0.0, 0.0, 0.0, 0.0, 0.0, 1.663587170423068E9, 0.0, 2022-09-19 16:32:50.423
71.0, 12437.27057424433, -112061.94604181602, 7209.622229292659, 2029.1137133972304, -184473.79731819598, 187500.0, 23590.65694697582, 9465.136762277694, 0.624, -0.6900000000000001, 0.426, 192.0, 0.0, 0.0, 0.0, 0.0, 0.0, 0.0, 0.0, 0.0, 0.0, 1.663587170427082E9, 0.0, 2022-09-19 16:32:50.427
72.0, 12449.89930986158, -112049.38436143212, 7226.028409722854, 2029.1584168861411, -184527.62031884436, 187500.0, 23598.81533370201, 9472.021099569929, 0.624, -0.6900000000000001, 0.426, 192.0, 0.0, 0.0, 0.0, 0.0, 0.0, 0.0, 0.0, 0.0, 0.0, 1.6635871704320383E9, 0.0, 2022-09-19 16:32:50.432
73.0, 12445.227795270419, -112045.2492887079, 7231.079903969754, 2027.6384982631803, -184408.86550055334, 187500.0, 23595.261406333615, 9471.708175147554, 0.624, -0.6900000000000001, 0.426, 192.0, 0.0, 0.0, 0.0, 0.0, 0.0, 0.0, 0.0, 0.0, 0.0, 1.6635871704350736E9, 0.0, 2022-09-19 16:32:50.435
74.0, 12429.872146829623, -112067.31046048529, 7212.550307816304, 2027.25851860744, -184353.29906383742, 187500.0, 23575.23424330166, 9462.029869798407, 0.624, -0.6900000000000001, 0.426, 192.0, 0.0, 0.0, 0.0, 0.0, 0.0, 0.0, 0.0, 0.0, 0.0, 1.663587170441124E9, 0.0, 2022-09-19 16:32:50.441
75.0, 12429.55922240725, -112079.31334725778, 7203.497851311905, 2025.9844691734875, -184405.28922144047, 187500.0, 23567.18761529775, 9459.571177908323, 0.626, -0.6880000000000001, 0.424, 192.0, 19.0, 144.0, 234.0, 128.0, 13.0, 64.0, 0.0, 0.0, 0.0, 1.663587170444111E9, 0.0, 2022-09-19 16:32:50.444
76.0, 12441.226833012919, -112077.32404200126, 7209.644581037114, 2022.899928438655, -184454.70892843115, 187500.0, 23576.150664824327, 9461.985166309496, 0.626, -0.6880000000000001, 0.424, 192.0, 0.0, 0.0, 0.0, 0.0, 0.0, 0.0, 0.0, 0.0, 0.0, 1.6635871704480093E9, 0.0, 2022-09-19 16:32:50.448
77.0, 12453.430885485517, -112061.2978412268, 7224.284973655341, 2021.3800098156942, -184525.02751648755, 187500.0, 23588.064144619006, 9470.30001524687, 0.626, -0.6880000000000001, 0.424, 192.0, 0.0, 0.0, 0.0, 0.0, 0.0, 0.0, 0.0, 0.0, 0.0, 1.6635871704510384E9, 0.0, 2022-09-19 16:32:50.451
78.0, 12444.423132470029, -112058.03448653633, 7227.816549279279, 2021.4023615601495, -184421.15896000376, 187500.0, 23583.929071894774, 9468.042489056885, 0.626, -0.6880000000000001, 0.424, 192.0, 0.0, 0.0, 0.0, 0.0, 0.0, 0.0, 0.0, 0.0, 0.0, 1.6635871704551463E9, 0.0, 2022-09-19 16:32:50.455
79.0, 12422.116091503633, -112079.961547847, 7208.23642113643, 2025.5374342843813, -184349.7004329801, 187500.0, 23563.074894317975, 9456.263119728937, 0.626, -0.6880000000000001, 0.424, 192.0, 0.0, 0.0, 0.0, 0.0, 0.0, 0.0, 0.0, 0.0, 0.0, 1.6635871704590683E9, 0.0, 2022-09-19 16:32:50.459
80.0, 12421.423187425517, -112093.17142882007, 7200.323903599251, 2028.3984575746606, -184392.70518931214, 187500.0, 23556.168205281283, 9453.782076094398, 0.626, -0.6880000000000001, 0.424, 192.0, 0.0, 0.0, 0.0, 0.0, 0.0, 0.0, 0.0, 0.0, 0.0, 1.663587170463116E9, 0.0, 2022-09-19 16:32:50.463
81.0, 12430.45329218546, -112088.72343167347, 7208.325828114251, 2030.4995215534595, -184466.39889078127, 187500.0, 23562.51610070659, 9458.811218596842, 0.626, -0.6880000000000001, 0.424, 192.0, 0.0, 0.0, 0.0, 0.0, 0.0, 0.0, 0.0, 0.0, 0.0, 1.6635871704672365E9, 0.0, 2022-09-19 16:32:50.467
82.0, 12439.572803923227, -112077.92753910155, 7223.100331199209, 2027.8173122188227, -184492.796300983, 187500.0, 23574.720153179187, 9467.72956463451, 0.626, -0.6880000000000001, 0.424, 192.0, 0.0, 0.0, 0.0, 0.0, 0.0, 0.0, 0.0, 0.0, 0.0, 1.6635871704721184E9, 0.0, 2022-09-19 16:32:50.472
83.0, 12434.230736998408, -112073.9042250996, 7227.391866134628, 2023.9281086835992, -184418.4767506691, 187500.0, 23573.33434502296, 9467.707212890055, 0.626, -0.6880000000000001, 0.424, 192.0, 0.0, 0.0, 0.0, 0.0, 0.0, 0.0, 0.0, 0.0, 0.0, 1.6635871704751174E9, 0.0, 2022-09-19 16:32:50.475
84.0, 12416.014065267333, -112093.41729800908, 7207.677627525048, 2024.7327714839903, -184362.016244175, 187500.0, 23556.391722725835, 9455.324346461815, 0.626, -0.6880000000000001, 0.424, 192.0, 0.0, 0.0, 0.0, 0.0, 0.0, 0.0, 0.0, 0.0, 0.0, 1.6635871704790869E9, 0.0, 2022-09-19 16:32:50.479
85.0, 12417.712797845936, -112105.9119231596, 7198.781633231835, 2029.3372308417836, -184385.75379678654, 187500.0, 23550.93789707874, 9451.502198159957, 0.628, -0.6880000000000001, 0.42, 192.0, 19.0, 160.0, 234.0, 128.0, 13.0, 32.0, 0.0, 0.0, 0.0, 1.6635871704832487E9, 0.0, 2022-09-19 16:32:50.483
86.0, 12425.804129338758, -112107.65535922711, 7202.4696710669605, 2027.0573529073422, -184453.85956214185, 187500.0, 23554.08949304694, 9456.307823217849, 0.628, -0.6880000000000001, 0.42, 192.0, 0.0, 0.0, 0.0, 0.0, 0.0, 0.0, 0.0, 0.0, 0.0, 1.6635871704871151E9, 0.0, 2022-09-19 16:32:50.487
87.0, 12438.544623678283, -112093.41729800908, 7217.825319507757, 2021.06708539332, -184532.11301947988, 187500.0, 23562.985487340153, 9465.941425078086, 0.628, -0.6880000000000001, 0.42, 192.0, 0.0, 0.0, 0.0, 0.0, 0.0, 0.0, 0.0, 0.0, 0.0, 1.663587170491119E9, 0.0, 2022-09-19 16:32:50.491
88.0, 12442.32206849123, -112081.72733565896, 7224.57554633326, 2021.7599894714344, -184446.6846521717, 187500.0, 23562.09141756194, 9466.92490183412, 0.628, -0.6880000000000001, 0.42, 192.0, 0.0, 0.0, 0.0, 0.0, 0.0, 0.0, 0.0, 0.0, 0.0, 1.6635871704951231E9, 0.0, 2022-09-19 16:32:50.495
89.0, 12423.613658382137, -112100.30163530132, 7202.5814297892375, 2018.9883731589764, -184383.36216012982, 187500.0, 23541.818385340976, 9451.189273737584, 0.628, -0.6880000000000001, 0.42, 192.0, 0.0, 0.0, 0.0, 0.0, 0.0, 0.0, 0.0, 0.0, 0.0, 1.6635871704991102E9, 0.0, 2022-09-19 16:32:50.499
90.0, 12418.338646690685, -112117.82540295427, 7191.85259245069, 2023.5928325167697, -184383.8762502523, 187500.0, 23538.912658561785, 9450.205796981549, 0.628, -0.6880000000000001, 0.42, 192.0, 0.0, 0.0, 0.0, 0.0, 0.0, 0.0, 0.0, 0.0, 0.0, 1.6635871705041244E9, 0.0, 2022-09-19 16:32:50.504
91.0, 12424.84300432718, -112112.4162807961, 7198.066377409265, 2020.5753470153031, -184476.70304497518, 187500.0, 23544.18767025324, 9455.547863906368, 0.628, -0.6880000000000001, 0.42, 192.0, 0.0, 0.0, 0.0, 0.0, 0.0, 0.0, 0.0, 0.0, 0.0, 1.663587170507187E9, 0.0, 2022-09-19 16:32:50.507
92.0, 12438.857548100657, -112094.71369918749, 7214.539613072827, 2015.7026667240461, -184526.97211825516, 187500.0, 23556.27996400356, 9461.5828349093, 0.628, -0.6880000000000001, 0.42, 192.0, 0.0, 0.0, 0.0, 0.0, 0.0, 0.0, 0.0, 0.0, 0.0, 1.6635871705122519E9, 0.0, 2022-09-19 16:32:50.512
93.0, 12435.147158521077, -112086.53296071685, 7221.960392231988, 2017.3343440692836, -184431.82074210892, 187500.0, 23552.6589814018, 9462.92393957662, 0.628, -0.6880000000000001, 0.42, 192.0, 0.0, 0.0, 0.0, 0.0, 0.0, 0.0, 0.0, 0.0, 0.0, 1.6635871705152447E9, 0.0, 2022-09-19 16:32:50.515
94.0, 12421.624353125615, -112100.23458006795, 7208.951676959, 2019.2118906035294, -184391.47584336708, 187500.0, 23537.571553894468, 9455.279642972904, 0.628, -0.6880000000000001, 0.42, 192.0, 0.0, 0.0, 0.0, 0.0, 0.0, 0.0, 0.0, 0.0, 0.0, 1.663587170520184E9, 0.0, 2022-09-19 16:32:50.520
95.0, 12422.831347326202, -112106.67188247108, 7201.866173966668, 2018.2060621030407, -184439.6438526683, 187500.0, 23531.983617780643, 9447.925919047108, 0.634, -0.6880000000000001, 0.422, 192.0, 19.0, 208.0, 234.0, 128.0, 13.0, 48.0, 0.0, 0.0, 0.0, 1.663587170525206E9, 0.0, 2022-09-19 16:32:50.525
96.0, 12429.22394624042, -112106.00133013741, 7206.492985068916, 2017.0884748802753, -184457.81582091044, 187500.0, 23534.039978270528, 9447.523587646912, 0.634, -0.6880000000000001, 0.422, 192.0, 0.0, 0.0, 0.0, 0.0, 0.0, 0.0, 0.0, 0.0, 0.0, 1.663587170528278E9, 0.0, 2022-09-19 16:32:50.528
97.0, 12437.874071344624, -112092.45617299751, 7222.5415375878265, 2016.4402742910713, -184512.66700180375, 187500.0, 23543.00302779711, 9460.375840708713, 0.634, -0.6880000000000001, 0.422, 192.0, 0.0, 0.0, 0.0, 0.0, 0.0, 0.0, 0.0, 0.0, 0.0, 1.6635871705311959E9, 0.0, 2022-09-19 16:32:50.531
98.0, 12429.156891007053, -112088.61167295119, 7225.201395178008, 2014.585079501281, -184435.46407645513, 187500.0, 23541.103129518408, 9458.58770115229, 0.634, -0.6880000000000001, 0.422, 192.0, 0.0, 0.0, 0.0, 0.0, 0.0, 0.0, 0.0, 0.0, 0.0, 1.6635871705352902E9, 0.0, 2022-09-19 16:32:50.535
99.0, 12415.052940255755, -112111.03047263986, 7205.218935634964, 2015.1885766015741, -184363.9608459426, 187500.0, 23525.546315377513, 9443.857901556243, 0.634, -0.6880000000000001, 0.422, 192.0, 0.0, 0.0, 0.0, 0.0, 0.0, 0.0, 0.0, 0.0, 0.0, 1.663587170539276E9, 0.0, 2022-09-19 16:32:50.539
100.0, 12416.237582711887, -112125.82732746928, 7194.914781441067, 2017.580213258292, -184403.0763987394, 187500.0, 23519.578399607944, 9439.722828832011, 0.634, -0.6880000000000001, 0.422, 192.0, 0.0, 0.0, 0.0, 0.0, 0.0, 0.0, 0.0, 0.0, 0.0, 1.6635871705432985E9, 0.0, 2022-09-19 16:32:50.543
101.0, 12428.642800884581, -112120.82053671128, 7201.240325121918, 2014.4733207790043, -184486.71662649116, 187500.0, 23525.188687466227, 9446.048372512863, 0.634, -0.6880000000000001, 0.422, 192.0, 0.0, 0.0, 0.0, 0.0, 0.0, 0.0, 0.0, 0.0, 0.0, 1.663587170547236E9, 0.0, 2022-09-19 16:32:50.547
102.0, 12437.069408544232, -112108.95176040551, 7211.835051993734, 2014.4286172900938, -184498.8536237304, 187500.0, 23535.626952126855, 9454.16205575014, 0.634, -0.6880000000000001, 0.422, 192.0, 0.0, 0.0, 0.0, 0.0, 0.0, 0.0, 0.0, 0.0, 0.0, 1.6635871705512507E9, 0.0, 2022-09-19 16:32:50.551
103.0, 12433.783702109302, -112105.7554609484, 7210.963333959978, 2016.9767161579987, -184459.13457383332, 187500.0, 23533.972923037163, 9456.553692406856, 0.634, -0.6880000000000001, 0.422, 192.0, 0.0, 0.0, 0.0, 0.0, 0.0, 0.0, 0.0, 0.0, 0.0, 1.6635871705552733E9, 0.0, 2022-09-19 16:32:50.555
104.0, 12417.913963546034, -112121.75930997841, 7195.048891907799, 2018.2060621030407, -184376.90250598223, 187500.0, 23516.47150712866, 9447.545939391368, 0.634, -0.6880000000000001, 0.422, 192.0, 0.0, 0.0, 0.0, 0.0, 0.0, 0.0, 0.0, 0.0, 0.0, 1.6635871705592709E9, 0.0, 2022-09-19 16:32:50.559
105.0, 12412.50484138785, -112134.03041768438, 7186.5552290147825, 2015.5685562573144, -184382.31162814042, 187500.0, 23506.569684334958, 9441.756837577443, 0.628, -0.6880000000000001, 0.426, 192.0, 19.0, 160.0, 234.0, 128.0, 13.0, 80.0, 0.0, 0.0, 0.0, 1.6635871705622582E9, 0.0, 2022-09-19 16:32:50.562
106.0, 12418.383350179596, -112134.00806593992, 7189.080976138232, 2012.5287190113927, -184450.66326268474, 187500.0, 23510.83886752592, 9441.510968388435, 0.628, -0.6880000000000001, 0.426, 192.0, 0.0, 0.0, 0.0, 0.0, 0.0, 0.0, 0.0, 0.0, 0.0, 1.6635871705662656E9, 0.0, 2022-09-19 16:32:50.566
107.0, 12434.945992820978, -112124.44151931304, 7202.492022811416, 2009.6229922322027, -184501.66994353177, 187500.0, 23525.121632232862, 9444.081419000795, 0.628, -0.6880000000000001, 0.426, 192.0, 0.0, 0.0, 0.0, 0.0, 0.0, 0.0, 0.0, 0.0, 0.0, 1.663587170571314E9, 0.0, 2022-09-19 16:32:50.571
108.0, 12432.532004419805, -112119.74765297743, 7205.129528657142, 2008.6618672206246, -184438.25804451204, 187500.0, 23524.719300832665, 9440.10280848775, 0.628, -0.6880000000000001, 0.426, 192.0, 0.0, 0.0, 0.0, 0.0, 0.0, 0.0, 0.0, 0.0, 0.0, 1.6635871705753174E9, 0.0, 2022-09-19 16:32:50.575
109.0, 12414.74001583338, -112137.20436539703, 7186.7340429704245, 2008.8183294318117, -184368.38649134478, 187500.0, 23508.670748313758, 9430.715075816523, 0.628, -0.6880000000000001, 0.426, 192.0, 0.0, 0.0, 0.0, 0.0, 0.0, 0.0, 0.0, 0.0, 0.0, 1.663587170579311E9, 0.0, 2022-09-19 16:32:50.579
110.0, 12411.878992543101, -112149.11784519171, 7178.150973099587, 2008.1477770981523, -184373.7732617585, 187500.0, 23501.205265665685, 9429.664543827123, 0.628, -0.6880000000000001, 0.426, 192.0, 0.0, 0.0, 0.0, 0.0, 0.0, 0.0, 0.0, 0.0, 0.0, 1.663587170583285E9, 0.0, 2022-09-19 16:32:50.583
111.0, 12414.449443155461, -112146.90502249062, 7186.711691225969, 2008.773625942901, -184467.51647800405, 187500.0, 23505.13917268982, 9433.91137527363, 0.628, -0.6880000000000001, 0.426, 192.0, 0.0, 0.0, 0.0, 0.0, 0.0, 0.0, 0.0, 0.0, 0.0, 1.6635871705883408E9, 0.0, 2022-09-19 16:32:50.588
112.0, 12426.072350272221, -112136.33264736328, 7204.213107134475, 2008.393646287161, -184491.5893067824, 187500.0, 23520.22660019715, 9438.851110798254, 0.628, -0.6880000000000001, 0.426, 192.0, 0.0, 0.0, 0.0, 0.0, 0.0, 0.0, 0.0, 0.0, 0.0, 1.6635871705923183E9, 0.0, 2022-09-19 16:32:50.592
113.0, 12426.206460738953, -112133.35986535072, 7206.716502513469, 2008.9971433874541, -184419.6166896363, 187500.0, 23517.812611795976, 9440.885119543687, 0.628, -0.6880000000000001, 0.426, 192.0, 0.0, 0.0, 0.0, 0.0, 0.0, 0.0, 0.0, 0.0, 0.0, 1.6635871705953417E9, 0.0, 2022-09-19 16:32:50.595
114.0, 12409.666169842027, -112146.50269109044, 7193.148993629097, 2012.7075329670351, -184389.95592474414, 187500.0, 23501.875817999342, 9436.370067163714, 0.628, -0.6880000000000001, 0.426, 192.0, 0.0, 0.0, 0.0, 0.0, 0.0, 0.0, 0.0, 0.0, 0.0, 1.663587170600364E9, 0.0, 2022-09-19 16:32:50.600
115.0, 12404.257047683841, -112154.86224351672, 7186.197601103498, 2017.4237510471048, -184413.08998025538, 187500.0, 23499.260663898072, 9435.163072963129, 0.626, -0.6900000000000001, 0.424, 192.0, 19.0, 144.0, 234.0, 112.0, 13.0, 64.0, 0.0, 0.0, 0.0, 1.6635871706033928E9, 0.0, 2022-09-19 16:32:50.603
116.0, 12411.0296262538, -112147.59792656875, 7195.786499474824, 2016.3732190577055, -184469.19285883819, 187500.0, 23507.88843725782, 9441.019230010419, 0.626, -0.6900000000000001, 0.424, 192.0, 0.0, 0.0, 0.0, 0.0, 0.0, 0.0, 0.0, 0.0, 0.0, 1.6635871706073625E9, 0.0, 2022-09-19 16:32:50.607
117.0, 12426.65349562806, -112128.62129552619, 7214.785482261835, 2017.2672888359177, -184518.07612396195, 187500.0, 23523.936989776732, 9446.897738802165, 0.626, -0.6900000000000001, 0.424, 192.0, 0.0, 0.0, 0.0, 0.0, 0.0, 0.0, 0.0, 0.0, 0.0, 1.6635871706113462E9, 0.0, 2022-09-19 16:32:50.611
118.0, 12426.094702016677, -112123.18982162356, 7217.870022996667, 2015.2109283460295, -184424.60112864987, 187500.0, 23524.004045010097, 9441.846244555265, 0.626, -0.6900000000000001, 0.424, 192.0, 0.0, 0.0, 0.0, 0.0, 0.0, 0.0, 0.0, 0.0, 0.0, 1.663587170614386E9, 0.0, 2022-09-19 16:32:50.614
119.0, 12409.643818097571, -112144.4239788561, 7198.669874509558, 2013.1098643672306, -184347.19703760114, 187500.0, 23506.770850035056, 9428.457549626535, 0.626, -0.6900000000000001, 0.424, 192.0, 0.0, 0.0, 0.0, 0.0, 0.0, 0.0, 0.0, 0.0, 0.0, 1.6635871706183944E9, 0.0, 2022-09-19 16:32:50.618
120.0, 12404.949951761957, -112158.19265344056, 7188.455127293483, 2007.8795561646887, -184390.51471835552, 187500.0, 23500.311195887472, 9417.81811926581, 0.626, -0.6900000000000001, 0.424, 192.0, 0.0, 0.0, 0.0, 0.0, 0.0, 0.0, 0.0, 0.0, 0.0, 1.6635871706223905E9, 0.0, 2022-09-19 16:32:50.622
121.0, 12414.225925710909, -112158.23735692947, 7191.3161505837625, 2008.9524398985434, -184472.67973097324, 187500.0, 23507.486105857624, 9427.25055542595, 0.626, -0.6900000000000001, 0.424, 192.0, 0.0, 0.0, 0.0, 0.0, 0.0, 0.0, 0.0, 0.0, 0.0, 1.66358717062736E9, 0.0, 2022-09-19 16:32:50.627
122.0, 12435.057751543254, -112143.23933639996, 7209.957505459489, 2015.5685562573144, -184509.71657153568, 187500.0, 23522.37236766486, 9441.622727110711, 0.626, -0.6900000000000001, 0.424, 192.0, 0.0, 0.0, 0.0, 0.0, 0.0, 0.0, 0.0, 0.0, 0.0, 1.6635871706314452E9, 0.0, 2022-09-19 16:32:50.631
123.0, 12437.65055390007, -112137.45023458604, 7213.533784572338, 2013.646306234158, -184424.24350073858, 187500.0, 23518.013777496075, 9441.44391315507, 0.626, -0.6900000000000001, 0.424, 192.0, 0.0, 0.0, 0.0, 0.0, 0.0, 0.0, 0.0, 0.0, 0.0, 1.663587170635416E9, 0.0, 2022-09-19 16:32:50.635
124.0, 12413.845946055168, -112162.26067093143, 7189.058624393777, 2012.0593323778312, -184353.3661190708, 187500.0, 23494.008003951076, 9425.685933314078, 0.626, -0.6900000000000001, 0.424, 192.0, 0.0, 0.0, 0.0, 0.0, 0.0, 0.0, 0.0, 0.0, 0.0, 1.66358717063841E9, 0.0, 2022-09-19 16:32:50.638
125.0, 12413.577725121704, -112172.65423210314, 7185.102365625187, 2017.3119923248282, -184405.69155284067, 187500.0, 23493.158637661774, 9426.423540881104, 0.626, -0.6900000000000001, 0.424, 192.0, 0.0, 0.0, 0.0, 0.0, 0.0, 0.0, 0.0, 0.0, 0.0, 1.663587170642409E9, 0.0, 2022-09-19 16:32:50.642
126.0, 12418.763329835336, -112169.03324950139, 7193.037234906821, 2015.9932394019652, -184453.77015516403, 187500.0, 23501.093506943405, 9433.240822939972, 0.622, -0.686, 0.42, 192.0, 19.0, 112.0, 234.0, 144.0, 13.0, 32.0, 0.0, 0.0, 0.0, 1.6635871706464748E9, 0.0, 2022-09-19 16:32:50.646
127.0, 12432.621411397626, -112151.93416499307, 7210.695113026513, 2013.4674922785155, -184521.56299609697, 187500.0, 23513.051690226996, 9443.522625389412, 0.622, -0.686, 0.42, 192.0, 0.0, 0.0, 0.0, 0.0, 0.0, 0.0, 0.0, 0.0, 0.0, 1.6635871706505008E9, 0.0, 2022-09-19 16:32:50.650
128.0, 12427.525213661816, -112147.10618819072, 7214.025522950355, 2016.8202539468116, -184424.7352391166, 187500.0, 23511.621178581856, 9445.400171923658, 0.622, -0.686, 0.42, 192.0, 0.0, 0.0, 0.0, 0.0, 0.0, 0.0, 0.0, 0.0, 0.0, 1.6635871706554358E9, 0.0, 2022-09-19 16:32:50.655
129.0, 12406.112242473631, -112167.8709587897, 7195.428871563539, 2014.518024267915, -184376.4778228376, 187500.0, 23494.45503884018, 9432.749084561954, 0.622, -0.686, 0.42, 192.0, 0.0, 0.0, 0.0, 0.0, 0.0, 0.0, 0.0, 0.0, 0.0, 1.663587170659449E9, 0.0, 2022-09-19 16:32:50.659
130.0, 12407.006312251844, -112182.66781361912, 7187.739871470913, 2016.552033013348, -184380.523488584, 187500.0, 23492.309271372473, 9428.859881026732, 0.622, -0.686, 0.42, 192.0, 0.0, 0.0, 0.0, 0.0, 0.0, 0.0, 0.0, 0.0, 0.0, 1.6635871706634753E9, 0.0, 2022-09-19 16:32:50.663
131.0, 12418.450405412961, -112178.10805775024, 7195.875906452645, 2018.966021414521, -184468.29878905998, 187500.0, 23499.37242262035, 9434.470168885013, 0.622, -0.686, 0.42, 192.0, 0.0, 0.0, 0.0, 0.0, 0.0, 0.0, 0.0, 0.0, 0.0, 1.6635871706665154E9, 0.0, 2022-09-19 16:32:50.666
132.0, 12427.16758575053, -112162.68535407608, 7208.772863003357, 2016.2391085909735, -184505.93912672272, 187500.0, 23510.592998336913, 9441.667430599622, 0.622, -0.686, 0.42, 192.0, 0.0, 0.0, 0.0, 0.0, 0.0, 0.0, 0.0, 0.0, 0.0, 1.6635871706704612E9, 0.0, 2022-09-19 16:32:50.670
133.0, 12424.21715548243, -112155.33163015028, 7209.286953125829, 2015.8591289352335, -184447.8469428834, 187500.0, 23507.910789002275, 9443.29910794486, 0.622, -0.686, 0.42, 192.0, 0.0, 0.0, 0.0, 0.0, 0.0, 0.0, 0.0, 0.0, 0.0, 1.6635871706755517E9, 0.0, 2022-09-19 16:32:50.675
134.0, 12407.475698885406, -112173.10126699225, 7186.42111854805, 2016.1049981242418, -184371.5157355685, 187500.0, 23484.97789919113, 9433.397285151159, 0.622, -0.686, 0.42, 192.0, 0.0, 0.0, 0.0, 0.0, 0.0, 0.0, 0.0, 0.0, 0.0, 1.6635871706804993E9, 0.0, 2022-09-19 16:32:50.680
135.0, 12403.854716283646, -112184.2771392199, 7177.547475999293, 2015.5238527684037, -184409.2231284646, 187500.0, 23477.467713054146, 9427.362314148226, 0.622, -0.686, 0.42, 192.0, 0.0, 0.0, 0.0, 0.0, 0.0, 0.0, 0.0, 0.0, 0.0, 1.663587170683543E9, 0.0, 2022-09-19 16:32:50.683
136.0, 12416.50580364535, -112180.81261882934, 7185.527048769838, 2017.4461027915602, -184467.98586463762, 187500.0, 23487.436591081216, 9435.096017729762, 0.628, -0.68, 0.422, 192.0, 19.0, 160.0, 234.0, 192.0, 13.0, 48.0, 0.0, 0.0, 0.0, 1.663587170687489E9, 0.0, 2022-09-19 16:32:50.687
137.0, 12430.207422996453, -112172.0283832584, 7198.491060553916, 2018.8989661811552, -184479.96639966566, 187500.0, 23503.194570922205, 9445.042544012374, 0.628, -0.68, 0.422, 192.0, 0.0, 0.0, 0.0, 0.0, 0.0, 0.0, 0.0, 0.0, 0.0, 1.6635871706915183E9, 0.0, 2022-09-19 16:32:50.691
138.0, 12424.619486882626, -112170.68727859108, 7200.5921245327145, 2020.1730156151077, -184428.04329729598, 187500.0, 23499.37242262035, 9440.706305588044, 0.628, -0.68, 0.422, 192.0, 0.0, 0.0, 0.0, 0.0, 0.0, 0.0, 0.0, 0.0, 0.0, 1.6635871706945076E9, 0.0, 2022-09-19 16:32:50.694
139.0, 12403.184163949987, -112191.80967710134, 7179.581484744726, 2015.0768178792976, -184366.30777911042, 187500.0, 23476.037201409006, 9423.137834446172, 0.628, -0.68, 0.422, 192.0, 0.0, 0.0, 0.0, 0.0, 0.0, 0.0, 0.0, 0.0, 0.0, 1.663587170698507E9, 0.0, 2022-09-19 16:32:50.698
140.0, 12402.468908127417, -112205.55599994135, 7172.160705585565, 2015.5238527684037, -184395.11917771332, 187500.0, 23472.68443974071, 9421.260287911928, 0.628, -0.68, 0.422, 192.0, 0.0, 0.0, 0.0, 0.0, 0.0, 0.0, 0.0, 0.0, 0.0, 1.6635871707025287E9, 0.0, 2022-09-19 16:32:50.702
141.0, 12410.940219275979, -112200.54920918337, 7181.973121401445, 2006.6278584751915, -184452.04907084096, 187500.0, 23479.322907843936, 9423.6742763131, 0.628, -0.68, 0.422, 192.0, 0.0, 0.0, 0.0, 0.0, 0.0, 0.0, 0.0, 0.0, 0.0, 1.6635871707065485E9, 0.0, 2022-09-19 16:32:50.706
142.0, 12419.545640891272, -112184.52300840891, 7198.848688465201, 2002.001047372943, -184514.92452799375, 187500.0, 23491.5940155499, 9428.166976948616, 0.628, -0.68, 0.422, 192.0, 0.0, 0.0, 0.0, 0.0, 0.0, 0.0, 0.0, 0.0, 0.0, 1.663587170710544E9, 0.0, 2022-09-19 16:32:50.710
143.0, 12409.397948908561, -112181.43846767407, 7198.245191364907, 1997.6201054597027, -184423.26002398253, 187500.0, 23487.41423933676, 9426.714113559023, 0.628, -0.68, 0.422, 192.0, 0.0, 0.0, 0.0, 0.0, 0.0, 0.0, 0.0, 0.0, 0.0, 1.6635871707154849E9, 0.0, 2022-09-19 16:32:50.715
144.0, 12394.578742334694, -112199.94571208308, 7182.062528379265, 2001.9116403951218, -184375.3825873593, 187500.0, 23471.008058906566, 9423.070779212807, 0.628, -0.68, 0.422, 192.0, 0.0, 0.0, 0.0, 0.0, 0.0, 0.0, 0.0, 0.0, 0.0, 1.6635871707195475E9, 0.0, 2022-09-19 16:32:50.719
145.0, 12398.378538892095, -112210.76395639945, 7179.067394622254, 2009.3994747876495, -184418.5661576469, 187500.0, 23471.678611240222, 9427.585831592778, 0.628, -0.68, 0.422, 192.0, 0.0, 0.0, 0.0, 0.0, 0.0, 0.0, 0.0, 0.0, 0.0, 1.6635871707225633E9, 0.0, 2022-09-19 16:32:50.722
146.0, 12414.225925710909, -112202.3820522287, 7188.969217415955, 2008.1030736092418, -184502.58636505442, 187500.0, 23479.50172179958, 9433.285526428883, 0.628, -0.6940000000000001, 0.422, 192.0, 19.0, 160.0, 234.0, 80.0, 13.0, 48.0, 0.0, 0.0, 0.0, 1.6635871707265737E9, 0.0, 2022-09-19 16:32:50.726
147.0, 12428.642800884581, -112184.65711887565, 7204.391921090117, 2010.4947102659596, -184526.97211825516, 187500.0, 23491.102277171885, 9444.260232956438, 0.628, -0.6940000000000001, 0.422, 192.0, 0.0, 0.0, 0.0, 0.0, 0.0, 0.0, 0.0, 0.0, 0.0, 1.6635871707305827E9, 0.0, 2022-09-19 16:32:50.730
148.0, 12421.065559514233, -112184.00891828645, 7199.206316376486, 2012.5287190113927, -184408.10554124185, 187500.0, 23482.966242190152, 9440.77336082141, 0.628, -0.6940000000000001, 0.422, 192.0, 0.0, 0.0, 0.0, 0.0, 0.0, 0.0, 0.0, 0.0, 0.0, 1.6635871707345853E9, 0.0, 2022-09-19 16:32:50.734
149.0, 12406.246352940363, -112197.17409577062, 7183.537743513316, 2016.194405102063, -184400.84122429386, 187500.0, 23464.995439648086, 9433.687857829078, 0.628, -0.6940000000000001, 0.422, 192.0, 0.0, 0.0, 0.0, 0.0, 0.0, 0.0, 0.0, 0.0, 0.0, 1.6635871707385948E9, 0.0, 2022-09-19 16:32:50.738
150.0, 12405.642855840071, -112204.10313655176, 7179.022691133344, 2015.6579632351356, -184459.38044302232, 187500.0, 23462.380285546817, 9437.19708170856, 0.628, -0.6940000000000001, 0.422, 192.0, 0.0, 0.0, 0.0, 0.0, 0.0, 0.0, 0.0, 0.0, 0.0, 1.6635871707435808E9, 0.0, 2022-09-19 16:32:50.743
151.0, 12415.187050722487, -112195.47536319202, 7191.182040117031, 2015.5238527684037, -184513.7622372821, 187500.0, 23470.20339610617, 9444.751971334455, 0.628, -0.6940000000000001, 0.422, 192.0, 0.0, 0.0, 0.0, 0.0, 0.0, 0.0, 0.0, 0.0, 0.0, 1.663587170747632E9, 0.0, 2022-09-19 16:32:50.747
152.0, 12429.000428795867, -112175.11292399323, 7211.365665360173, 2014.6968382235575, -184548.07216502097, 187500.0, 23481.714544500657, 9451.6810121156, 0.628, -0.6940000000000001, 0.422, 192.0, 0.0, 0.0, 0.0, 0.0, 0.0, 0.0, 0.0, 0.0, 0.0, 1.6635871707506444E9, 0.0, 2022-09-19 16:32:50.750
153.0, 12423.524251404317, -112168.25093844545, 7214.651371795103, 2014.6297829901914, -184439.37563173482, 187500.0, 23476.663050253756, 9450.541073148379, 0.628, -0.6940000000000001, 0.422, 192.0, 0.0, 0.0, 0.0, 0.0, 0.0, 0.0, 0.0, 0.0, 0.0, 1.6635871707546139E9, 0.0, 2022-09-19 16:32:50.754
154.0, 12402.625370338605, -112187.76401135493, 7193.573676773749, 2014.4286172900938, -184386.40199737574, 187500.0, 23454.937154643198, 9441.980355021997, 0.628, -0.6940000000000001, 0.422, 192.0, 0.0, 0.0, 0.0, 0.0, 0.0, 0.0, 0.0, 0.0, 0.0, 1.6635871707586114E9, 0.0, 2022-09-19 16:32:50.758
155.0, 12401.820707538212, -112196.83881960378, 7189.684473238525, 2016.3955708021608, -184433.4300677097, 187500.0, 23454.17719533172, 9439.231090453994, 0.628, -0.6940000000000001, 0.422, 192.0, 0.0, 0.0, 0.0, 0.0, 0.0, 0.0, 0.0, 0.0, 0.0, 1.6635871707626472E9, 0.0, 2022-09-19 16:32:50.762
156.0, 12411.320198931719, -112194.69305213608, 7196.837031464223, 2018.4072278031383, -184473.79731819598, 187500.0, 23463.922555914232, 9442.33798293328, 0.626, -0.6940000000000001, 0.426, 192.0, 19.0, 144.0, 234.0, 80.0, 13.0, 80.0, 0.0, 0.0, 0.0, 1.6635871707686417E9, 0.0, 2022-09-19 16:32:50.768
