%OpenBCI Raw EEG Data
%Number of channels = 8
%Sample Rate = 250 Hz
%Board = OpenBCI_GUI$BoardCytonSerial
Sample Index, EXG Channel 0, EXG Channel 1, EXG Channel 2, EXG Channel 3, EXG Channel 4, EXG Channel 5, EXG Channel 6, EXG Channel 7, Accel Channel 0, Accel Channel 1, Accel Channel 2, Other, Other, Other, Other, Other, Other, Other, Analog Channel 0, Analog Channel 1, Analog Channel 2, Timestamp, Other, Timestamp (Formatted)
230.0, -41714.77010426165, -34329.82079146156, -44226.99442231589, -40721.95031904582, -57166.061659581865, 187500.0, -38277.608248902354, -40337.567369647906, 0.0, 0.0, 0.0, 192.0, 0.0, 0.0, 0.0, 0.0, 0.0, 0.0, 0.0, 0.0, 0.0, 1.663591774274982E9, 0.0, 2022-09-19 17:49:34.274
231.0, -41694.45236855178, -34303.15516032638, -44221.27237573533, -40693.049513465114, -57134.948031300075, 187500.0, -38366.747005790116, -40307.37016288879, 0.0, 0.0, 0.0, 192.0, 0.0, 0.0, 0.0, 0.0, 0.0, 0.0, 0.0, 0.0, 0.0, 1.663591774275012E9, 0.0, 2022-09-19 17:49:34.275
232.0, -41688.68561848231, -34300.58470971402, -44201.62519235912, -40704.11362697049, -57134.92567955562, 187500.0, -38264.30896095144, -40323.64223285225, 0.0, 0.0, 0.0, 192.0, 0.0, 0.0, 0.0, 0.0, 0.0, 0.0, 0.0, 0.0, 0.0, 1.6635917742750292E9, 0.0, 2022-09-19 17:49:34.275
233.0, -41691.993676661696, -34314.867474420964, -44171.85266874465, -40731.82979009507, -57150.817769863344, 187500.0, -38074.11796738124, -40362.84719262686, 0.0, 0.0, 0.0, 192.0, 0.0, 0.0, 0.0, 0.0, 0.0, 0.0, 0.0, 0.0, 0.0, 1.6635917742750452E9, 0.0, 2022-09-19 17:49:34.275
0.0, 0.0, 0.0, 0.0, 0.0, 0.0, 0.0, 0.0, 0.0, 0.0, 0.0, 0.0, 192.0, 0.0, 0.0, 0.0, 0.0, 0.0, 0.0, 0.0, 0.0, 0.0, 1.6635917743815224E9, 0.0, 2022-09-19 17:49:34.381
1.0, -41024.011793614845, -33799.45859902604, -43296.692466341556, -40082.3104479683, -56406.48232775716, 187500.0, -38008.85087357174, -39805.30527893368, 0.778, -0.638, 0.212, 192.0, 24.0, 80.0, 236.0, 16.0, 6.0, 160.0, 0.0, 0.0, 0.0, 1.6635917743985472E9, 0.0, 2022-09-19 17:49:34.398
2.0, -40989.56775540921, -33754.79981360433, -43258.51568681189, -40047.64289231812, -56367.34442321592, 187500.0, -38007.44271367106, -39773.07406342913, 0.778, -0.638, 0.212, 192.0, 0.0, 0.0, 0.0, 0.0, 0.0, 0.0, 0.0, 0.0, 0.0, 1.6635917744016104E9, 0.0, 2022-09-19 17:49:34.401
3.0, -40994.03810430028, -33768.188508533065, -43256.2581606219, -40082.28809622385, -56391.37254850537, 187500.0, -37899.28262225183, -39819.76685759627, 0.778, -0.638, 0.212, 192.0, 0.0, 0.0, 0.0, 0.0, 0.0, 0.0, 0.0, 0.0, 0.0, 1.663591774405566E9, 0.0, 2022-09-19 17:49:34.405
4.0, -41000.83303461469, -33778.98440110498, -43254.47002106548, -40119.97313737549, -56416.898240673334, 187500.0, -37697.51342505377, -39863.66568370649, 0.778, -0.638, 0.212, 192.0, 0.0, 0.0, 0.0, 0.0, 0.0, 0.0, 0.0, 0.0, 0.0, 1.6635917744085965E9, 0.0, 2022-09-19 17:49:34.408
5.0, -41005.59395618367, -33775.13990105866, -43280.241582422444, -40099.40953247661, -56418.84284244095, 187500.0, -37747.000187277816, -39836.664776404476, 0.778, -0.638, 0.212, 192.0, 0.0, 0.0, 0.0, 0.0, 0.0, 0.0, 0.0, 0.0, 0.0, 1.6635917744114993E9, 0.0, 2022-09-19 17:49:34.411
6.0, -40990.68534263198, -33762.511165441414, -43285.293076669346, -40053.76727029887, -56389.785574649046, 187500.0, -38002.74884733544, -39784.361694379055, 0.778, -0.638, 0.212, 192.0, 0.0, 0.0, 0.0, 0.0, 0.0, 0.0, 0.0, 0.0, 0.0, 1.6635917744155653E9, 0.0, 2022-09-19 17:49:34.415
7.0, -40984.31509546222, -33770.557793445325, -43272.284361396356, -40062.37269191417, -56383.30356875701, 187500.0, -38015.77991435288, -39796.09636021809, 0.778, -0.638, 0.212, 192.0, 0.0, 0.0, 0.0, 0.0, 0.0, 0.0, 0.0, 0.0, 0.0, 1.6635917744195895E9, 0.0, 2022-09-19 17:49:34.419
8.0, -40994.32867697819, -33776.704523170534, -43263.343663614236, -40092.36873297319, -56401.184964321255, 187500.0, -37893.06883729325, -39832.753221124796, 0.782, -0.642, 0.214, 192.0, 24.0, 112.0, 235.0, 240.0, 6.0, 176.0, 0.0, 0.0, 0.0, 1.6635917744236176E9, 0.0, 2022-09-19 17:49:34.423
9.0, -40979.97885703789, -33760.3206944848, -43246.31163433929, -40104.14810230114, -56404.045987611535, 187500.0, -37671.67480846343, -39853.24977079032, 0.782, -0.642, 0.214, 192.0, 0.0, 0.0, 0.0, 0.0, 0.0, 0.0, 0.0, 0.0, 0.0, 1.6635917744275804E9, 0.0, 2022-09-19 17:49:34.427
10.0, -40996.36268572363, -33775.810453392325, -43272.44082360755, -40097.777855131375, -56409.812737681, 187500.0, -37740.786402319245, -39834.2507880033, 0.782, -0.642, 0.214, 192.0, 0.0, 0.0, 0.0, 0.0, 0.0, 0.0, 0.0, 0.0, 0.0, 1.6635917744316096E9, 0.0, 2022-09-19 17:49:34.431
11.0, -41009.10318006315, -33779.9231743721, -43285.04720748034, -40062.55150586981, -56386.94690310323, 187500.0, -38008.62735612719, -39785.412226368455, 0.782, -0.642, 0.214, 192.0, 0.0, 0.0, 0.0, 0.0, 0.0, 0.0, 0.0, 0.0, 0.0, 1.6635917744367173E9, 0.0, 2022-09-19 17:49:34.436
12.0, -41005.5269009503, -33777.19626154855, -43265.06474793729, -40060.18222095755, -56374.31816748597, 187500.0, -38011.06369627282, -39791.849528771585, 0.782, -0.642, 0.214, 192.0, 0.0, 0.0, 0.0, 0.0, 0.0, 0.0, 0.0, 0.0, 0.0, 1.6635917744395816E9, 0.0, 2022-09-19 17:49:34.439
13.0, -41001.79415962627, -33771.965953346014, -43246.69161399503, -40070.374616429166, -56374.92166458627, 187500.0, -37879.83660457571, -39807.54045337921, 0.782, -0.642, 0.214, 192.0, 0.0, 0.0, 0.0, 0.0, 0.0, 0.0, 0.0, 0.0, 0.0, 1.6635917744446132E9, 0.0, 2022-09-19 17:49:34.444
14.0, -40996.09446479016, -33781.35368601724, -43243.94234942703, -40111.188901804555, -56401.69905444373, 187500.0, -37683.29771558019, -39858.90476213751, 0.782, -0.642, 0.214, 192.0, 0.0, 0.0, 0.0, 0.0, 0.0, 0.0, 0.0, 0.0, 0.0, 1.6635917744476545E9, 0.0, 2022-09-19 17:49:34.447
15.0, -41021.50839823585, -33808.46635204153, -43288.2658586819, -40129.04794562435, -56433.39382808135, 187500.0, -37758.600742650124, -39865.878506407564, 0.782, -0.642, 0.214, 192.0, 0.0, 0.0, 0.0, 0.0, 0.0, 0.0, 0.0, 0.0, 0.0, 1.663591774451604E9, 0.0, 2022-09-19 17:49:34.451
16.0, -41015.00404059936, -33787.65687795364, -43295.37371341869, -40084.36680845819, -56405.29768530103, 187500.0, -38017.679812631584, -39805.46174114487, 0.782, -0.642, 0.214, 192.0, 0.0, 0.0, 0.0, 0.0, 0.0, 0.0, 0.0, 0.0, 0.0, 1.6635917744576292E9, 0.0, 2022-09-19 17:49:34.457
17.0, -40994.82041535621, -33751.53645891386, -43265.5117828264, -40069.458194906496, -56378.11796404338, 187500.0, -38004.17935898058, -39795.40345613998, 0.782, -0.642, 0.214, 192.0, 0.0, 0.0, 0.0, 0.0, 0.0, 0.0, 0.0, 0.0, 0.0, 1.6635917744606428E9, 0.0, 2022-09-19 17:49:34.460
18.0, -40980.49294716036, -33744.80858383281, -43248.07742215126, -40081.08110202326, -56377.53681868754, 187500.0, -37866.58202011371, -39811.09438074761, 0.774, -0.64, 0.216, 192.0, 24.0, 48.0, 236.0, 0.0, 6.0, 192.0, 0.0, 0.0, 0.0, 1.6635917744636445E9, 0.0, 2022-09-19 17:49:34.463
19.0, -40972.51337438982, -33753.235191492466, -43240.88016043665, -40108.685506425565, -56394.83706889595, 187500.0, -37668.3891020285, -39843.90674160799, 0.774, -0.64, 0.216, 192.0, 0.0, 0.0, 0.0, 0.0, 0.0, 0.0, 0.0, 0.0, 0.0, 1.6635917744676416E9, 0.0, 2022-09-19 17:49:34.467
20.0, -41024.72704943741, -33795.97172689101, -43293.63027735118, -40132.71363171502, -56430.890432702356, 187500.0, -37764.59101016414, -39856.78134641425, 0.774, -0.64, 0.216, 192.0, 0.0, 0.0, 0.0, 0.0, 0.0, 0.0, 0.0, 0.0, 0.0, 1.663591774470785E9, 0.0, 2022-09-19 17:49:34.470
21.0, -41033.086601863695, -33789.75794193243, -43301.721608844, -40096.25793650841, -56402.03433061056, 187500.0, -38025.25705400194, -39806.31110743417, 0.774, -0.64, 0.216, 192.0, 0.0, 0.0, 0.0, 0.0, 0.0, 0.0, 0.0, 0.0, 0.0, 1.663591774475666E9, 0.0, 2022-09-19 17:49:34.475
22.0, -40988.94190656447, -33756.43149094957, -43264.64006479264, -40071.067520507284, -56367.277367982555, 187500.0, -38006.995678781954, -39786.48511010231, 0.774, -0.64, 0.216, 192.0, 0.0, 0.0, 0.0, 0.0, 0.0, 0.0, 0.0, 0.0, 0.0, 1.663591774479682E9, 0.0, 2022-09-19 17:49:34.479
23.0, -40984.0245227843, -33761.55004042984, -43258.51568681189, -40086.087892781245, -56373.558208174494, 187500.0, -37873.53341263931, -39808.412171412965, 0.774, -0.64, 0.216, 192.0, 0.0, 0.0, 0.0, 0.0, 0.0, 0.0, 0.0, 0.0, 0.0, 1.6635917744836524E9, 0.0, 2022-09-19 17:49:34.483
24.0, -40981.90110706104, -33770.714255656516, -43258.5603903008, -40118.94495713055, -56396.982836363655, 187500.0, -37675.07227362064, -39847.572427698666, 0.774, -0.64, 0.216, 192.0, 0.0, 0.0, 0.0, 0.0, 0.0, 0.0, 0.0, 0.0, 0.0, 1.663591774487764E9, 0.0, 2022-09-19 17:49:34.487
25.0, -41019.89907263507, -33797.893976914165, -43300.04522800985, -40128.51150375742, -56421.88267968687, 187500.0, -37776.504489958825, -39844.353776497104, 0.774, -0.64, 0.216, 192.0, 0.0, 0.0, 0.0, 0.0, 0.0, 0.0, 0.0, 0.0, 0.0, 1.6635917744916925E9, 0.0, 2022-09-19 17:49:34.491
26.0, -41044.57539851373, -33807.2817095854, -43312.65161188264, -40109.80309364833, -56409.857441169916, 187500.0, -38042.46789723252, -39821.152665752496, 0.774, -0.64, 0.216, 192.0, 0.0, 0.0, 0.0, 0.0, 0.0, 0.0, 0.0, 0.0, 0.0, 1.6635917744957092E9, 0.0, 2022-09-19 17:49:34.495
27.0, -40981.61053438312, -33753.12343277019, -43255.69936701052, -40060.49514537992, -56354.84979806541, 187500.0, -37999.6196031117, -39774.8398512411, 0.774, -0.64, 0.216, 192.0, 0.0, 0.0, 0.0, 0.0, 0.0, 0.0, 0.0, 0.0, 0.0, 1.6635917744987092E9, 0.0, 2022-09-19 17:49:34.498
28.0, -40951.90506600202, -33732.738641826945, -43229.32430855326, -40050.32510165276, -56342.91396652627, 187500.0, -37850.756985039356, -39763.395758079976, 0.774, -0.634, 0.216, 192.0, 24.0, 48.0, 236.0, 48.0, 6.0, 192.0, 0.0, 0.0, 0.0, 1.6635917745027363E9, 0.0, 2022-09-19 17:49:34.502
29.0, -40975.128528491085, -33767.94263934406, -43241.7071749815, -40107.99260234745, -56391.193734549735, 187500.0, -37665.416320015946, -39839.79402062822, 0.774, -0.634, 0.216, 192.0, 0.0, 0.0, 0.0, 0.0, 0.0, 0.0, 0.0, 0.0, 0.0, 1.6635917745078373E9, 0.0, 2022-09-19 17:49:34.507
30.0, -41026.02345061582, -33809.852160197755, -43292.44563489505, -40135.14997186065, -56434.77963623758, 187500.0, -37772.68234165697, -39864.068015106684, 0.774, -0.634, 0.216, 192.0, 0.0, 0.0, 0.0, 0.0, 0.0, 0.0, 0.0, 0.0, 0.0, 1.6635917745117764E9, 0.0, 2022-09-19 17:49:34.511
31.0, -41025.01762211533, -33799.90563391514, -43295.4184169076, -40084.99265730294, -56400.693225943236, 187500.0, -38021.390202211165, -39800.11967422005, 0.774, -0.634, 0.216, 192.0, 0.0, 0.0, 0.0, 0.0, 0.0, 0.0, 0.0, 0.0, 0.0, 1.6635917745157733E9, 0.0, 2022-09-19 17:49:34.515
32.0, -40987.936078063976, -33762.175889274586, -43256.638140277646, -40052.627331331656, -56363.231702236146, 187500.0, -37995.66334434311, -39772.64938028448, 0.774, -0.634, 0.216, 192.0, 0.0, 0.0, 0.0, 0.0, 0.0, 0.0, 0.0, 0.0, 0.0, 1.6635917745197704E9, 0.0, 2022-09-19 17:49:34.519
33.0, -40971.90987728952, -33743.33336869876, -43239.71786972498, -40063.06559599228, -56366.0033185486, 187500.0, -37858.91537176554, -39792.11774970505, 0.774, -0.634, 0.216, 192.0, 0.0, 0.0, 0.0, 0.0, 0.0, 0.0, 0.0, 0.0, 0.0, 1.6635917745237384E9, 0.0, 2022-09-19 17:49:34.523
34.0, -40981.94581054996, -33765.23807826496, -43240.835456947745, -40105.2656895239, -56399.12860383137, 187500.0, -37661.75063392528, -39844.46553521938, 0.774, -0.634, 0.216, 192.0, 0.0, 0.0, 0.0, 0.0, 0.0, 0.0, 0.0, 0.0, 0.0, 1.663591774526737E9, 0.0, 2022-09-19 17:49:34.526
35.0, -41023.69886919247, -33795.68115421309, -43279.772195788886, -40111.546529715844, -56423.492005287655, 187500.0, -37769.62015266659, -39846.00780558679, 0.774, -0.634, 0.216, 192.0, 0.0, 0.0, 0.0, 0.0, 0.0, 0.0, 0.0, 0.0, 0.0, 1.6635917745317554E9, 0.0, 2022-09-19 17:49:34.531
36.0, -41014.19937779896, -33773.709389413525, -43278.90047775513, -40057.16473545608, -56384.3093972575, 187500.0, -38016.472818431, -39777.030322197716, 0.774, -0.634, 0.216, 192.0, 0.0, 0.0, 0.0, 0.0, 0.0, 0.0, 0.0, 0.0, 0.0, 1.663591774535787E9, 0.0, 2022-09-19 17:49:34.535
37.0, -40976.179060480485, -33749.72596761298, -43246.84807620622, -40042.59139807122, -56357.04026902202, 187500.0, -37979.033646468364, -39762.412281323945, 0.774, -0.634, 0.216, 192.0, 0.0, 0.0, 0.0, 0.0, 0.0, 0.0, 0.0, 0.0, 0.0, 1.6635917745397108E9, 0.0, 2022-09-19 17:49:34.539
38.0, -40973.40744416803, -33756.69971188303, -43234.77813420035, -40073.392101930636, -56363.231702236146, 187500.0, -37838.172952911016, -39807.987488268314, 0.774, -0.638, 0.216, 192.0, 24.0, 48.0, 236.0, 16.0, 6.0, 192.0, 0.0, 0.0, 0.0, 1.6635917745437903E9, 0.0, 2022-09-19 17:49:34.543
39.0, -40966.85838304262, -33771.0718835678, -43234.80048594481, -40112.15002681613, -56385.71755715818, 187500.0, -37643.198686027376, -39852.89214287903, 0.774, -0.638, 0.216, 192.0, 0.0, 0.0, 0.0, 0.0, 0.0, 0.0, 0.0, 0.0, 0.0, 1.6635917745477805E9, 0.0, 2022-09-19 17:49:34.547
40.0, -40998.888432847074, -33786.65104945315, -43277.20174517653, -40109.51252097041, -56405.87883065687, 187500.0, -37750.12943150156, -39837.4023839715, 0.774, -0.638, 0.216, 192.0, 0.0, 0.0, 0.0, 0.0, 0.0, 0.0, 0.0, 0.0, 0.0, 1.6635917745517955E9, 0.0, 2022-09-19 17:49:34.551
41.0, -41011.36070625314, -33778.112683071224, -43278.364035888204, -40066.530116382855, -56374.72049888617, 187500.0, -38014.10353351874, -39778.572592565135, 0.774, -0.638, 0.216, 192.0, 0.0, 0.0, 0.0, 0.0, 0.0, 0.0, 0.0, 0.0, 0.0, 1.6635917745548525E9, 0.0, 2022-09-19 17:49:34.554
42.0, -40993.85929034463, -33766.8697556102, -43251.6089977752, -40060.0034070019, -56355.20742597669, 187500.0, -37998.94905077804, -39776.471528586335, 0.774, -0.638, 0.216, 192.0, 0.0, 0.0, 0.0, 0.0, 0.0, 0.0, 0.0, 0.0, 0.0, 1.6635917745597863E9, 0.0, 2022-09-19 17:49:34.559
43.0, -40969.65235109954, -33758.13022352818, -43230.41954403157, -40071.84983156322, -56357.64376612232, 187500.0, -37847.35951988215, -39802.39955215449, 0.774, -0.638, 0.216, 192.0, 0.0, 0.0, 0.0, 0.0, 0.0, 0.0, 0.0, 0.0, 0.0, 1.6635917745638099E9, 0.0, 2022-09-19 17:49:34.563
44.0, -40975.39674942455, -33771.9212498571, -43233.615843488675, -40114.765180917406, -56388.39976649282, 187500.0, -37649.99361634179, -39859.91059063799, 0.774, -0.638, 0.216, 192.0, 0.0, 0.0, 0.0, 0.0, 0.0, 0.0, 0.0, 0.0, 0.0, 1.6635917745677955E9, 0.0, 2022-09-19 17:49:34.567
45.0, -41010.93602310849, -33783.767674418414, -43275.23479166446, -40110.630108193174, -56408.1140051024, 187500.0, -37762.735815374355, -39840.88925610653, 0.774, -0.638, 0.216, 192.0, 0.0, 0.0, 0.0, 0.0, 0.0, 0.0, 0.0, 0.0, 0.0, 1.66359177457187E9, 0.0, 2022-09-19 17:49:34.571
46.0, -40998.284935746786, -33765.48394745397, -43270.33975962875, -40058.01410174538, -56372.172400018266, 187500.0, -37998.70318158903, -39774.504575074265, 0.774, -0.638, 0.216, 192.0, 0.0, 0.0, 0.0, 0.0, 0.0, 0.0, 0.0, 0.0, 0.0, 1.663591774575846E9, 0.0, 2022-09-19 17:49:34.575
47.0, -40988.673685631, -33765.37218873169, -43248.70327099601, -40062.97618901446, -56365.13160051485, 187500.0, -37974.87622199967, -39787.2897729027, 0.774, -0.638, 0.216, 192.0, 0.0, 0.0, 0.0, 0.0, 0.0, 0.0, 0.0, 0.0, 0.0, 1.6635917745798452E9, 0.0, 2022-09-19 17:49:34.579
48.0, -40971.574601122695, -33757.25850549442, -43233.36997429967, -40073.12388099717, -56369.78076336155, 187500.0, -37841.21279015694, -39802.93599402142, 0.782, -0.644, 0.222, 192.0, 24.0, 112.0, 235.0, 224.0, 6.0, 240.0, 0.0, 0.0, 0.0, 1.663591774582814E9, 0.0, 2022-09-19 17:49:34.582
49.0, -40974.569734879704, -33775.0728458253, -43242.89181743763, -40112.44059949405, -56402.861345155405, 187500.0, -37659.15783156846, -39850.299340522215, 0.782, -0.644, 0.222, 192.0, 0.0, 0.0, 0.0, 0.0, 0.0, 0.0, 0.0, 0.0, 0.0, 1.6635917745880017E9, 0.0, 2022-09-19 17:49:34.588
50.0, -41001.54829043726, -33808.39929680816, -43279.213402177505, -40111.70299192703, -56420.16159536381, 187500.0, -37773.28583875726, -39842.92326485196, 0.782, -0.644, 0.222, 192.0, 0.0, 0.0, 0.0, 0.0, 0.0, 0.0, 0.0, 0.0, 0.0, 1.663591774591859E9, 0.0, 2022-09-19 17:49:34.591
51.0, -40984.225688484396, -33768.90376435564, -43269.959779973, -40055.823630788764, -56372.32886222946, 187500.0, -37999.55254787833, -39774.34811286308, 0.782, -0.644, 0.222, 192.0, 0.0, 0.0, 0.0, 0.0, 0.0, 0.0, 0.0, 0.0, 0.0, 1.6635917745959718E9, 0.0, 2022-09-19 17:49:34.595
52.0, -40966.29958943124, -33741.32171169778, -43239.360241813694, -40049.16281094108, -56350.222986963156, 187500.0, -37970.60703880871, -39770.50361281677, 0.782, -0.644, 0.222, 192.0, 0.0, 0.0, 0.0, 0.0, 0.0, 0.0, 0.0, 0.0, 0.0, 1.663591774599862E9, 0.0, 2022-09-19 17:49:34.599
53.0, -40991.53470892128, -33772.90472661313, -43242.17656161506, -40094.87212835218, -56380.39784197782, 187500.0, -37845.90665649255, -39825.24303498781, 0.782, -0.644, 0.222, 192.0, 0.0, 0.0, 0.0, 0.0, 0.0, 0.0, 0.0, 0.0, 0.0, 1.6635917746040545E9, 0.0, 2022-09-19 17:49:34.604
54.0, -40979.50947040433, -33774.11172081372, -43246.46809655048, -40131.79721019235, -56408.78455743606, 187500.0, -37646.70790990686, -39875.93679141245, 0.782, -0.644, 0.222, 192.0, 0.0, 0.0, 0.0, 0.0, 0.0, 0.0, 0.0, 0.0, 0.0, 1.663591774607047E9, 0.0, 2022-09-19 17:49:34.607
55.0, -40985.23151698489, -33765.01456082041, -43274.5642393308, -40103.52225345639, -56405.096519600935, 187500.0, -37758.3101699722, -39829.825142601156, 0.782, -0.644, 0.222, 192.0, 0.0, 0.0, 0.0, 0.0, 0.0, 0.0, 0.0, 0.0, 0.0, 1.6635917746109433E9, 0.0, 2022-09-19 17:49:34.610
56.0, -40988.11489201962, -33758.197278761545, -43276.84411726524, -40058.1035087232, -56375.07812679746, 187500.0, -38001.29598394585, -39770.48126107231, 0.782, -0.644, 0.222, 192.0, 0.0, 0.0, 0.0, 0.0, 0.0, 0.0, 0.0, 0.0, 0.0, 1.6635917746149535E9, 0.0, 2022-09-19 17:49:34.614
57.0, -40982.34814195015, -33749.74831935744, -43252.23484661995, -40061.635084347145, -56364.77397260356, 187500.0, -37971.74697777593, -39782.8417757561, 0.782, -0.644, 0.222, 192.0, 0.0, 0.0, 0.0, 0.0, 0.0, 0.0, 0.0, 0.0, 0.0, 1.6635917746199555E9, 0.0, 2022-09-19 17:49:34.619
58.0, -40981.230554727386, -33752.27406648089, -43238.26500633538, -40087.630163148664, -56377.6038739209, 187500.0, -37834.28374937579, -39818.22458722885, 0.784, -0.638, 0.224, 192.0, 24.0, 128.0, 236.0, 16.0, 7.0, 0.0, 0.0, 0.0, 0.0, 1.663591774623924E9, 0.0, 2022-09-19 17:49:34.623
59.0, -40977.989551781364, -33766.221555020995, -43236.70038422351, -40117.71561118551, -56399.016845109094, 187500.0, -37640.82940111511, -39858.27891329276, 0.784, -0.638, 0.224, 192.0, 0.0, 0.0, 0.0, 0.0, 0.0, 0.0, 0.0, 0.0, 0.0, 1.663591774627906E9, 0.0, 2022-09-19 17:49:34.627
60.0, -40992.965220566424, -33773.418816735604, -43266.763480515896, -40095.34151498575, -56401.96727537719, 187500.0, -37764.14397527504, -39821.68910761942, 0.784, -0.638, 0.224, 192.0, 0.0, 0.0, 0.0, 0.0, 0.0, 0.0, 0.0, 0.0, 0.0, 1.663591774631912E9, 0.0, 2022-09-19 17:49:34.631
61.0, -40991.11002577663, -33761.617095663205, -43268.28339913886, -40059.22109594597, -56373.44644945222, 187500.0, -38002.5700333798, -39777.27619138672, 0.784, -0.638, 0.224, 192.0, 0.0, 0.0, 0.0, 0.0, 0.0, 0.0, 0.0, 0.0, 0.0, 1.6635917746349669E9, 0.0, 2022-09-19 17:49:34.634
62.0, -40976.38022618058, -33745.23326697746, -43244.16586687158, -40058.01410174538, -56357.93433880024, 187500.0, -37965.957875962005, -39784.87578450153, 0.784, -0.638, 0.224, 192.0, 0.0, 0.0, 0.0, 0.0, 0.0, 0.0, 0.0, 0.0, 0.0, 1.6635917746389048E9, 0.0, 2022-09-19 17:49:34.638
63.0, -40959.750528305834, -33740.82997331977, -43229.19019808653, -40071.425148418566, -56359.49896091211, 187500.0, -37819.777467224296, -39804.5453196222, 0.784, -0.638, 0.224, 192.0, 0.0, 0.0, 0.0, 0.0, 0.0, 0.0, 0.0, 0.0, 0.0, 1.6635917746429389E9, 0.0, 2022-09-19 17:49:34.642
64.0, -40978.63775237057, -33777.15155805964, -43240.36607031418, -40119.61550946421, -56398.34629277543, 187500.0, -37641.25408425976, -39859.57531447116, 0.784, -0.638, 0.224, 192.0, 0.0, 0.0, 0.0, 0.0, 0.0, 0.0, 0.0, 0.0, 0.0, 1.6635917746479545E9, 0.0, 2022-09-19 17:49:34.647
65.0, -41002.30824974874, -33789.10974134323, -43279.6157335777, -40113.021744849895, -56414.461900527705, 187500.0, -37776.57154519219, -39836.105982793095, 0.784, -0.638, 0.224, 192.0, 0.0, 0.0, 0.0, 0.0, 0.0, 0.0, 0.0, 0.0, 0.0, 1.6635917746519809E9, 0.0, 2022-09-19 17:49:34.651
66.0, -40993.43460719998, -33763.20406951953, -43268.03752994985, -40065.6583983491, -56373.49115294113, 187500.0, -38001.9218327906, -39777.656171042465, 0.784, -0.638, 0.224, 192.0, 0.0, 0.0, 0.0, 0.0, 0.0, 0.0, 0.0, 0.0, 0.0, 1.663591774656056E9, 0.0, 2022-09-19 17:49:34.656
67.0, -40980.00120878234, -33756.520897927396, -43240.43312554755, -40071.17927922956, -56360.23656847913, 187500.0, -37963.14155616064, -39792.78830203871, 0.784, -0.638, 0.224, 192.0, 0.0, 0.0, 0.0, 0.0, 0.0, 0.0, 0.0, 0.0, 0.0, 1.6635917746599777E9, 0.0, 2022-09-19 17:49:34.659
68.0, -40978.79421458176, -33759.225459006484, -43228.56434924178, -40086.22200324798, -56364.416344692276, 187500.0, -37821.49855154736, -39818.559863395676, 0.774, -0.63, 0.222, 192.0, 24.0, 48.0, 236.0, 80.0, 6.0, 240.0, 0.0, 0.0, 0.0, 1.663591774662972E9, 0.0, 2022-09-19 17:49:34.662
69.0, -40967.10425223163, -33765.036912564865, -43232.52060801037, -40112.90998612762, -56383.214161779186, 187500.0, -37626.39017419698, -39847.32655850966, 0.774, -0.63, 0.222, 192.0, 0.0, 0.0, 0.0, 0.0, 0.0, 0.0, 0.0, 0.0, 0.0, 1.6635917746669612E9, 0.0, 2022-09-19 17:49:34.666
70.0, -40998.73197063589, -33787.053380853344, -43275.23479166446, -40106.80795989132, -56402.32490328848, 187500.0, -37766.490908442844, -39824.7512966098, 0.774, -0.63, 0.222, 192.0, 0.0, 0.0, 0.0, 0.0, 0.0, 0.0, 0.0, 0.0, 0.0, 1.6635917746710732E9, 0.0, 2022-09-19 17:49:34.671
71.0, -40988.003133297345, -33768.255563766426, -43268.03752994985, -40056.516534866874, -56361.600024890904, 187500.0, -38006.503940403934, -39767.62023778203, 0.774, -0.63, 0.222, 192.0, 0.0, 0.0, 0.0, 0.0, 0.0, 0.0, 0.0, 0.0, 0.0, 1.6635917746750197E9, 0.0, 2022-09-19 17:49:34.675
72.0, -40967.84185979865, -33750.68709262456, -43237.527398768354, -40057.32119766727, -56342.98102175964, 187500.0, -37965.9131724731, -39781.992409466795, 0.774, -0.63, 0.222, 192.0, 0.0, 0.0, 0.0, 0.0, 0.0, 0.0, 0.0, 0.0, 0.0, 1.6635917746800208E9, 0.0, 2022-09-19 17:49:34.680
73.0, -40958.834106783164, -33745.72500535548, -43223.51285499488, -40074.17441298657, -56349.12775148485, 187500.0, -37815.75415322234, -39810.53558713622, 0.774, -0.63, 0.222, 192.0, 0.0, 0.0, 0.0, 0.0, 0.0, 0.0, 0.0, 0.0, 0.0, 1.6635917746840858E9, 0.0, 2022-09-19 17:49:34.684
74.0, -40960.84576378414, -33760.94654332954, -43227.24559631891, -40109.33370701477, -56380.37549023337, 187500.0, -37627.530113164205, -39854.03208184625, 0.774, -0.63, 0.222, 192.0, 0.0, 0.0, 0.0, 0.0, 0.0, 0.0, 0.0, 0.0, 0.0, 1.6635917746870968E9, 0.0, 2022-09-19 17:49:34.687
75.0, -41000.6765724035, -33780.280802283385, -43269.825669506274, -40102.85170112273, -56398.43569975325, 187500.0, -37778.605553937625, -39829.93690132343, 0.774, -0.63, 0.222, 192.0, 0.0, 0.0, 0.0, 0.0, 0.0, 0.0, 0.0, 0.0, 0.0, 1.6635917746910431E9, 0.0, 2022-09-19 17:49:34.691
76.0, -40990.21595599842, -33769.10493005573, -43265.780003759864, -40061.568029113776, -56365.176304003755, 187500.0, -38007.77798983789, -39779.891345487995, 0.774, -0.63, 0.222, 192.0, 0.0, 0.0, 0.0, 0.0, 0.0, 0.0, 0.0, 0.0, 0.0, 1.663591774695008E9, 0.0, 2022-09-19 17:49:34.695
77.0, -40983.68924661747, -33769.55196494484, -43243.27179709337, -40070.240505962436, -56355.83327482144, 187500.0, -37965.64495153963, -39797.63863058551, 0.774, -0.63, 0.222, 192.0, 0.0, 0.0, 0.0, 0.0, 0.0, 0.0, 0.0, 0.0, 0.0, 1.6635917746990285E9, 0.0, 2022-09-19 17:49:34.699
78.0, -40959.83993528366, -33748.764842601406, -43216.18148281354, -40066.97715127196, -56344.277422938045, 187500.0, -37801.40433328204, -39804.098284733096, 0.774, -0.63, 0.222, 192.0, 0.0, 0.0, 0.0, 0.0, 0.0, 0.0, 0.0, 0.0, 0.0, 1.6635917747030232E9, 0.0, 2022-09-19 17:49:34.703
79.0, -40953.29087415825, -33750.284761224364, -43218.70722993699, -40095.27445975238, -56368.327899971955, 187500.0, -37612.93442403489, -39838.58702642763, 0.776, -0.634, 0.228, 192.0, 24.0, 64.0, 236.0, 48.0, 7.0, 32.0, 0.0, 0.0, 0.0, 1.66359177470824E9, 0.0, 2022-09-19 17:49:34.708
80.0, -40989.90303157605, -33772.54709870185, -43262.494297324934, -40092.681657395566, -56388.77974614856, 187500.0, -37780.43839698296, -39820.92914830794, 0.776, -0.634, 0.228, 192.0, 0.0, 0.0, 0.0, 0.0, 0.0, 0.0, 0.0, 0.0, 0.0, 1.6635917747120466E9, 0.0, 2022-09-19 17:49:34.712
81.0, -40983.68924661747, -33763.695807897544, -43258.67214902308, -40059.176392457055, -56359.29779521201, 187500.0, -38012.89653931815, -39778.75140652077, 0.776, -0.634, 0.228, 192.0, 0.0, 0.0, 0.0, 0.0, 0.0, 0.0, 0.0, 0.0, 0.0, 1.6635917747150173E9, 0.0, 2022-09-19 17:49:34.715
82.0, -40972.692188345456, -33759.04664505085, -43234.956948155996, -40069.61465711769, -56357.95669054469, 187500.0, -37971.210535909006, -39802.2430899433, 0.776, -0.634, 0.228, 192.0, 0.0, 0.0, 0.0, 0.0, 0.0, 0.0, 0.0, 0.0, 0.0, 1.6635917747190237E9, 0.0, 2022-09-19 17:49:34.719
83.0, -40969.38413016607, -33760.991246818456, -43228.31848005277, -40091.00527656142, -56376.77685937606, 187500.0, -37828.24877837286, -39832.48500019134, 0.776, -0.634, 0.228, 192.0, 0.0, 0.0, 0.0, 0.0, 0.0, 0.0, 0.0, 0.0, 0.0, 1.6635917747231915E9, 0.0, 2022-09-19 17:49:34.723
84.0, -40973.85447905713, -33771.22834577899, -43238.39911680212, -40118.07323909679, -56404.22480156718, 187500.0, -37645.635026173004, -39867.75605294181, 0.776, -0.634, 0.228, 192.0, 0.0, 0.0, 0.0, 0.0, 0.0, 0.0, 0.0, 0.0, 0.0, 1.663591774727152E9, 0.0, 2022-09-19 17:49:34.727
85.0, -40992.11585427712, -33774.51405221392, -43273.08902419675, -40093.64278240714, -56402.928400388766, 187500.0, -37793.2682983003, -39821.17501749695, 0.776, -0.634, 0.228, 192.0, 0.0, 0.0, 0.0, 0.0, 0.0, 0.0, 0.0, 0.0, 0.0, 1.6635917747311397E9, 0.0, 2022-09-19 17:49:34.731
86.0, -40979.598877382145, -33761.77355787439, -43269.15511717262, -40059.51166862389, -56374.2064087637, 187500.0, -38014.63997538567, -39783.35586587857, 0.776, -0.634, 0.228, 192.0, 0.0, 0.0, 0.0, 0.0, 0.0, 0.0, 0.0, 0.0, 0.0, 1.6635917747350485E9, 0.0, 2022-09-19 17:49:34.735
87.0, -40969.898220288545, -33764.120491042195, -43247.58568377324, -40076.811918832296, -56376.32982448695, 187500.0, -37969.84707949723, -39815.67648836094, 0.776, -0.634, 0.228, 192.0, 0.0, 0.0, 0.0, 0.0, 0.0, 0.0, 0.0, 0.0, 0.0, 1.6635917747401457E9, 0.0, 2022-09-19 17:49:34.740
88.0, -40953.13441194707, -33756.87852583868, -43234.398154544615, -40090.580593416766, -56378.877923354856, 187500.0, -37813.74249622136, -39832.23913100232, 0.776, -0.634, 0.228, 192.0, 0.0, 0.0, 0.0, 0.0, 0.0, 0.0, 0.0, 0.0, 0.0, 1.6635917747431412E9, 0.0, 2022-09-19 17:49:34.743
89.0, -40951.636845068555, -33757.772595616894, -43237.393288301624, -40112.999393105434, -56394.613551451395, 187500.0, -37622.4786189173, -39854.07678533516, 0.778, -0.63, 0.23, 192.0, 24.0, 80.0, 236.0, 80.0, 7.0, 48.0, 0.0, 0.0, 0.0, 1.6635917747470744E9, 0.0, 2022-09-19 17:49:34.747
90.0, -40981.699941360945, -33772.100063812744, -43278.431091121565, -40103.38814298966, -56403.59895272243, 187500.0, -37785.042856340755, -39823.812523342676, 0.778, -0.63, 0.23, 192.0, 0.0, 0.0, 0.0, 0.0, 0.0, 0.0, 0.0, 0.0, 0.0, 1.663591774751072E9, 0.0, 2022-09-19 17:49:34.751
91.0, -40985.11975826261, -33760.72302588499, -43272.17260267408, -40064.65256984861, -56365.44452493722, 187500.0, -38003.17353048009, -39777.70087453138, 0.778, -0.63, 0.23, 192.0, 0.0, 0.0, 0.0, 0.0, 0.0, 0.0, 0.0, 0.0, 0.0, 1.6635917747551749E9, 0.0, 2022-09-19 17:49:34.755
92.0, -40956.84480152665, -33743.73570009896, -43240.32136682527, -40058.25997093439, -56345.19384446071, 187500.0, -37945.550733274315, -39780.11486293255, 0.778, -0.63, 0.23, 192.0, 0.0, 0.0, 0.0, 0.0, 0.0, 0.0, 0.0, 0.0, 0.0, 1.6635917747591224E9, 0.0, 2022-09-19 17:49:34.759
93.0, -40952.79913578023, -33743.13220299866, -43228.36318354168, -40075.58257288725, -56354.693335854216, 187500.0, -37798.945641391954, -39806.82519755664, 0.778, -0.63, 0.23, 192.0, 0.0, 0.0, 0.0, 0.0, 0.0, 0.0, 0.0, 0.0, 0.0, 1.6635917747640972E9, 0.0, 2022-09-19 17:49:34.764
94.0, -40973.00511276783, -33768.881412611176, -43241.0589743923, -40121.44835250954, -56394.479440984665, 187500.0, -37628.62534864251, -39863.37511102857, 0.778, -0.63, 0.23, 192.0, 0.0, 0.0, 0.0, 0.0, 0.0, 0.0, 0.0, 0.0, 0.0, 1.663591774768139E9, 0.0, 2022-09-19 17:49:34.768
95.0, -41001.25771775934, -33792.39544777816, -43278.94518124404, -40113.6699454391, -56408.046949869036, 187500.0, -37799.68324895898, -39842.47622996286, 0.778, -0.63, 0.23, 192.0, 0.0, 0.0, 0.0, 0.0, 0.0, 0.0, 0.0, 0.0, 0.0, 1.6635917747711391E9, 0.0, 2022-09-19 17:49:34.771
96.0, -40989.679514131494, -33771.85419462373, -43263.38836710314, -40060.78571805784, -56364.7069173702, 187500.0, -38009.09674276075, -39779.91369723245, 0.778, -0.63, 0.23, 192.0, 0.0, 0.0, 0.0, 0.0, 0.0, 0.0, 0.0, 0.0, 0.0, 1.6635917747752955E9, 0.0, 2022-09-19 17:49:34.775
97.0, -40960.376377150584, -33747.60255188973, -43235.851017934205, -40053.18612494304, -56345.81969330546, 187500.0, -37947.785907719845, -39779.10903443206, 0.778, -0.63, 0.23, 192.0, 0.0, 0.0, 0.0, 0.0, 0.0, 0.0, 0.0, 0.0, 0.0, 1.6635917747791915E9, 0.0, 2022-09-19 17:49:34.779
98.0, -40953.62615032508, -33745.032101277364, -43224.63044221765, -40074.93437229805, -56359.11898125637, 187500.0, -37797.85040591364, -39811.36260168107, 0.778, -0.63, 0.23, 192.0, 0.0, 0.0, 0.0, 0.0, 0.0, 0.0, 0.0, 0.0, 0.0, 1.663591774783177E9, 0.0, 2022-09-19 17:49:34.783
99.0, -40961.60572309563, -33757.86200259471, -43231.537131254336, -40108.90902387012, -56389.07031882648, 187500.0, -37620.601072383055, -39852.84743939012, 0.78, -0.626, 0.222, 192.0, 24.0, 96.0, 236.0, 112.0, 6.0, 240.0, 0.0, 0.0, 0.0, 1.6635917747872012E9, 0.0, 2022-09-19 17:49:34.787
100.0, -40989.85832808713, -33778.13503481568, -43272.12789918517, -40096.14617778613, -56400.78263292106, 187500.0, -37789.0661703427, -39823.521950664755, 0.78, -0.626, 0.222, 192.0, 0.0, 0.0, 0.0, 0.0, 0.0, 0.0, 0.0, 0.0, 0.0, 1.6635917747911775E9, 0.0, 2022-09-19 17:49:34.791
101.0, -41000.20718576994, -33786.092255841766, -43279.816899277794, -40072.63214261915, -56383.79530713503, 187500.0, -38004.559338636325, -39791.80482528268, 0.78, -0.626, 0.222, 192.0, 0.0, 0.0, 0.0, 0.0, 0.0, 0.0, 0.0, 0.0, 0.0, 1.6635917747962177E9, 0.0, 2022-09-19 17:49:34.796
102.0, -40970.61347611112, -33760.141880529154, -43246.28928259484, -40068.16179372809, -56365.466876681676, 187500.0, -37947.204762364, -39795.202290439884, 0.78, -0.626, 0.222, 192.0, 0.0, 0.0, 0.0, 0.0, 0.0, 0.0, 0.0, 0.0, 0.0, 1.663591774799246E9, 0.0, 2022-09-19 17:49:34.799
103.0, -40950.943940990444, -33742.77457508738, -43225.993898629415, -40079.40472118911, -56364.37164120337, 187500.0, -37778.538498704256, -39814.73771509382, 0.78, -0.626, 0.222, 192.0, 0.0, 0.0, 0.0, 0.0, 0.0, 0.0, 0.0, 0.0, 0.0, 1.6635917748032267E9, 0.0, 2022-09-19 17:49:34.803
104.0, -40969.764109821816, -33755.44801419354, -43234.040526633325, -40110.40659074862, -56389.293836271034, 187500.0, -37599.12104596151, -39847.52772420976, 0.78, -0.626, 0.222, 192.0, 0.0, 0.0, 0.0, 0.0, 0.0, 0.0, 0.0, 0.0, 0.0, 1.6635917748072915E9, 0.0, 2022-09-19 17:49:34.807
105.0, -40992.56288916623, -33772.033008579376, -43273.78192827487, -40102.49407321144, -56401.07320559898, 187500.0, -37790.22846105438, -39829.08753503413, 0.78, -0.626, 0.222, 192.0, 0.0, 0.0, 0.0, 0.0, 0.0, 0.0, 0.0, 0.0, 0.0, 1.663591774811274E9, 0.0, 2022-09-19 17:49:34.811
106.0, -40976.961371536425, -33759.89601134015, -43262.40489034711, -40062.752671569906, -56364.483399925644, 187500.0, -37996.19978621004, -39783.177051922925, 0.78, -0.626, 0.222, 192.0, 0.0, 0.0, 0.0, 0.0, 0.0, 0.0, 0.0, 0.0, 0.0, 1.6635917748152742E9, 0.0, 2022-09-19 17:49:34.815
107.0, -40963.50562137432, -33754.911572326615, -43236.566273756776, -40059.176392457055, -56346.378486916845, 187500.0, -37936.74414595892, -39782.95353447837, 0.78, -0.626, 0.222, 192.0, 0.0, 0.0, 0.0, 0.0, 0.0, 0.0, 0.0, 0.0, 0.0, 1.6635917748192613E9, 0.0, 2022-09-19 17:49:34.819
108.0, -40964.712615574914, -33760.81243286281, -43230.620709731666, -40088.45717769351, -56360.1024580124, 187500.0, -37789.021466853796, -39828.618148400565, 0.78, -0.626, 0.222, 192.0, 0.0, 0.0, 0.0, 0.0, 0.0, 0.0, 0.0, 0.0, 0.0, 1.6635917748232422E9, 0.0, 2022-09-19 17:49:34.823
109.0, -40986.01382804082, -33779.096159827255, -43241.17073311457, -40125.65048046714, -56388.13154555936, 187500.0, -37625.45140092986, -39871.13116635456, 0.784, -0.63, 0.222, 192.0, 24.0, 128.0, 236.0, 80.0, 6.0, 240.0, 0.0, 0.0, 0.0, 1.663591774827292E9, 0.0, 2022-09-19 17:49:34.827
110.0, -40997.39086596857, -33783.7229709295, -43270.98796021795, -40102.58348018926, -56390.143202560335, 187500.0, -37804.757094950335, -39830.04866004571, 0.784, -0.63, 0.222, 192.0, 0.0, 0.0, 0.0, 0.0, 0.0, 0.0, 0.0, 0.0, 0.0, 1.6635917748313007E9, 0.0, 2022-09-19 17:49:34.831
111.0, -40973.56390637921, -33757.25850549442, -43254.22415187647, -40052.470869120465, -56347.697239839705, 187500.0, -37993.651687342135, -39770.92829596142, 0.784, -0.63, 0.222, 192.0, 0.0, 0.0, 0.0, 0.0, 0.0, 0.0, 0.0, 0.0, 0.0, 1.6635917748352444E9, 0.0, 2022-09-19 17:49:34.835
112.0, -40946.87592349958, -33740.80762157531, -43224.116352095174, -40045.139496939126, -56329.61467857536, 187500.0, -37921.72377368496, -39774.03518844071, 0.784, -0.63, 0.222, 192.0, 0.0, 0.0, 0.0, 0.0, 0.0, 0.0, 0.0, 0.0, 0.0, 1.6635917748392503E9, 0.0, 2022-09-19 17:49:34.839
113.0, -40948.19467642244, -33745.90381931112, -43218.528415981345, -40074.04030251984, -56345.30560318299, 187500.0, -37771.609457923114, -39813.30720344868, 0.784, -0.63, 0.222, 192.0, 0.0, 0.0, 0.0, 0.0, 0.0, 0.0, 0.0, 0.0, 0.0, 1.6635917748433123E9, 0.0, 2022-09-19 17:49:34.843
114.0, -40968.89239178805, -33767.02621782139, -43231.872407421164, -40113.40172450563, -56374.69814714172, 187500.0, -37606.407714653935, -39854.54617196872, 0.784, -0.63, 0.222, 192.0, 0.0, 0.0, 0.0, 0.0, 0.0, 0.0, 0.0, 0.0, 0.0, 1.6635917748474147E9, 0.0, 2022-09-19 17:49:34.847
115.0, -40983.33161870619, -33762.734682885966, -43261.82374499128, -40085.394988703134, -56371.121868028866, 187500.0, -37788.2168040534, -39807.83102605713, 0.784, -0.63, 0.222, 192.0, 0.0, 0.0, 0.0, 0.0, 0.0, 0.0, 0.0, 0.0, 0.0, 1.6635917748522453E9, 0.0, 2022-09-19 17:49:34.852
116.0, -40977.74368259236, -33744.205086732516, -43252.27955010886, -40039.68567129203, -56332.38629488782, 187500.0, -37991.46121638551, -39752.01872015223, 0.784, -0.63, 0.222, 192.0, 0.0, 0.0, 0.0, 0.0, 0.0, 0.0, 0.0, 0.0, 0.0, 1.6635917748552802E9, 0.0, 2022-09-19 17:49:34.855
117.0, -40952.91089450251, -33731.19637145953, -43222.03763986083, -40040.55738932579, -56319.01995170354, 187500.0, -37918.7509916724, -39764.84862146957, 0.784, -0.63, 0.222, 192.0, 0.0, 0.0, 0.0, 0.0, 0.0, 0.0, 0.0, 0.0, 0.0, 1.6635917748582902E9, 0.0, 2022-09-19 17:49:34.858
118.0, -40942.29381588624, -33734.68324359456, -43205.452645474994, -40067.26772394988, -56335.2473181781, 187500.0, -37759.7630333618, -39802.71247657687, 0.784, -0.63, 0.222, 192.0, 0.0, 0.0, 0.0, 0.0, 0.0, 0.0, 0.0, 0.0, 0.0, 1.6635917748633957E9, 0.0, 2022-09-19 17:49:34.863
119.0, -40963.460917885415, -33761.326522985284, -43222.68584045003, -40108.10436106972, -56374.117001785875, 187500.0, -37607.77117106571, -39845.22549453086, 0.784, -0.632, 0.22, 192.0, 24.0, 128.0, 236.0, 64.0, 6.0, 224.0, 0.0, 0.0, 0.0, 1.6635917748673675E9, 0.0, 2022-09-19 17:49:34.867
120.0, -40991.60176415465, -33771.20599403453, -43257.599265289224, -40083.517442168886, -56376.77685937606, 187500.0, -37795.95050763494, -39805.81936905615, 0.784, -0.632, 0.22, 192.0, 0.0, 0.0, 0.0, 0.0, 0.0, 0.0, 0.0, 0.0, 0.0, 1.663591774871284E9, 0.0, 2022-09-19 17:49:34.871
121.0, -40978.86126981512, -33748.25075247893, -43239.24848309142, -40036.534075323834, -56334.710876311176, 187500.0, -37982.744036047945, -39752.555162019155, 0.784, -0.632, 0.22, 192.0, 0.0, 0.0, 0.0, 0.0, 0.0, 0.0, 0.0, 0.0, 0.0, 1.6635917748753254E9, 0.0, 2022-09-19 17:49:34.875
122.0, -40970.099385988644, -33743.579237887774, -43215.22035780196, -40043.46311610498, -56329.07823670843, 187500.0, -37918.81804690576, -39767.12849940402, 0.784, -0.632, 0.22, 192.0, 0.0, 0.0, 0.0, 0.0, 0.0, 0.0, 0.0, 0.0, 0.0, 1.6635917748814E9, 0.0, 2022-09-19 17:49:34.881
123.0, -40947.41236536651, -33743.66864486559, -43204.60327918569, -40070.46402340699, -56346.42319040575, 187500.0, -37758.399576950025, -39805.03705800022, 0.784, -0.632, 0.22, 192.0, 0.0, 0.0, 0.0, 0.0, 0.0, 0.0, 0.0, 0.0, 0.0, 1.663591774884369E9, 0.0, 2022-09-19 17:49:34.884
124.0, -40953.35792939162, -33759.49367993995, -43225.569215484764, -40110.07131458179, -56383.6611966683, 187500.0, -37602.25029018525, -39841.85038111811, 0.784, -0.632, 0.22, 192.0, 0.0, 0.0, 0.0, 0.0, 0.0, 0.0, 0.0, 0.0, 0.0, 1.6635917748883576E9, 0.0, 2022-09-19 17:49:34.888
125.0, -40993.032275799786, -33778.336200515776, -43269.22217240598, -40095.43092196357, -56393.898295628824, 187500.0, -37811.93200492048, -39807.4957498903, 0.784, -0.632, 0.22, 192.0, 0.0, 0.0, 0.0, 0.0, 0.0, 0.0, 0.0, 0.0, 0.0, 1.6635917748913248E9, 0.0, 2022-09-19 17:49:34.891
126.0, -40987.75726410833, -33762.26529625241, -43253.21832337598, -40059.042281990325, -56361.30945221299, 187500.0, -38004.08995200276, -39768.87193547153, 0.784, -0.632, 0.22, 192.0, 0.0, 0.0, 0.0, 0.0, 0.0, 0.0, 0.0, 0.0, 0.0, 1.6635917748954177E9, 0.0, 2022-09-19 17:49:34.895
127.0, -40956.84480152665, -33730.74933657042, -43219.13191308164, -40046.86058126218, -56339.82942579144, 187500.0, -37925.85884640919, -39766.256781370255, 0.784, -0.632, 0.22, 192.0, 0.0, 0.0, 0.0, 0.0, 0.0, 0.0, 0.0, 0.0, 0.0, 1.6635917748993404E9, 0.0, 2022-09-19 17:49:34.899
128.0, -40944.77485952078, -33734.973816272475, -43207.24078503141, -40069.458194906496, -56352.793437575514, 187500.0, -37764.8145276087, -39799.82910154213, 0.784, -0.632, 0.22, 192.0, 0.0, 0.0, 0.0, 0.0, 0.0, 0.0, 0.0, 0.0, 0.0, 1.6635917749033656E9, 0.0, 2022-09-19 17:49:34.903
129.0, -40962.566848107206, -33760.34304622925, -43223.93753813953, -40110.33953551525, -56390.18790604924, 187500.0, -37614.90137754696, -39849.114698066085, 0.776, -0.638, 0.222, 192.0, 24.0, 64.0, 236.0, 16.0, 6.0, 240.0, 0.0, 0.0, 0.0, 1.6635917749083593E9, 0.0, 2022-09-19 17:49:34.908
130.0, -40994.75336012284, -33780.25845053893, -43262.33783511375, -40096.03441906386, -56396.848725896925, 187500.0, -37827.891150461575, -39817.82225582865, 0.776, -0.638, 0.222, 192.0, 0.0, 0.0, 0.0, 0.0, 0.0, 0.0, 0.0, 0.0, 0.0, 1.6635917749114137E9, 0.0, 2022-09-19 17:49:34.911
131.0, -40993.68047638899, -33774.469348725004, -43258.649797278624, -40063.46792739248, -56366.6068156489, 187500.0, -38026.82167611381, -39775.6892175304, 0.776, -0.638, 0.222, 192.0, 0.0, 0.0, 0.0, 0.0, 0.0, 0.0, 0.0, 0.0, 0.0, 1.6635917749143944E9, 0.0, 2022-09-19 17:49:34.914
132.0, -40967.84185979865, -33764.43341546457, -43228.78786668633, -40059.73518606844, -56345.953803772194, 187500.0, -37950.5575240323, -39783.55703157867, 0.776, -0.638, 0.222, 192.0, 0.0, 0.0, 0.0, 0.0, 0.0, 0.0, 0.0, 0.0, 0.0, 1.663591774919466E9, 0.0, 2022-09-19 17:49:34.919
133.0, -40962.58919985166, -33761.93002008558, -43216.94144212502, -40078.622410133175, -56352.77108583106, 187500.0, -37780.348990005135, -39809.90973829148, 0.776, -0.638, 0.222, 192.0, 0.0, 0.0, 0.0, 0.0, 0.0, 0.0, 0.0, 0.0, 0.0, 1.6635917749234087E9, 0.0, 2022-09-19 17:49:34.923
134.0, -40973.742720334856, -33767.65206666614, -43229.21254983098, -40105.466855224, -56379.34730998842, 187500.0, -37620.24344447177, -39836.374203726555, 0.776, -0.638, 0.222, 192.0, 0.0, 0.0, 0.0, 0.0, 0.0, 0.0, 0.0, 0.0, 0.0, 1.6635917749274228E9, 0.0, 2022-09-19 17:49:34.927
135.0, -40999.961316580935, -33775.0728458253, -43266.85288749372, -40081.99752354593, -56381.537780945044, 187500.0, -37824.33722309318, -39795.135235206515, 0.776, -0.638, 0.222, 192.0, 0.0, 0.0, 0.0, 0.0, 0.0, 0.0, 0.0, 0.0, 0.0, 1.6635917749314876E9, 0.0, 2022-09-19 17:49:34.931
136.0, -41001.66004915954, -33757.43731945006, -43255.07351816577, -40047.79935452931, -56352.167588730765, 187500.0, -38015.48934167497, -39756.91375218794, 0.776, -0.638, 0.222, 192.0, 0.0, 0.0, 0.0, 0.0, 0.0, 0.0, 0.0, 0.0, 0.0, 1.663591774935443E9, 0.0, 2022-09-19 17:49:34.935
137.0, -40971.216973211405, -33735.37614767267, -43226.68680270753, -40043.373709127154, -56339.29298392451, 187500.0, -37938.621692493165, -39763.619275524536, 0.776, -0.638, 0.222, 192.0, 0.0, 0.0, 0.0, 0.0, 0.0, 0.0, 0.0, 0.0, 0.0, 1.6635917749404356E9, 0.0, 2022-09-19 17:49:34.940
138.0, -40943.120830431086, -33737.231342462466, -43213.275756034345, -40066.26189544939, -56349.84300730741, 187500.0, -37772.36941723459, -39797.14689220749, 0.776, -0.638, 0.222, 192.0, 0.0, 0.0, 0.0, 0.0, 0.0, 0.0, 0.0, 0.0, 0.0, 1.66359177494346E9, 0.0, 2022-09-19 17:49:34.943
139.0, -40954.25199916983, -33756.92322932759, -43224.27281430636, -40104.215157534505, -56381.51542920058, 187500.0, -37623.86442707353, -39834.87663684805, 0.776, -0.634, 0.226, 192.0, 24.0, 64.0, 236.0, 48.0, 7.0, 16.0, 0.0, 0.0, 0.0, 1.66359177494847E9, 0.0, 2022-09-19 17:49:34.948
140.0, -40980.15767099353, -33751.24588623594, -43260.99673044643, -40085.97613405897, -56387.125717058865, 187500.0, -37836.854199988156, -39800.656116086975, 0.776, -0.634, 0.226, 192.0, 0.0, 0.0, 0.0, 0.0, 0.0, 0.0, 0.0, 0.0, 0.0, 1.6635917749514832E9, 0.0, 2022-09-19 17:49:34.951
141.0, -40968.266542943304, -33735.264388950396, -43245.10464013871, -40050.5039156084, -56350.15593172979, 187500.0, -38013.85766432973, -39757.71841498833, 0.776, -0.634, 0.226, 192.0, 0.0, 0.0, 0.0, 0.0, 0.0, 0.0, 0.0, 0.0, 0.0, 1.66359177495548E9, 0.0, 2022-09-19 17:49:34.955
142.0, -40944.14901067603, -33720.73575505445, -43220.54007298232, -40054.75074705491, -56343.4504083932, 187500.0, -37935.91713141408, -39764.58040053611, 0.776, -0.634, 0.226, 192.0, 0.0, 0.0, 0.0, 0.0, 0.0, 0.0, 0.0, 0.0, 0.0, 1.6635917749595072E9, 0.0, 2022-09-19 17:49:34.959
143.0, -40938.38226060656, -33722.90387426661, -43209.6994769215, -40083.293924724334, -56358.15785624479, 187500.0, -37766.20033576493, -39799.73969456431, 0.776, -0.634, 0.226, 192.0, 0.0, 0.0, 0.0, 0.0, 0.0, 0.0, 0.0, 0.0, 0.0, 1.6635917749645276E9, 0.0, 2022-09-19 17:49:34.964
144.0, -40952.15093519103, -33750.26240947991, -43223.73637243943, -40119.168474575104, -56393.6077229509, 187500.0, -37618.92469154891, -39841.626863673555, 0.776, -0.634, 0.226, 192.0, 0.0, 0.0, 0.0, 0.0, 0.0, 0.0, 0.0, 0.0, 0.0, 1.6635917749675205E9, 0.0, 2022-09-19 17:49:34.967
145.0, -40989.21012749793, -33771.63067717918, -43259.11918391218, -40097.487282453454, -56397.83220265296, 187500.0, -37836.071888932216, -39803.96417426636, 0.776, -0.634, 0.226, 192.0, 0.0, 0.0, 0.0, 0.0, 0.0, 0.0, 0.0, 0.0, 0.0, 1.6635917749704792E9, 0.0, 2022-09-19 17:49:34.970
146.0, -40998.86608110262, -33750.30711296882, -43243.472962793465, -40057.58941860073, -56359.029574278546, 187500.0, -38015.4222864416, -39761.384101079, 0.776, -0.634, 0.226, 192.0, 0.0, 0.0, 0.0, 0.0, 0.0, 0.0, 0.0, 0.0, 0.0, 1.663591774975514E9, 0.0, 2022-09-19 17:49:34.975
147.0, -40983.666894873015, -33734.52678138337, -43226.79856142981, -40064.2055349595, -56350.46885615216, 187500.0, -37941.974454161464, -39777.812633253656, 0.776, -0.634, 0.226, 192.0, 0.0, 0.0, 0.0, 0.0, 0.0, 0.0, 0.0, 0.0, 0.0, 1.6635917749795208E9, 0.0, 2022-09-19 17:49:34.979
148.0, -40933.84485648214, -33730.77168831488, -43213.65573569009, -40087.87603233767, -56364.416344692276, 187500.0, -37766.66972239849, -39809.395648169004, 0.776, -0.634, 0.226, 192.0, 0.0, 0.0, 0.0, 0.0, 0.0, 0.0, 0.0, 0.0, 0.0, 1.6635917749835143E9, 0.0, 2022-09-19 17:49:34.983
149.0, -40944.14901067603, -33750.03889203536, -43229.32430855326, -40123.19178857706, -56399.62034220938, 187500.0, -37624.62438638501, -39845.06903231967, 0.772, -0.634, 0.228, 192.0, 24.0, 32.0, 236.0, 48.0, 7.0, 32.0, 0.0, 0.0, 0.0, 1.6635917749875753E9, 0.0, 2022-09-19 17:49:34.987
150.0, -40980.85057507164, -33760.09717704024, -43264.237733392445, -40097.286116753356, -56396.60285670792, 187500.0, -37846.688967548485, -39804.52296787775, 0.772, -0.634, 0.228, 192.0, 0.0, 0.0, 0.0, 0.0, 0.0, 0.0, 0.0, 0.0, 0.0, 1.6635917749916072E9, 0.0, 2022-09-19 17:49:34.991
151.0, -40975.910839547025, -33748.764842601406, -43249.642044263135, -40057.857639534195, -56353.88867305383, 187500.0, -38017.45629518703, -39763.954551691364, 0.772, -0.634, 0.228, 192.0, 0.0, 0.0, 0.0, 0.0, 0.0, 0.0, 0.0, 0.0, 0.0, 1.6635917749955752E9, 0.0, 2022-09-19 17:49:34.995
152.0, -40952.6650253135, -33738.03600526285, -43224.94336664002, -40054.81780228827, -56334.50971061108, 187500.0, -37938.73345121544, -39768.7378250048, 0.772, -0.634, 0.228, 192.0, 0.0, 0.0, 0.0, 0.0, 0.0, 0.0, 0.0, 0.0, 0.0, 1.6635917749985957E9, 0.0, 2022-09-19 17:49:34.998
153.0, -40937.7117082729, -33739.86884830819, -43211.86759613366, -40076.6107531322, -56343.718629326664, 187500.0, -37769.57544917768, -39800.11967422005, 0.772, -0.634, 0.228, 192.0, 0.0, 0.0, 0.0, 0.0, 0.0, 0.0, 0.0, 0.0, 0.0, 1.6635917750025945E9, 0.0, 2022-09-19 17:49:35.002
154.0, -40951.793307279746, -33756.14091827165, -43227.8043899303, -40108.6184511922, -56370.22779825066, 187500.0, -37628.982976553794, -39834.34019498112, 0.772, -0.634, 0.228, 192.0, 0.0, 0.0, 0.0, 0.0, 0.0, 0.0, 0.0, 0.0, 0.0, 1.6635917750075436E9, 0.0, 2022-09-19 17:49:35.007
155.0, -40971.6193046116, -33758.10787178372, -43261.06378567979, -40075.537869398344, -56357.263786466574, 187500.0, -37854.62383683012, -39781.81359551115, 0.772, -0.634, 0.228, 192.0, 0.0, 0.0, 0.0, 0.0, 0.0, 0.0, 0.0, 0.0, 0.0, 1.663591775011556E9, 0.0, 2022-09-19 17:49:35.011
156.0, -40952.843839269146, -33732.33631042675, -43238.3544133132, -40030.454400831986, -56309.52046031004, 187500.0, -38014.48351317448, -39727.96824311832, 0.772, -0.634, 0.228, 192.0, 0.0, 0.0, 0.0, 0.0, 0.0, 0.0, 0.0, 0.0, 0.0, 1.6635917750155883E9, 0.0, 2022-09-19 17:49:35.015
157.0, -40937.37643210607, -33720.60164458772, -43211.398209500105, -40033.181313655536, -56301.85381196187, 187500.0, -37937.32529131476, -39738.76413569023, 0.772, -0.634, 0.228, 192.0, 0.0, 0.0, 0.0, 0.0, 0.0, 0.0, 0.0, 0.0, 0.0, 1.6635917750195477E9, 0.0, 2022-09-19 17:49:35.019
158.0, -40936.34825186113, -33730.03408074786, -43203.9997820854, -40067.37948267216, -56323.11032093887, 187500.0, -37770.53657418926, -39785.34517113509, 0.772, -0.634, 0.228, 192.0, 0.0, 0.0, 0.0, 0.0, 0.0, 0.0, 0.0, 0.0, 0.0, 1.6635917750236013E9, 0.0, 2022-09-19 17:49:35.023
159.0, -40951.167458435, -33751.93879031405, -43220.4506660045, -40098.895442354136, -56353.19576897571, 187500.0, -37630.07821203211, -39820.571520396654, 0.764, -0.634, 0.222, 192.0, 23.0, 224.0, 236.0, 48.0, 6.0, 240.0, 0.0, 0.0, 0.0, 1.6635917750266032E9, 0.0, 2022-09-19 17:49:35.026
160.0, -40976.24611571385, -33760.3206944848, -43251.92192219757, -40068.94410478403, -56346.1996729612, 187500.0, -37851.89692400658, -39773.118766918036, 0.764, -0.634, 0.222, 192.0, 0.0, 0.0, 0.0, 0.0, 0.0, 0.0, 0.0, 0.0, 0.0, 1.6635917750315762E9, 0.0, 2022-09-19 17:49:35.031
161.0, -40961.15868820652, -33738.70655759652, -43233.57113999977, -40034.231845644936, -56311.91209696676, 187500.0, -38009.43201892758, -39735.25491181075, 0.764, -0.634, 0.222, 192.0, 0.0, 0.0, 0.0, 0.0, 0.0, 0.0, 0.0, 0.0, 0.0, 1.6635917750346603E9, 0.0, 2022-09-19 17:49:35.034
162.0, -40938.091687928645, -33724.40144114512, -43208.246613531905, -40034.12008692266, -56302.45730906216, 187500.0, -37925.85884640919, -39745.15673460445, 0.764, -0.634, 0.222, 192.0, 0.0, 0.0, 0.0, 0.0, 0.0, 0.0, 0.0, 0.0, 0.0, 1.6635917750387037E9, 0.0, 2022-09-19 17:49:35.038
163.0, -40928.48043781286, -33726.68131907956, -43199.88706110562, -40060.852773291204, -56319.26582089256, 187500.0, -37752.47636466937, -39783.02058971174, 0.764, -0.634, 0.222, 192.0, 0.0, 0.0, 0.0, 0.0, 0.0, 0.0, 0.0, 0.0, 0.0, 1.6635917750426085E9, 0.0, 2022-09-19 17:49:35.042
164.0, -40948.61935956709, -33753.97279905949, -43221.881177649644, -40102.89640461164, -56362.807019091495, 187500.0, -37628.46888643133, -39829.44516294541, 0.764, -0.634, 0.222, 192.0, 0.0, 0.0, 0.0, 0.0, 0.0, 0.0, 0.0, 0.0, 0.0, 1.663591775046606E9, 0.0, 2022-09-19 17:49:35.046
165.0, -40971.10521448913, -33758.621961906196, -43254.44766932102, -40074.73320659795, -56362.62820513585, 187500.0, -37862.87163053413, -39785.7922060242, 0.764, -0.634, 0.222, 192.0, 0.0, 0.0, 0.0, 0.0, 0.0, 0.0, 0.0, 0.0, 0.0, 1.6635917750517044E9, 0.0, 2022-09-19 17:49:35.051
166.0, -40945.89244674354, -33729.028252247364, -43230.44189577602, -40031.77315375485, -56326.28426865152, 187500.0, -38009.18614973857, -39741.55810374714, 0.764, -0.634, 0.222, 192.0, 0.0, 0.0, 0.0, 0.0, 0.0, 0.0, 0.0, 0.0, 0.0, 1.6635917750556996E9, 0.0, 2022-09-19 17:49:35.055
167.0, -40923.965385432886, -33717.76297304189, -43207.24078503141, -40035.19297065651, -56325.23373666212, 187500.0, -37925.07653535325, -39753.96332191984, 0.764, -0.634, 0.222, 192.0, 0.0, 0.0, 0.0, 0.0, 0.0, 0.0, 0.0, 0.0, 0.0, 1.6635917750597348E9, 0.0, 2022-09-19 17:49:35.059
168.0, -40923.116019143585, -33726.234284190454, -43201.71990415095, -40066.954799527506, -56348.77012357356, 187500.0, -37755.672664126476, -39794.75525555077, 0.764, -0.634, 0.222, 192.0, 0.0, 0.0, 0.0, 0.0, 0.0, 0.0, 0.0, 0.0, 0.0, 1.6635917750627236E9, 0.0, 2022-09-19 17:49:35.062
169.0, -40935.074202427175, -33749.83772633526, -43224.94336664002, -40105.109227312714, -56389.74087116014, 187500.0, -37633.609787656045, -39833.42377345845, 0.776, -0.64, 0.222, 192.0, 24.0, 64.0, 236.0, 0.0, 6.0, 240.0, 0.0, 0.0, 0.0, 1.6635917750667102E9, 0.0, 2022-09-19 17:49:35.066
170.0, -40963.84089754116, -33761.77355787439, -43258.89566646763, -40081.908116568105, -56391.37254850537, 187500.0, -37872.773453327834, -39792.29656366069, 0.776, -0.64, 0.222, 192.0, 0.0, 0.0, 0.0, 0.0, 0.0, 0.0, 0.0, 0.0, 0.0, 1.663591775070743E9, 0.0, 2022-09-19 17:49:35.070
171.0, -40952.32974914667, -33738.48304015196, -43236.74508771242, -40044.31248239428, -56353.75456258709, 187500.0, -38022.70895513403, -39753.69510098638, 0.776, -0.64, 0.222, 192.0, 0.0, 0.0, 0.0, 0.0, 0.0, 0.0, 0.0, 0.0, 0.0, 1.6635917750747292E9, 0.0, 2022-09-19 17:49:35.074
172.0, -40925.12767614456, -33717.74062129744, -43208.179558298536, -40034.52241832286, -56336.923699012244, 187500.0, -37929.16690458857, -39750.744670718275, 0.776, -0.64, 0.222, 192.0, 0.0, 0.0, 0.0, 0.0, 0.0, 0.0, 0.0, 0.0, 0.0, 1.663591775079678E9, 0.0, 2022-09-19 17:49:35.079
173.0, -40926.73700174534, -33725.13904871214, -43202.47986346243, -40063.937314026036, -56354.827446320945, 187500.0, -37753.638655381044, -39789.81552002615, 0.776, -0.64, 0.222, 192.0, 0.0, 0.0, 0.0, 0.0, 0.0, 0.0, 0.0, 0.0, 0.0, 1.663591775083679E9, 0.0, 2022-09-19 17:49:35.083
174.0, -40946.38418512156, -33750.418871691094, -43226.150360840606, -40104.639840679156, -56393.808888651, 187500.0, -37636.67197664642, -39831.09919203511, 0.776, -0.64, 0.222, 192.0, 0.0, 0.0, 0.0, 0.0, 0.0, 0.0, 0.0, 0.0, 0.0, 1.6635917750878625E9, 0.0, 2022-09-19 17:49:35.087
175.0, -40962.32097891819, -33759.33721772876, -43262.82957349176, -40080.164680500595, -56393.25009503962, 187500.0, -37876.17091848504, -39786.596868824585, 0.776, -0.64, 0.222, 192.0, 0.0, 0.0, 0.0, 0.0, 0.0, 0.0, 0.0, 0.0, 0.0, 1.6635917750907354E9, 0.0, 2022-09-19 17:49:35.090
176.0, -40942.51733333079, -33736.650197106625, -43240.94721567002, -40038.54573232481, -56353.53104514254, 187500.0, -38017.7245161205, -39742.60863573654, 0.776, -0.64, 0.222, 192.0, 0.0, 0.0, 0.0, 0.0, 0.0, 0.0, 0.0, 0.0, 0.0, 1.6635917750947745E9, 0.0, 2022-09-19 17:49:35.094
177.0, -40928.61454827959, -33726.211932446, -43216.002668857895, -40041.987900970926, -56343.785684560025, 187500.0, -37928.98809063293, -39752.130478874504, 0.776, -0.64, 0.222, 192.0, 0.0, 0.0, 0.0, 0.0, 0.0, 0.0, 0.0, 0.0, 0.0, 1.6635917750987797E9, 0.0, 2022-09-19 17:49:35.098
178.0, -40927.47460931237, -33732.49277263794, -43208.89481412111, -40071.69336935203, -56362.22587373565, 187500.0, -37750.95644604641, -39789.480243859325, 0.776, -0.64, 0.222, 192.0, 0.0, 0.0, 0.0, 0.0, 0.0, 0.0, 0.0, 0.0, 0.0, 1.6635917751027389E9, 0.0, 2022-09-19 17:49:35.102
179.0, -40938.53872281775, -33765.70746489852, -43227.58087248574, -40106.47268372449, -56401.83316491046, 187500.0, -37639.68946214789, -39825.98064255484, 0.786, -0.646, 0.222, 192.0, 24.0, 144.0, 235.0, 208.0, 6.0, 240.0, 0.0, 0.0, 0.0, 1.6635917751087651E9, 0.0, 2022-09-19 17:49:35.108
180.0, -40962.07510972919, -33773.999962091446, -43260.750861257424, -40084.36680845819, -56403.59895272243, 187500.0, -37894.27583149384, -39791.33543864911, 0.786, -0.646, 0.222, 192.0, 0.0, 0.0, 0.0, 0.0, 0.0, 0.0, 0.0, 0.0, 0.0, 1.6635917751127417E9, 0.0, 2022-09-19 17:49:35.112
181.0, -40953.69320555845, -33747.267275722894, -43238.60028250221, -40050.235694674935, -56365.39982144831, 187500.0, -38041.08208907629, -39753.67274924192, 0.786, -0.646, 0.222, 192.0, 0.0, 0.0, 0.0, 0.0, 0.0, 0.0, 0.0, 0.0, 0.0, 1.66359177511674E9, 0.0, 2022-09-19 17:49:35.116
182.0, -40947.85940025561, -33725.38491790115, -43215.64504094661, -40051.80031678681, -56355.76621958807, 187500.0, -37963.298018371825, -39762.45698481286, 0.786, -0.646, 0.222, 192.0, 0.0, 0.0, 0.0, 0.0, 0.0, 0.0, 0.0, 0.0, 0.0, 1.6635917751197207E9, 0.0, 2022-09-19 17:49:35.119
183.0, -40904.96640264588, -33698.04873443231, -43203.75391289639, -40071.134575740645, -56363.857551080895, 187500.0, -37789.55790872072, -39793.41415088346, 0.786, -0.646, 0.222, 192.0, 0.0, 0.0, 0.0, 0.0, 0.0, 0.0, 0.0, 0.0, 0.0, 1.6635917751227436E9, 0.0, 2022-09-19 17:49:35.122
184.0, -40911.157835859995, -33722.27802542186, -43225.07747710675, -40101.80116913333, -56396.62520845237, 187500.0, -37683.454177791384, -39828.43933444492, 0.786, -0.646, 0.222, 192.0, 0.0, 0.0, 0.0, 0.0, 0.0, 0.0, 0.0, 0.0, 0.0, 1.6635917751268392E9, 0.0, 2022-09-19 17:49:35.126
185.0, -40944.10430718712, -33737.499563395926, -43255.96758794398, -40073.235639719445, -56390.07614732697, 187500.0, -37939.247541337914, -39783.802900767674, 0.786, -0.646, 0.222, 192.0, 0.0, 0.0, 0.0, 0.0, 0.0, 0.0, 0.0, 0.0, 0.0, 1.6635917751307895E9, 0.0, 2022-09-19 17:49:35.130
186.0, -40938.225798395375, -33719.84168527623, -43234.57696850025, -40038.210456157976, -56353.352231186895, 187500.0, -38083.99743843048, -39746.699004971866, 0.786, -0.646, 0.222, 192.0, 0.0, 0.0, 0.0, 0.0, 0.0, 0.0, 0.0, 0.0, 0.0, 1.6635917751357656E9, 0.0, 2022-09-19 17:49:35.135
187.0, -40932.32493785917, -33719.10407770921, -43212.76166591188, -40044.24542716091, -56345.10443748289, 187500.0, -37997.00444901043, -39762.211115623846, 0.786, -0.646, 0.222, 192.0, 0.0, 0.0, 0.0, 0.0, 0.0, 0.0, 0.0, 0.0, 0.0, 1.6635917751397688E9, 0.0, 2022-09-19 17:49:35.139
188.0, -40915.76229521779, -33717.517103852886, -43201.541090195315, -40070.709892595994, -56351.407629419286, 187500.0, -37817.34112707867, -39796.677505573934, 0.786, -0.646, 0.222, 192.0, 0.0, 0.0, 0.0, 0.0, 0.0, 0.0, 0.0, 0.0, 0.0, 1.6635917751438513E9, 0.0, 2022-09-19 17:49:35.143
189.0, -40915.784646962245, -33730.212894703494, -43218.57311947025, -40097.10730279771, -56375.391051219834, 187500.0, -37708.84575949261, -39820.07978201864, 0.786, -0.646, 0.222, 192.0, 0.0, 0.0, 0.0, 0.0, 0.0, 0.0, 0.0, 0.0, 0.0, 1.6635917751467888E9, 0.0, 2022-09-19 17:49:35.146
190.0, -40948.217028166895, -33742.953389043025, -43250.402003574614, -40066.172488471566, -56369.46783893918, 187500.0, -37959.16294564759, -39774.504575074265, 0.776, -0.634, 0.226, 192.0, 24.0, 64.0, 236.0, 48.0, 7.0, 16.0, 0.0, 0.0, 0.0, 1.663591775150814E9, 0.0, 2022-09-19 17:49:35.150
191.0, -40932.52610355927, -33723.21679868898, -43226.79856142981, -40029.38151709813, -56327.044227963, 187500.0, -38087.48431056551, -39737.06540311163, 0.776, -0.634, 0.226, 192.0, 0.0, 0.0, 0.0, 0.0, 0.0, 0.0, 0.0, 0.0, 0.0, 1.6635917751548083E9, 0.0, 2022-09-19 17:49:35.154
192.0, -40912.72245797187, -33711.59389157223, -43202.47986346243, -40028.82272348675, -56313.230849889624, 187500.0, -37984.465120371, -39744.10620261505, 0.776, -0.634, 0.226, 192.0, 0.0, 0.0, 0.0, 0.0, 0.0, 0.0, 0.0, 0.0, 0.0, 1.6635917751589012E9, 0.0, 2022-09-19 17:49:35.158
193.0, -40907.42509453596, -33717.69591780852, -43193.20388951348, -40053.811973787786, -56321.81391976046, 187500.0, -37794.96703087891, -39779.08668268761, 0.776, -0.634, 0.226, 192.0, 0.0, 0.0, 0.0, 0.0, 0.0, 0.0, 0.0, 0.0, 0.0, 1.6635917751629927E9, 0.0, 2022-09-19 17:49:35.162
194.0, -40930.7603157473, -33740.67351110858, -43218.729581681444, -40089.0606747938, -56358.96251904518, 187500.0, -37691.9478406844, -39816.25763371678, 0.776, -0.634, 0.226, 192.0, 0.0, 0.0, 0.0, 0.0, 0.0, 0.0, 0.0, 0.0, 0.0, 1.6635917751680112E9, 0.0, 2022-09-19 17:49:35.168
195.0, -40953.55909509172, -33748.63073213467, -43248.99384367393, -40065.14430822663, -56355.27448121006, 187500.0, -37934.66543372458, -39771.15181340597, 0.776, -0.634, 0.226, 192.0, 0.0, 0.0, 0.0, 0.0, 0.0, 0.0, 0.0, 0.0, 0.0, 1.663591775171982E9, 0.0, 2022-09-19 17:49:35.171
196.0, -40934.3589466046, -33728.335348169254, -43227.35735504119, -40032.73427876643, -56318.058826691966, 187500.0, -38045.3289205228, -39731.76803967572, 0.776, -0.634, 0.226, 192.0, 0.0, 0.0, 0.0, 0.0, 0.0, 0.0, 0.0, 0.0, 0.0, 1.6635917751749802E9, 0.0, 2022-09-19 17:49:35.174
197.0, -40931.85555122561, -33725.3625661567, -43210.772360655355, -40040.78090677034, -56317.656495291776, 187500.0, -37947.785907719845, -39746.52019101622, 0.776, -0.634, 0.226, 192.0, 0.0, 0.0, 0.0, 0.0, 0.0, 0.0, 0.0, 0.0, 0.0, 1.6635917751789217E9, 0.0, 2022-09-19 17:49:35.178
198.0, -40924.948862188925, -33736.13610698415, -43205.251479774895, -40082.42220669058, -56346.53494912803, 187500.0, -37761.79704210723, -39796.56574685166, 0.776, -0.634, 0.226, 192.0, 0.0, 0.0, 0.0, 0.0, 0.0, 0.0, 0.0, 0.0, 0.0, 1.6635917751829069E9, 0.0, 2022-09-19 17:49:35.182
199.0, -40932.95078670392, -33753.77163335939, -43225.68097420704, -40109.870148881695, -56377.000376820615, 187500.0, -37652.49701172078, -39825.42184894346, 0.776, -0.634, 0.226, 192.0, 0.0, 0.0, 0.0, 0.0, 0.0, 0.0, 0.0, 0.0, 0.0, 1.663591775186909E9, 0.0, 2022-09-19 17:49:35.186
200.0, -40965.09259523065, -33759.0689967953, -43256.906361211106, -40075.69433160953, -56367.567940660476, 187500.0, -37905.697572910496, -39774.25870588526, 0.776, -0.626, 0.222, 192.0, 24.0, 64.0, 236.0, 112.0, 6.0, 240.0, 0.0, 0.0, 0.0, 1.6635917751909869E9, 0.0, 2022-09-19 17:49:35.190
201.0, -40954.9672549924, -33739.55592388582, -43235.24752083392, -40044.31248239428, -56332.98979198811, 187500.0, -38026.844027858264, -39740.64168222448, 0.776, -0.626, 0.222, 192.0, 0.0, 0.0, 0.0, 0.0, 0.0, 0.0, 0.0, 0.0, 0.0, 1.6635917751958983E9, 0.0, 2022-09-19 17:49:35.195
202.0, -40926.91581570099, -33727.53068536886, -43215.06389559077, -40050.43686037503, -56331.849853020896, 187500.0, -37931.625596478654, -39754.72328123132, 0.776, -0.626, 0.222, 192.0, 0.0, 0.0, 0.0, 0.0, 0.0, 0.0, 0.0, 0.0, 0.0, 1.6635917752000084E9, 0.0, 2022-09-19 17:49:35.200
203.0, -40916.119923129074, -33733.18567671605, -43203.82096812975, -40080.164680500595, -56351.36292593038, 187500.0, -37748.676568111965, -39795.694028817896, 0.776, -0.626, 0.222, 192.0, 0.0, 0.0, 0.0, 0.0, 0.0, 0.0, 0.0, 0.0, 0.0, 1.663591775202972E9, 0.0, 2022-09-19 17:49:35.202
204.0, -40949.64753981204, -33760.141880529154, -43232.788828943834, -40114.496959983946, -56390.52318221607, 187500.0, -37659.31429377965, -39837.11181129358, 0.776, -0.626, 0.222, 192.0, 0.0, 0.0, 0.0, 0.0, 0.0, 0.0, 0.0, 0.0, 0.0, 1.6635917752070477E9, 0.0, 2022-09-19 17:49:35.207
205.0, -40956.64363582655, -33756.20797350502, -43261.62257929118, -40080.03057003386, -56381.1578012893, 187500.0, -37910.81612239077, -39788.36265663656, 0.776, -0.626, 0.222, 192.0, 0.0, 0.0, 0.0, 0.0, 0.0, 0.0, 0.0, 0.0, 0.0, 1.6635917752109957E9, 0.0, 2022-09-19 17:49:35.210
206.0, -40939.45514434041, -33731.844572048736, -43235.024003389364, -40045.09479345021, -56346.66905959476, 187500.0, -38023.491266189965, -39750.744670718275, 0.776, -0.626, 0.222, 192.0, 0.0, 0.0, 0.0, 0.0, 0.0, 0.0, 0.0, 0.0, 0.0, 1.6635917752149613E9, 0.0, 2022-09-19 17:49:35.214
207.0, -40921.84196970963, -33723.55207485582, -43213.432218245536, -40051.845020275716, -56344.344478171406, 187500.0, -37927.24465456542, -39771.4870895728, 0.776, -0.626, 0.222, 192.0, 0.0, 0.0, 0.0, 0.0, 0.0, 0.0, 0.0, 0.0, 0.0, 1.6635917752189367E9, 0.0, 2022-09-19 17:49:35.218
208.0, -40919.6067952641, -33727.374223157676, -43202.83749137372, -40077.19189848803, -56353.77691433155, 187500.0, -37729.29760566921, -39808.278060946235, 0.776, -0.626, 0.222, 192.0, 0.0, 0.0, 0.0, 0.0, 0.0, 0.0, 0.0, 0.0, 0.0, 1.663591775224036E9, 0.0, 2022-09-19 17:49:35.224
209.0, -40947.591179322146, -33754.50924092642, -43229.704288208995, -40109.49016922595, -56386.72338565867, 187500.0, -37636.69432839088, -39839.77166888376, 0.776, -0.626, 0.222, 192.0, 0.0, 0.0, 0.0, 0.0, 0.0, 0.0, 0.0, 0.0, 0.0, 1.6635917752279825E9, 0.0, 2022-09-19 17:49:35.227
210.0, -40967.95361852093, -33754.978627559976, -43251.519590797376, -40071.000465273915, -56372.19475176272, 187500.0, -37902.83654962022, -39784.58521182361, 0.774, -0.63, 0.222, 192.0, 24.0, 48.0, 236.0, 80.0, 6.0, 240.0, 0.0, 0.0, 0.0, 1.6635917752309268E9, 0.0, 2022-09-19 17:49:35.230
211.0, -40941.75737401931, -33726.05547023481, -43222.48467474993, -40034.61182530068, -56329.547623342, 187500.0, -38018.55153066535, -39747.034281138694, 0.774, -0.63, 0.222, 192.0, 0.0, 0.0, 0.0, 0.0, 0.0, 0.0, 0.0, 0.0, 0.0, 1.663591775235076E9, 0.0, 2022-09-19 17:49:35.235
212.0, -40932.0120134368, -33717.919435253076, -43206.45847397548, -40041.22794165945, -56322.52917558303, 187500.0, -37929.72569819995, -39761.87583945702, 0.774, -0.63, 0.222, 192.0, 0.0, 0.0, 0.0, 0.0, 0.0, 0.0, 0.0, 0.0, 0.0, 1.663591775238978E9, 0.0, 2022-09-19 17:49:35.238
213.0, -40932.32493785917, -33728.38005165816, -43195.70728489248, -40069.07821525076, -56340.567033358464, 187500.0, -37740.07114649667, -39803.45008414389, 0.774, -0.63, 0.222, 192.0, 0.0, 0.0, 0.0, 0.0, 0.0, 0.0, 0.0, 0.0, 0.0, 1.6635917752430537E9, 0.0, 2022-09-19 17:49:35.243
214.0, -40951.97212123539, -33753.078729281275, -43218.036677603326, -40098.44840746503, -56377.17919077625, 187500.0, -37650.038319830695, -39834.31784323667, 0.774, -0.63, 0.222, 192.0, 0.0, 0.0, 0.0, 0.0, 0.0, 0.0, 0.0, 0.0, 0.0, 1.6635917752469862E9, 0.0, 2022-09-19 17:49:35.246
215.0, -40959.70582481693, -33752.63169439217, -43241.61776800368, -40057.32119766727, -56361.1529900018, 187500.0, -37902.30010775329, -39777.92439197593, 0.774, -0.63, 0.222, 192.0, 0.0, 0.0, 0.0, 0.0, 0.0, 0.0, 0.0, 0.0, 0.0, 1.663591775252138E9, 0.0, 2022-09-19 17:49:35.252
216.0, -40939.835123996156, -33730.88344703716, -43220.495369493416, -40026.2969763633, -56331.827501276435, 187500.0, -38002.41357116861, -39746.38608054949, 0.774, -0.63, 0.222, 192.0, 0.0, 0.0, 0.0, 0.0, 0.0, 0.0, 0.0, 0.0, 0.0, 1.6635917752559917E9, 0.0, 2022-09-19 17:49:35.255
217.0, -40929.79919073572, -33724.848476034225, -43201.51873845085, -40035.79646775681, -56330.88872800931, 187500.0, -37908.58094794524, -39762.568743535136, 0.774, -0.63, 0.222, 192.0, 0.0, 0.0, 0.0, 0.0, 0.0, 0.0, 0.0, 0.0, 0.0, 1.663591775259026E9, 0.0, 2022-09-19 17:49:35.259
218.0, -40925.12767614456, -33730.05643249231, -43190.25345924538, -40063.3561686702, -56348.43484740673, 187500.0, -37723.016765477274, -39801.52783412073, 0.774, -0.63, 0.222, 192.0, 0.0, 0.0, 0.0, 0.0, 0.0, 0.0, 0.0, 0.0, 0.0, 1.6635917752630095E9, 0.0, 2022-09-19 17:49:35.263
219.0, -40936.23649313885, -33746.797889089336, -43217.5002357364, -40088.054846293315, -56381.06839431148, 187500.0, -37639.44359295888, -39825.93593906593, 0.774, -0.63, 0.222, 192.0, 0.0, 0.0, 0.0, 0.0, 0.0, 0.0, 0.0, 0.0, 0.0, 1.6635917752670617E9, 0.0, 2022-09-19 17:49:35.267
220.0, -40957.42594688248, -33752.29641822534, -43244.23292210495, -40053.811973787786, -56371.01010930659, 187500.0, -37900.28845075231, -39775.286886130205, 0.776, -0.64, 0.22, 192.0, 24.0, 64.0, 236.0, 0.0, 6.0, 224.0, 0.0, 0.0, 0.0, 1.6635917752710829E9, 0.0, 2022-09-19 17:49:35.271
221.0, -40940.170400162984, -33727.57538885777, -43216.02502060235, -40020.463171060466, -56336.72253331215, 187500.0, -37999.66430660061, -39741.66986246942, 0.776, -0.64, 0.22, 192.0, 0.0, 0.0, 0.0, 0.0, 0.0, 0.0, 0.0, 0.0, 0.0, 1.6635917752750757E9, 0.0, 2022-09-19 17:49:35.275
222.0, -40935.074202427175, -33725.42962139006, -43205.56440419727, -40038.702194535996, -56340.76819905856, 187500.0, -37904.647040921096, -39767.4861273153, 0.776, -0.64, 0.22, 192.0, 0.0, 0.0, 0.0, 0.0, 0.0, 0.0, 0.0, 0.0, 0.0, 1.663591775279088E9, 0.0, 2022-09-19 17:49:35.279
223.0, -40925.9099872005, -33731.889275537644, -43195.32730523674, -40069.88287805115, -56359.67777486775, 187500.0, -37717.38412587454, -39803.941822521905, 0.776, -0.64, 0.22, 192.0, 0.0, 0.0, 0.0, 0.0, 0.0, 0.0, 0.0, 0.0, 0.0, 1.6635917752840889E9, 0.0, 2022-09-19 17:49:35.284
224.0, -40954.34140614765, -33760.857136351726, -43221.523549738355, -40094.26863125189, -56393.272446784074, 187500.0, -37646.08206106211, -39822.806694842184, 0.776, -0.64, 0.22, 192.0, 0.0, 0.0, 0.0, 0.0, 0.0, 0.0, 0.0, 0.0, 0.0, 1.663591775287102E9, 0.0, 2022-09-19 17:49:35.287
225.0, -40977.81073782573, -33764.65693290913, -43255.006462932404, -40061.12099422467, -56381.13544954485, 187500.0, -37919.332137028236, -39772.29175237319, 0.776, -0.64, 0.22, 192.0, 0.0, 0.0, 0.0, 0.0, 0.0, 0.0, 0.0, 0.0, 0.0, 1.6635917752911973E9, 0.0, 2022-09-19 17:49:35.291
226.0, -40935.856513483115, -33734.43737440555, -43225.166884084574, -40026.58754904122, -56341.86343453687, 187500.0, -38007.487417159966, -39739.6805572129, 0.776, -0.64, 0.22, 192.0, 0.0, 0.0, 0.0, 0.0, 0.0, 0.0, 0.0, 0.0, 0.0, 1.6635917752950532E9, 0.0, 2022-09-19 17:49:35.295
227.0, -40921.41728656498, -33725.92135976808, -43200.31174425027, -40034.500066578395, -56337.05780947898, 187500.0, -37894.18642451602, -39755.86322019854, 0.776, -0.64, 0.22, 192.0, 0.0, 0.0, 0.0, 0.0, 0.0, 0.0, 0.0, 0.0, 0.0, 1.663591775299062E9, 0.0, 2022-09-19 17:49:35.299
228.0, -40923.29483309923, -33730.61522610369, -43192.33217147973, -40066.08308149375, -56355.09566725441, 187500.0, -37711.7514862718, -39799.337363164115, 0.776, -0.64, 0.22, 192.0, 0.0, 0.0, 0.0, 0.0, 0.0, 0.0, 0.0, 0.0, 0.0, 1.6635917753030906E9, 0.0, 2022-09-19 17:49:35.303
229.0, -40952.2179904244, -33760.275990995884, -43221.99293637192, -40097.08495105326, -56392.020749094576, 187500.0, -37650.08302331961, -39825.8018285992, 0.776, -0.64, 0.22, 192.0, 0.0, 0.0, 0.0, 0.0, 0.0, 0.0, 0.0, 0.0, 0.0, 1.663591775307145E9, 0.0, 2022-09-19 17:49:35.307
230.0, -40964.75731906382, -33755.045682793345, -43245.39521281663, -40053.16377319858, -56373.60291166341, 187500.0, -37914.705325925985, -39764.55804879165, 0.778, -0.646, 0.22, 192.0, 24.0, 80.0, 235.0, 208.0, 6.0, 224.0, 0.0, 0.0, 0.0, 1.6635917753121274E9, 0.0, 2022-09-19 17:49:35.312
231.0, -40932.0120134368, -33725.42962139006, -43217.74610492541, -40023.23478737292, -56341.416399647766, 187500.0, -38010.23668172797, -39739.52409500171, 0.778, -0.646, 0.22, 192.0, 0.0, 0.0, 0.0, 0.0, 0.0, 0.0, 0.0, 0.0, 0.0, 1.6635917753153312E9, 0.0, 2022-09-19 17:49:35.315
232.0, -40914.175321361465, -33710.789228771835, -43195.394360470105, -40034.34360436721, -56343.785684560025, 187500.0, -37901.584851930726, -39758.701891744364, 0.778, -0.646, 0.22, 192.0, 0.0, 0.0, 0.0, 0.0, 0.0, 0.0, 0.0, 0.0, 0.0, 1.6635917753191016E9, 0.0, 2022-09-19 17:49:35.319
233.0, -40909.503806770306, -33711.683298550044, -43186.230145243426, -40061.12099422467, -56359.4542574232, 187500.0, -37701.26851812226, -39794.084703217115, 0.778, -0.646, 0.22, 192.0, 0.0, 0.0, 0.0, 0.0, 0.0, 0.0, 0.0, 0.0, 0.0, 1.6635917753230836E9, 0.0, 2022-09-19 17:49:35.323
234.0, -40938.24815013983, -33738.72890934097, -43220.16009332658, -40087.89838408213, -56391.618417694386, 187500.0, -37649.278360519216, -39820.9515000524, 0.778, -0.646, 0.22, 192.0, 0.0, 0.0, 0.0, 0.0, 0.0, 0.0, 0.0, 0.0, 0.0, 1.6635917753271048E9, 0.0, 2022-09-19 17:49:35.327
235.0, -40968.11008073212, -33745.47913616647, -43248.52445704037, -40051.777965042354, -56382.74477514563, 187500.0, -37925.23299756444, -39772.269400628735, 0.778, -0.646, 0.22, 192.0, 0.0, 0.0, 0.0, 0.0, 0.0, 0.0, 0.0, 0.0, 0.0, 1.6635917753311753E9, 0.0, 2022-09-19 17:49:35.331
236.0, -40951.83801076865, -33726.90483652411, -43219.04250610382, -40021.223130371945, -56345.752638072096, 187500.0, -38007.845045071255, -39740.261702568736, 0.778, -0.646, 0.22, 192.0, 0.0, 0.0, 0.0, 0.0, 0.0, 0.0, 0.0, 0.0, 0.0, 1.663591775335104E9, 0.0, 2022-09-19 17:49:35.335
237.0, -40917.259862096296, -33712.957347984004, -43193.96384882496, -40021.0443164163, -56336.74488505661, 187500.0, -37896.823930361745, -39749.15769686195, 0.778, -0.646, 0.22, 192.0, 0.0, 0.0, 0.0, 0.0, 0.0, 0.0, 0.0, 0.0, 0.0, 1.6635917753402088E9, 0.0, 2022-09-19 17:49:35.340
238.0, -40912.61069924959, -33717.53945559734, -43184.93374406502, -40049.22986617445, -56353.48634165363, 187500.0, -37702.9001954675, -39791.983639238315, 0.778, -0.646, 0.22, 192.0, 0.0, 0.0, 0.0, 0.0, 0.0, 0.0, 0.0, 0.0, 0.0, 1.6635917753431644E9, 0.0, 2022-09-19 17:49:35.343
239.0, -40939.32103387368, -33738.885371552155, -43211.822892644755, -40074.73320659795, -56385.561094947, 187500.0, -37643.77983138321, -39816.70466860589, 0.778, -0.646, 0.22, 192.0, 0.0, 0.0, 0.0, 0.0, 0.0, 0.0, 0.0, 0.0, 0.0, 1.6635917753461287E9, 0.0, 2022-09-19 17:49:35.346
240.0, -40958.74469980535, -33741.45582216452, -43237.03566039034, -40036.91405497957, -56374.02759480806, 187500.0, -37920.47207599546, -39761.89819120147, 0.778, -0.64, 0.216, 192.0, 24.0, 80.0, 236.0, 0.0, 6.0, 192.0, 0.0, 0.0, 0.0, 1.6635917753511195E9, 0.0, 2022-09-19 17:49:35.351
241.0, -40940.05864144071, -33727.083650479755, -43206.23495653093, -40010.62840350013, -56342.44457989271, 187500.0, -38003.03942001336, -39736.86423741153, 0.778, -0.64, 0.216, 192.0, 0.0, 0.0, 0.0, 0.0, 0.0, 0.0, 0.0, 0.0, 0.0, 1.663591775355153E9, 0.0, 2022-09-19 17:49:35.355
242.0, -40930.179170391464, -33716.243054418934, -43185.045502787296, -40019.36793558216, -56338.51067286857, 187500.0, -37895.05814254977, -39752.7339759748, 0.778, -0.64, 0.216, 192.0, 0.0, 0.0, 0.0, 0.0, 0.0, 0.0, 0.0, 0.0, 0.0, 1.6635917753591757E9, 0.0, 2022-09-19 17:49:35.359
243.0, -40909.973193403865, -33713.27027240637, -43174.98721778241, -40041.63027305964, -56349.91006254078, 187500.0, -37696.597003531104, -39788.49676710329, 0.778, -0.64, 0.216, 192.0, 0.0, 0.0, 0.0, 0.0, 0.0, 0.0, 0.0, 0.0, 0.0, 1.663591775363198E9, 0.0, 2022-09-19 17:49:35.363
244.0, -40933.93426345995, -33752.85521183672, -43208.31366876527, -40066.59717161622, -56382.25303676761, 187500.0, -37649.747747152775, -39813.173092981946, 0.778, -0.64, 0.216, 192.0, 0.0, 0.0, 0.0, 0.0, 0.0, 0.0, 0.0, 0.0, 0.0, 1.6635917753691819E9, 0.0, 2022-09-19 17:49:35.369
245.0, -40956.17424919298, -33752.944618814545, -43238.64498599112, -40030.85673223218, -56369.40078370581, 187500.0, -37928.138724343626, -39763.41810982444, 0.778, -0.64, 0.216, 192.0, 0.0, 0.0, 0.0, 0.0, 0.0, 0.0, 0.0, 0.0, 0.0, 1.6635917753721843E9, 0.0, 2022-09-19 17:49:35.372
246.0, -40940.37156586308, -33710.76687702738, -43211.30880252228, -40008.236766843416, -56336.72253331215, 187500.0, -38002.48062640198, -39741.60280723606, 0.778, -0.64, 0.216, 192.0, 0.0, 0.0, 0.0, 0.0, 0.0, 0.0, 0.0, 0.0, 0.0, 1.6635917753762813E9, 0.0, 2022-09-19 17:49:35.376
247.0, -40916.29873708472, -33693.64544077461, -43193.74033138041, -40016.68572624752, -56330.26287916457, 187500.0, -37882.898793566084, -39756.422013809926, 0.778, -0.64, 0.216, 192.0, 0.0, 0.0, 0.0, 0.0, 0.0, 0.0, 0.0, 0.0, 0.0, 1.663591775379232E9, 0.0, 2022-09-19 17:49:35.379
248.0, -40903.46883576737, -33700.82035074477, -43186.38660745462, -40047.508781851386, -56345.395010160806, 187500.0, -37682.962439413364, -39795.87284277354, 0.778, -0.64, 0.216, 192.0, 0.0, 0.0, 0.0, 0.0, 0.0, 0.0, 0.0, 0.0, 0.0, 1.6635917753832512E9, 0.0, 2022-09-19 17:49:35.383
249.0, -40933.464876826394, -33736.650197106625, -43217.12025608066, -40075.78373858735, -56379.48142045515, 187500.0, -37653.033453587705, -39819.386877940524, 0.778, -0.64, 0.216, 192.0, 0.0, 0.0, 0.0, 0.0, 0.0, 0.0, 0.0, 0.0, 0.0, 1.663591775387241E9, 0.0, 2022-09-19 17:49:35.387
250.0, -40952.285045657765, -33739.77944133037, -43241.0589743923, -40037.986938713424, -56365.98096680415, 187500.0, -37936.095945369714, -39766.36854009254, 0.778, -0.632, 0.222, 192.0, 24.0, 80.0, 236.0, 64.0, 6.0, 240.0, 0.0, 0.0, 0.0, 1.6635917753912385E9, 0.0, 2022-09-19 17:49:35.391
251.0, -40923.8089232217, -33709.09049619323, -43209.006572843384, -40005.33104006422, -56330.53110009803, 187500.0, -38006.436885170566, -39738.11593510103, 0.778, -0.632, 0.222, 192.0, 0.0, 0.0, 0.0, 0.0, 0.0, 0.0, 0.0, 0.0, 0.0, 1.6635917753962283E9, 0.0, 2022-09-19 17:49:35.396
252.0, -40908.319164314176, -33708.37524037066, -43193.33799998021, -40017.73625823692, -56332.56510884346, 187500.0, -37894.07466579374, -39758.992464422285, 0.778, -0.632, 0.222, 192.0, 0.0, 0.0, 0.0, 0.0, 0.0, 0.0, 0.0, 0.0, 0.0, 1.6635917753992357E9, 0.0, 2022-09-19 17:49:35.399
253.0, -40910.77785620426, -33719.81933353178, -43191.30399123478, -40053.40964238759, -56353.39693467581, 187500.0, -37696.90992795348, -39800.00791549777, 0.778, -0.632, 0.222, 192.0, 0.0, 0.0, 0.0, 0.0, 0.0, 0.0, 0.0, 0.0, 0.0, 1.6635917754022236E9, 0.0, 2022-09-19 17:49:35.402
254.0, -40943.813734509204, -33739.15359248562, -43222.05999160528, -40073.48150890845, -56384.465859468684, 187500.0, -37657.12382282303, -39814.424790671444, 0.778, -0.632, 0.222, 192.0, 0.0, 0.0, 0.0, 0.0, 0.0, 0.0, 0.0, 0.0, 0.0, 1.6635917754073129E9, 0.0, 2022-09-19 17:49:35.407
255.0, -40964.91378127501, -33736.67254885108, -43239.159076113596, -40028.77801999784, -56358.71664985617, 187500.0, -37925.769439431366, -39753.136307374996, 0.778, -0.632, 0.222, 192.0, 0.0, 0.0, 0.0, 0.0, 0.0, 0.0, 0.0, 0.0, 0.0, 1.6635917754112282E9, 0.0, 2022-09-19 17:49:35.411
0.0, -40932.10142041462, -33711.79505727233, -43210.057104832784, -40000.23484232841, -56321.1433674268, 187500.0, -37991.57297510779, -39727.610615207035, 0.778, -0.632, 0.222, 192.0, 0.0, 0.0, 0.0, 0.0, 0.0, 0.0, 0.0, 0.0, 0.0, 1.6635917754152958E9, 0.0, 2022-09-19 17:49:35.415
1.0, -40915.4046673065, -33714.52197009587, -43196.19902327049, -40015.88106344713, -56326.70895179617, 187500.0, -37884.30695346677, -39752.62221725252, 0.778, -0.632, 0.222, 192.0, 0.0, 0.0, 0.0, 0.0, 0.0, 0.0, 0.0, 0.0, 0.0, 1.6635917754193232E9, 0.0, 2022-09-19 17:49:35.419
2.0, -40918.86918769708, -33732.35866217121, -43190.81225285676, -40053.521401109865, -56349.70889684068, 187500.0, -37690.94201218391, -39800.43259864242, 0.778, -0.632, 0.222, 192.0, 0.0, 0.0, 0.0, 0.0, 0.0, 0.0, 0.0, 0.0, 0.0, 1.663591775422264E9, 0.0, 2022-09-19 17:49:35.422
3.0, -40934.60481579362, -33735.21968546149, -43215.93561362453, -40068.36295942819, -56374.87696109736, 187500.0, -37654.8886483775, -39809.619165613556, 0.778, -0.632, 0.222, 192.0, 0.0, 0.0, 0.0, 0.0, 0.0, 0.0, 0.0, 0.0, 0.0, 1.6635917754263031E9, 0.0, 2022-09-19 17:49:35.426
4.0, -40943.34434787564, -33720.17696144307, -43236.74508771242, -40024.48648506242, -56353.88867305383, 187500.0, -37934.41956453557, -39747.950702661365, 0.778, -0.632, 0.232, 192.0, 24.0, 80.0, 236.0, 64.0, 7.0, 64.0, 0.0, 0.0, 0.0, 1.6635917754302893E9, 0.0, 2022-09-19 17:49:35.430
5.0, -40931.07324016967, -33706.4082868586, -43210.95117461099, -40004.861653430664, -56324.0937976949, 187500.0, -38004.693449103055, -39730.471638497314, 0.778, -0.632, 0.232, 192.0, 0.0, 0.0, 0.0, 0.0, 0.0, 0.0, 0.0, 0.0, 0.0, 1.6635917754342988E9, 0.0, 2022-09-19 17:49:35.434
6.0, -40916.544606273725, -33708.844627004226, -43187.57124991075, -40020.55257803829, -56323.53500408352, 187500.0, -37891.83949134821, -39753.85156319756, 0.778, -0.632, 0.232, 192.0, 0.0, 0.0, 0.0, 0.0, 0.0, 0.0, 0.0, 0.0, 0.0, 1.6635917754392796E9, 0.0, 2022-09-19 17:49:35.439
7.0, -40908.18505384744, -33730.03408074786, -43180.19517424049, -40056.49418312242, -56346.445542150206, 187500.0, -37691.67961975093, -39802.37720041003, 0.778, -0.632, 0.232, 192.0, 0.0, 0.0, 0.0, 0.0, 0.0, 0.0, 0.0, 0.0, 0.0, 1.6635917754432995E9, 0.0, 2022-09-19 17:49:35.443
8.0, -40930.7603157473, -33736.58314187326, -43207.08432282023, -40071.559258885296, -56366.29389122652, 187500.0, -37654.0392820882, -39808.45687490188, 0.778, -0.632, 0.232, 192.0, 0.0, 0.0, 0.0, 0.0, 0.0, 0.0, 0.0, 0.0, 0.0, 1.6635917754472954E9, 0.0, 2022-09-19 17:49:35.447
9.0, -40934.71657451589, -33714.499618351416, -43227.58087248574, -40031.3484706102, -56343.785684560025, 187500.0, -37927.26700630987, -39750.00706315125, 0.778, -0.632, 0.232, 192.0, 0.0, 0.0, 0.0, 0.0, 0.0, 0.0, 0.0, 0.0, 0.0, 1.663591775450378E9, 0.0, 2022-09-19 17:49:35.450
10.0, -40911.157835859995, -33690.67265876206, -43194.65675290308, -40005.33104006422, -56309.96749519915, 187500.0, -37988.24256518395, -39727.76707741822, 0.778, -0.632, 0.232, 192.0, 0.0, 0.0, 0.0, 0.0, 0.0, 0.0, 0.0, 0.0, 0.0, 1.663591775454348E9, 0.0, 2022-09-19 17:49:35.454
11.0, -40898.305582798195, -33691.566728540274, -43179.368159695645, -40015.47873204693, -56310.3921783438, 187500.0, -37881.33417145421, -39745.849638682565, 0.778, -0.632, 0.232, 192.0, 0.0, 0.0, 0.0, 0.0, 0.0, 0.0, 0.0, 0.0, 0.0, 1.663591775458563E9, 0.0, 2022-09-19 17:49:35.458
12.0, -40897.16564383097, -33701.20033040051, -43171.83562181421, -40041.49616259291, -56319.53404182602, 187500.0, -37675.56401199866, -39780.7407117773, 0.778, -0.632, 0.232, 192.0, 0.0, 0.0, 0.0, 0.0, 0.0, 0.0, 0.0, 0.0, 0.0, 1.663591775462335E9, 0.0, 2022-09-19 17:49:35.462
13.0, -40936.415307094496, -33735.19733371703, -43210.012401343876, -40070.55343038481, -56350.62531836335, 187500.0, -37659.046072846184, -39802.80188355468, 0.778, -0.632, 0.232, 192.0, 0.0, 0.0, 0.0, 0.0, 0.0, 0.0, 0.0, 0.0, 0.0, 1.6635917754673247E9, 0.0, 2022-09-19 17:49:35.467
14.0, -40968.15478422103, -33740.3158831973, -43230.77717194286, -40033.673052033555, -56333.1462541993, 187500.0, -37944.768422218374, -39749.04593813967, 0.776, -0.636, 0.234, 192.0, 24.0, 64.0, 236.0, 32.0, 7.0, 80.0, 0.0, 0.0, 0.0, 1.6635917754713767E9, 0.0, 2022-09-19 17:49:35.471
15.0, -40930.20152213592, -33708.419943859575, -43193.53916568031, -40000.72658070643, -56291.90728567926, 187500.0, -37993.40581815312, -39721.597995948556, 0.776, -0.636, 0.234, 192.0, 0.0, 0.0, 0.0, 0.0, 0.0, 0.0, 0.0, 0.0, 0.0, 1.663591775475447E9, 0.0, 2022-09-19 17:49:35.475
16.0, -40914.5553010172, -33705.760086269394, -43175.12132824914, -40013.10944713467, -56293.00252115757, 187500.0, -37878.65196211958, -39740.23935082428, 0.776, -0.636, 0.234, 192.0, 0.0, 0.0, 0.0, 0.0, 0.0, 0.0, 0.0, 0.0, 0.0, 1.663591775478367E9, 0.0, 2022-09-19 17:49:35.478
17.0, -40905.301678812706, -33716.175999185565, -43168.125232234626, -40051.129764453144, -56320.71868428215, 187500.0, -37683.78945395821, -39788.5414705922, 0.776, -0.636, 0.234, 192.0, 0.0, 0.0, 0.0, 0.0, 0.0, 0.0, 0.0, 0.0, 0.0, 1.6635917754823546E9, 0.0, 2022-09-19 17:49:35.482
18.0, -40931.8108477367, -33736.67254885108, -43213.16399731207, -40083.67390438008, -56367.769106360574, 187500.0, -37681.24135509031, -39818.31399420667, 0.776, -0.636, 0.234, 192.0, 0.0, 0.0, 0.0, 0.0, 0.0, 0.0, 0.0, 0.0, 0.0, 1.6635917754863534E9, 0.0, 2022-09-19 17:49:35.486
19.0, -40957.98474049386, -33746.41790943359, -43238.01913714637, -40049.341624896726, -56353.41928642026, 187500.0, -37956.32427410177, -39767.039092426196, 0.776, -0.636, 0.234, 192.0, 0.0, 0.0, 0.0, 0.0, 0.0, 0.0, 0.0, 0.0, 0.0, 1.6635917754904249E9, 0.0, 2022-09-19 17:49:35.490
20.0, -40932.68256577046, -33715.63955731864, -43199.61884017215, -40012.3941913121, -56308.559335298465, 187500.0, -37987.88493727266, -39728.303519285146, 0.776, -0.636, 0.234, 192.0, 0.0, 0.0, 0.0, 0.0, 0.0, 0.0, 0.0, 0.0, 0.0, 1.6635917754954088E9, 0.0, 2022-09-19 17:49:35.495
21.0, -40909.30264107021, -33695.16535939758, -43178.541145150804, -40011.231900600425, -56301.16090788376, 187500.0, -37872.19230797199, -39733.891455398974, 0.776, -0.636, 0.234, 192.0, 0.0, 0.0, 0.0, 0.0, 0.0, 0.0, 0.0, 0.0, 0.0, 1.6635917754994228E9, 0.0, 2022-09-19 17:49:35.499
22.0, -40886.79443440371, -33699.188673399534, -43168.460508401455, -40042.63610156013, -56320.942201726706, 187500.0, -37668.903192150974, -39777.96909546484, 0.776, -0.636, 0.234, 192.0, 0.0, 0.0, 0.0, 0.0, 0.0, 0.0, 0.0, 0.0, 0.0, 1.6635917755033844E9, 0.0, 2022-09-19 17:49:35.503
23.0, -40928.59219653514, -33730.861095292705, -43207.86663387616, -40078.84592757773, -56367.85851333839, 187500.0, -37658.442575745896, -39810.937918536416, 0.776, -0.636, 0.234, 192.0, 0.0, 0.0, 0.0, 0.0, 0.0, 0.0, 0.0, 0.0, 0.0, 1.6635917755064447E9, 0.0, 2022-09-19 17:49:35.506
24.0, -40949.44637411194, -33738.05835700731, -43229.07843936425, -40033.91892122256, -56348.613661362375, 187500.0, -37936.878256425654, -39751.54933351867, 0.774, -0.638, 0.23, 192.0, 24.0, 48.0, 236.0, 16.0, 7.0, 48.0, 0.0, 0.0, 0.0, 1.6635917755105088E9, 0.0, 2022-09-19 17:49:35.510
25.0, -40921.99843192082, -33725.65313883461, -43197.964811082464, -40005.912185420064, -56310.8392132329, 187500.0, -37981.24646916944, -39727.70002218486, 0.774, -0.638, 0.23, 192.0, 0.0, 0.0, 0.0, 0.0, 0.0, 0.0, 0.0, 0.0, 0.0, 1.6635917755144968E9, 0.0, 2022-09-19 17:49:35.514
26.0, -40914.82352195067, -33712.97969972846, -43182.27388647484, -40016.126932636136, -56305.07246316344, 187500.0, -37867.47608989193, -39743.81562993713, 0.774, -0.638, 0.23, 192.0, 0.0, 0.0, 0.0, 0.0, 0.0, 0.0, 0.0, 0.0, 0.0, 1.6635917755184605E9, 0.0, 2022-09-19 17:49:35.518
27.0, -40920.254995853305, -33708.822275259765, -43174.897810804585, -40042.5019910934, -56310.14630915479, 187500.0, -37665.10339559357, -39775.08572043011, 0.774, -0.638, 0.23, 192.0, 0.0, 0.0, 0.0, 0.0, 0.0, 0.0, 0.0, 0.0, 0.0, 1.6635917755234656E9, 0.0, 2022-09-19 17:49:35.523
28.0, -40935.74475476083, -33734.19150521654, -43204.335058252225, -40058.84111629023, -56329.07823670843, 187500.0, -37660.811860658156, -39782.70766528937, 0.774, -0.638, 0.23, 192.0, 0.0, 0.0, 0.0, 0.0, 0.0, 0.0, 0.0, 0.0, 0.0, 1.663591775527459E9, 0.0, 2022-09-19 17:49:35.527
29.0, -40950.00516772332, -33729.810563303305, -43221.74706718291, -40012.95298492348, -56306.12299515284, 187500.0, -37940.02985239385, -39718.66991742491, 0.774, -0.638, 0.23, 192.0, 0.0, 0.0, 0.0, 0.0, 0.0, 0.0, 0.0, 0.0, 0.0, 1.6635917755314713E9, 0.0, 2022-09-19 17:49:35.531
30.0, -40926.08880115614, -33707.011783958886, -43195.77434012584, -39993.50696724737, -56279.971454140126, 187500.0, -37990.23187044047, -39704.878891095985, 0.774, -0.638, 0.23, 192.0, 0.0, 0.0, 0.0, 0.0, 0.0, 0.0, 0.0, 0.0, 0.0, 1.6635917755345554E9, 0.0, 2022-09-19 17:49:35.534
31.0, -40917.326917329665, -33711.549188083314, -43189.8958313341, -40015.59049076921, -56289.15802111126, 187500.0, -37879.88130806462, -39746.74370846077, 0.774, -0.638, 0.23, 192.0, 0.0, 0.0, 0.0, 0.0, 0.0, 0.0, 0.0, 0.0, 0.0, 1.6635917755384717E9, 0.0, 2022-09-19 17:49:35.538
32.0, -40927.04992616772, -33732.78334531586, -43186.61012489917, -40058.17056395657, -56315.80130050198, 187500.0, -37680.57080275664, -39799.06914223065, 0.774, -0.638, 0.23, 192.0, 0.0, 0.0, 0.0, 0.0, 0.0, 0.0, 0.0, 0.0, 0.0, 1.6635917755425584E9, 0.0, 2022-09-19 17:49:35.542
33.0, -40949.35696713412, -33755.336255471266, -43211.331154266736, -40075.470814164975, -56342.28811768152, 187500.0, -37678.46973877785, -39804.97000276685, 0.774, -0.638, 0.23, 192.0, 0.0, 0.0, 0.0, 0.0, 0.0, 0.0, 0.0, 0.0, 0.0, 1.6635917755465715E9, 0.0, 2022-09-19 17:49:35.546
34.0, -40946.607702566114, -33732.00103425992, -43221.255328804895, -40020.3961158271, -56309.49810856559, 187500.0, -37938.15230585961, -39735.567836233124, 0.774, -0.638, 0.23, 192.0, 0.0, 0.0, 0.0, 0.0, 0.0, 0.0, 0.0, 0.0, 0.0, 1.6635917755505855E9, 0.0, 2022-09-19 17:49:35.550
35.0, -40927.742830245836, -33707.28000489235, -43191.5945639127, -39999.22901382793, -56279.27855006201, 187500.0, -37976.105567944716, -39719.04989708065, 0.772, -0.634, 0.23600000000000002, 192.0, 24.0, 32.0, 236.0, 48.0, 7.0, 96.0, 0.0, 0.0, 0.0, 1.663591775555501E9, 0.0, 2022-09-19 17:49:35.555
36.0, -40909.74967595931, -33702.0049932009, -43174.339017193204, -40014.47290354644, -56282.698366963676, 187500.0, -37857.12723220912, -39743.21213283684, 0.772, -0.634, 0.23600000000000002, 192.0, 0.0, 0.0, 0.0, 0.0, 0.0, 0.0, 0.0, 0.0, 0.0, 1.66359177555961E9, 0.0, 2022-09-19 17:49:35.559
37.0, -40903.111207856084, -33716.5559788413, -43171.65680785857, -40055.264837177376, -56312.22502138913, 187500.0, -37650.395947741985, -39795.24699392879, 0.772, -0.634, 0.23600000000000002, 192.0, 0.0, 0.0, 0.0, 0.0, 0.0, 0.0, 0.0, 0.0, 0.0, 1.6635917755626185E9, 0.0, 2022-09-19 17:49:35.562
38.0, -40911.738981215836, -33736.940769784545, -43206.1008460642, -40076.208421732, -56346.49024563912, 187500.0, -37657.81672690115, -39809.12742723554, 0.772, -0.634, 0.23600000000000002, 192.0, 0.0, 0.0, 0.0, 0.0, 0.0, 0.0, 0.0, 0.0, 0.0, 1.663591775566601E9, 0.0, 2022-09-19 17:49:35.566
39.0, -40928.10045815712, -33728.53651386935, -43220.87534914915, -40037.785773013326, -56328.541794841505, 187500.0, -37940.6557012386, -39751.10229862956, 0.772, -0.634, 0.23600000000000002, 192.0, 0.0, 0.0, 0.0, 0.0, 0.0, 0.0, 0.0, 0.0, 0.0, 1.6635917755705636E9, 0.0, 2022-09-19 17:49:35.570
40.0, -40915.33761207314, -33694.62891753065, -43190.61108715666, -40019.882025704625, -56308.201707387176, 187500.0, -37978.474852856976, -39736.86423741153, 0.772, -0.634, 0.23600000000000002, 192.0, 0.0, 0.0, 0.0, 0.0, 0.0, 0.0, 0.0, 0.0, 0.0, 1.6635917755745163E9, 0.0, 2022-09-19 17:49:35.574
41.0, -40908.296812569715, -33680.86024294618, -43171.25447645837, -40022.564235039266, -56307.0394166755, 187500.0, -37858.26717117634, -39745.492010771275, 0.772, -0.634, 0.23600000000000002, 192.0, 0.0, 0.0, 0.0, 0.0, 0.0, 0.0, 0.0, 0.0, 0.0, 1.6635917755785427E9, 0.0, 2022-09-19 17:49:35.578
42.0, -40902.507710755795, -33699.85922573319, -43176.52948814983, -40060.53984886883, -56338.48832112412, 187500.0, -37660.63304670251, -39796.38693289601, 0.772, -0.634, 0.23600000000000002, 192.0, 0.0, 0.0, 0.0, 0.0, 0.0, 0.0, 0.0, 0.0, 0.0, 1.6635917755835583E9, 0.0, 2022-09-19 17:49:35.583
43.0, -40918.377449319065, -33730.32465342577, -43213.007535100885, -40080.723474111976, -56374.87696109736, 187500.0, -37678.38033180003, -39812.10020924809, 0.772, -0.634, 0.23600000000000002, 192.0, 0.0, 0.0, 0.0, 0.0, 0.0, 0.0, 0.0, 0.0, 0.0, 1.6635917755875287E9, 0.0, 2022-09-19 17:49:35.587
44.0, -40936.6611762835, -33726.70367082401, -43218.953099125996, -40027.19104614151, -56338.10834146838, 187500.0, -37949.43993680953, -39744.77675494871, 0.772, -0.634, 0.23600000000000002, 192.0, 0.0, 0.0, 0.0, 0.0, 0.0, 0.0, 0.0, 0.0, 0.0, 1.663591775590594E9, 0.0, 2022-09-19 17:49:35.590
45.0, -40913.16949286097, -33699.56865305527, -43193.09213079121, -40008.30382207678, -56305.65360851927, 187500.0, -37976.6643615561, -39733.84675191007, 0.776, -0.64, 0.232, 192.0, 24.0, 64.0, 236.0, 0.0, 7.0, 64.0, 0.0, 0.0, 0.0, 1.6635917755946465E9, 0.0, 2022-09-19 17:49:35.594
46.0, -40890.66128619448, -33679.407379556586, -43170.04748225778, -40012.34948782319, -56292.60018975737, 187500.0, -37852.36631064014, -39745.73787996029, 0.776, -0.64, 0.232, 192.0, 0.0, 0.0, 0.0, 0.0, 0.0, 0.0, 0.0, 0.0, 0.0, 1.6635917755985827E9, 0.0, 2022-09-19 17:49:35.598
47.0, -40899.26670780977, -33690.918527951064, -43163.990159510395, -40051.17446794206, -56308.89461146529, 187500.0, -37656.16269781145, -39793.34709565009, 0.776, -0.64, 0.232, 192.0, 0.0, 0.0, 0.0, 0.0, 0.0, 0.0, 0.0, 0.0, 0.0, 1.6635917756026173E9, 0.0, 2022-09-19 17:49:35.602
48.0, -40951.502734601825, -33729.028252247364, -43209.54301471031, -40078.66711362208, -56343.31629792647, 187500.0, -37691.61256451757, -39806.802845812184, 0.776, -0.64, 0.232, 192.0, 0.0, 0.0, 0.0, 0.0, 0.0, 0.0, 0.0, 0.0, 0.0, 1.6635917756086943E9, 0.0, 2022-09-19 17:49:35.608
49.0, -40957.783574793764, -33743.10985125421, -43230.73246845394, -40049.29692140781, -56322.28330639402, 187500.0, -37972.462233598504, -39761.89819120147, 0.776, -0.64, 0.232, 192.0, 0.0, 0.0, 0.0, 0.0, 0.0, 0.0, 0.0, 0.0, 0.0, 1.6635917756117203E9, 0.0, 2022-09-19 17:49:35.611
50.0, -40916.38814406254, -33717.27123466387, -43193.20388951348, -40018.58562452622, -56280.82082042943, 187500.0, -37980.285344157855, -39732.997385620765, 0.776, -0.64, 0.232, 192.0, 0.0, 0.0, 0.0, 0.0, 0.0, 0.0, 0.0, 0.0, 0.0, 1.66359177561562E9, 0.0, 2022-09-19 17:49:35.615
51.0, -40883.75459715779, -33690.516196550874, -43171.67915960302, -40016.3951535696, -56268.52736097901, 187500.0, -37842.844467502175, -39737.40067927846, 0.776, -0.64, 0.232, 192.0, 0.0, 0.0, 0.0, 0.0, 0.0, 0.0, 0.0, 0.0, 0.0, 1.663591775618601E9, 0.0, 2022-09-19 17:49:35.618
52.0, -40885.721550669856, -33695.902966964604, -43175.27779046033, -40058.5058401234, -56297.9869601711, 187500.0, -37646.21617152884, -39792.609488083064, 0.776, -0.64, 0.232, 192.0, 0.0, 0.0, 0.0, 0.0, 0.0, 0.0, 0.0, 0.0, 0.0, 1.6635917756226285E9, 0.0, 2022-09-19 17:49:35.622
53.0, -40925.39589707803, -33731.77751681537, -43213.87925313464, -40080.6117153897, -56331.96161174317, 187500.0, -37681.48722427931, -39804.83589230012, 0.776, -0.64, 0.232, 192.0, 0.0, 0.0, 0.0, 0.0, 0.0, 0.0, 0.0, 0.0, 0.0, 1.663591775626773E9, 0.0, 2022-09-19 17:49:35.626
54.0, -40942.71849903089, -33726.4130981461, -43226.485637007434, -40039.462153847475, -56306.68178876422, 187500.0, -37957.911247958094, -39748.48714452829, 0.776, -0.64, 0.232, 192.0, 0.0, 0.0, 0.0, 0.0, 0.0, 0.0, 0.0, 0.0, 0.0, 1.6635917756307073E9, 0.0, 2022-09-19 17:49:35.630
55.0, -40925.82058022268, -33707.9058537371, -43199.372970983146, -40021.02196467185, -56275.92578839372, 187500.0, -37982.5652220923, -39737.311272300634, 0.768, -0.634, 0.23, 192.0, 24.0, 0.0, 236.0, 48.0, 7.0, 48.0, 0.0, 0.0, 0.0, 1.6635917756346064E9, 0.0, 2022-09-19 17:49:35.634
56.0, -40908.25210908081, -33699.56865305527, -43173.66846485955, -40025.291147862816, -56266.962738867136, 187500.0, -37853.28273216281, -39749.269455584224, 0.768, -0.634, 0.23, 192.0, 0.0, 0.0, 0.0, 0.0, 0.0, 0.0, 0.0, 0.0, 0.0, 1.6635917756396344E9, 0.0, 2022-09-19 17:49:35.639
57.0, -40898.77496943175, -33701.423847845064, -43164.50424963287, -40051.39798538661, -56275.14347733778, 187500.0, -37646.86437211804, -39777.87968848702, 0.768, -0.634, 0.23, 192.0, 0.0, 0.0, 0.0, 0.0, 0.0, 0.0, 0.0, 0.0, 0.0, 1.6635917756436844E9, 0.0, 2022-09-19 17:49:35.643
58.0, -40920.09853364212, -33719.12642945367, -43192.6450959021, -40051.75561329789, -56290.81205020095, 187500.0, -37678.357980055574, -39769.833060483106, 0.768, -0.634, 0.23, 192.0, 0.0, 0.0, 0.0, 0.0, 0.0, 0.0, 0.0, 0.0, 0.0, 1.6635917756466784E9, 0.0, 2022-09-19 17:49:35.646
59.0, -40919.204463863905, -33710.54335958283, -43201.76460763987, -40006.761551709365, -56259.89958761926, 187500.0, -37950.781041476854, -39710.04214406516, 0.768, -0.634, 0.23, 192.0, 0.0, 0.0, 0.0, 0.0, 0.0, 0.0, 0.0, 0.0, 0.0, 1.6635917756506896E9, 0.0, 2022-09-19 17:49:35.650
60.0, -40900.02666712125, -33694.293641363816, -43180.575153896236, -39990.310667790254, -56235.849110585346, 187500.0, -37964.907343972605, -39700.65441139393, 0.768, -0.634, 0.23, 192.0, 0.0, 0.0, 0.0, 0.0, 0.0, 0.0, 0.0, 0.0, 0.0, 1.663591775654713E9, 0.0, 2022-09-19 17:49:35.654
61.0, -40900.652515966, -33698.696935021515, -43170.919200291544, -40010.71781047795, -56249.39426772526, 187500.0, -37848.56651408273, -39731.54452223117, 0.768, -0.634, 0.23, 192.0, 0.0, 0.0, 0.0, 0.0, 0.0, 0.0, 0.0, 0.0, 0.0, 1.663591775658717E9, 0.0, 2022-09-19 17:49:35.658
62.0, -40920.92554818697, -33715.30428115181, -43176.01539802735, -40056.42712788905, -56288.487468777595, 187500.0, -37669.50668925127, -39785.12165369054, 0.768, -0.634, 0.23, 192.0, 0.0, 0.0, 0.0, 0.0, 0.0, 0.0, 0.0, 0.0, 0.0, 1.6635917756627343E9, 0.0, 2022-09-19 17:49:35.662
63.0, -40941.48915308585, -33738.70655759652, -43204.87150011915, -40065.59134311573, -56311.93444871122, 187500.0, -37700.55326229969, -39784.7416740348, 0.768, -0.634, 0.23, 192.0, 0.0, 0.0, 0.0, 0.0, 0.0, 0.0, 0.0, 0.0, 0.0, 1.663591775666754E9, 0.0, 2022-09-19 17:49:35.666
64.0, -40922.087838898646, -33730.27994993686, -43205.78792164182, -40013.4447233015, -56275.0317186155, 187500.0, -37957.37480609117, -39716.85942612403, 0.768, -0.634, 0.23, 192.0, 0.0, 0.0, 0.0, 0.0, 0.0, 0.0, 0.0, 0.0, 0.0, 1.6635917756717489E9, 0.0, 2022-09-19 17:49:35.671
65.0, -40891.890632139526, -33685.33059183724, -43177.60237188368, -39991.942345135496, -56243.962793822626, 187500.0, -37977.67019005659, -39699.916803826905, 0.77, -0.63, 0.232, 192.0, 24.0, 16.0, 236.0, 80.0, 7.0, 64.0, 0.0, 0.0, 0.0, 1.6635917756748135E9, 0.0, 2022-09-19 17:49:35.674
66.0, -40882.59230644612, -33670.71255096347, -43164.548953121775, -40004.235804585915, -56249.88600610328, 187500.0, -37854.06504321874, -39722.067382582114, 0.77, -0.63, 0.232, 192.0, 0.0, 0.0, 0.0, 0.0, 0.0, 0.0, 0.0, 0.0, 0.0, 1.6635917756787653E9, 0.0, 2022-09-19 17:49:35.678
67.0, -40885.83330939213, -33689.3539058392, -43159.16218270805, -40041.33970038172, -56274.89760814877, 187500.0, -37641.388194726496, -39765.80974648115, 0.77, -0.63, 0.232, 192.0, 0.0, 0.0, 0.0, 0.0, 0.0, 0.0, 0.0, 0.0, 0.0, 1.6635917756827607E9, 0.0, 2022-09-19 17:49:35.682
68.0, -40922.46781855438, -33718.835856775746, -43191.482805190426, -40058.21526744548, -56302.546716039986, 187500.0, -37679.83319518962, -39773.945781462884, 0.77, -0.63, 0.232, 192.0, 0.0, 0.0, 0.0, 0.0, 0.0, 0.0, 0.0, 0.0, 0.0, 1.6635917756867695E9, 0.0, 2022-09-19 17:49:35.686
69.0, -40934.98479544935, -33715.99718522992, -43196.869575604156, -40011.96950816745, -56272.2824540475, 187500.0, -37952.546829288825, -39714.49014121177, 0.77, -0.63, 0.232, 192.0, 0.0, 0.0, 0.0, 0.0, 0.0, 0.0, 0.0, 0.0, 0.0, 1.6635917756907713E9, 0.0, 2022-09-19 17:49:35.690
70.0, -40909.973193403865, -33695.52298730886, -43164.79482231079, -39991.31649629075, -56243.046372299956, 187500.0, -37964.840288739244, -39692.87600432349, 0.77, -0.63, 0.232, 192.0, 0.0, 0.0, 0.0, 0.0, 0.0, 0.0, 0.0, 0.0, 0.0, 1.6635917756947591E9, 0.0, 2022-09-19 17:49:35.694
71.0, -40900.2054810769, -33696.61822278717, -43149.685043059, -40003.20762434097, -56241.34763972135, 187500.0, -37839.134077922594, -39710.37742023199, 0.77, -0.63, 0.232, 192.0, 0.0, 0.0, 0.0, 0.0, 0.0, 0.0, 0.0, 0.0, 0.0, 1.663591775699794E9, 0.0, 2022-09-19 17:49:35.699
72.0, -40896.29392579722, -33706.609452558696, -43152.657825071554, -40043.08313644923, -56271.8801226473, 187500.0, -37637.92367433592, -39759.79712722268, 0.77, -0.63, 0.232, 192.0, 0.0, 0.0, 0.0, 0.0, 0.0, 0.0, 0.0, 0.0, 0.0, 1.6635917757027884E9, 0.0, 2022-09-19 17:49:35.702
73.0, -40918.24333885233, -33722.121563210676, -43192.510985435365, -40056.248313933414, -56304.69248350769, 187500.0, -37690.07029415015, -39768.20138313787, 0.77, -0.63, 0.232, 192.0, 0.0, 0.0, 0.0, 0.0, 0.0, 0.0, 0.0, 0.0, 0.0, 1.6635917757067592E9, 0.0, 2022-09-19 17:49:35.706
74.0, -40925.977042433864, -33709.82810376026, -43193.717979635956, -40003.38643829661, -56267.879160389806, 187500.0, -37953.373843833666, -39703.537786428664, 0.77, -0.63, 0.232, 192.0, 0.0, 0.0, 0.0, 0.0, 0.0, 0.0, 0.0, 0.0, 0.0, 1.6635917757108915E9, 0.0, 2022-09-19 17:49:35.710
75.0, -40894.08110309614, -33688.12455989415, -43162.11261297615, -39987.51669973334, -56237.1231600193, 187500.0, -37959.6099805367, -39692.5183764122, 0.772, -0.626, 0.226, 192.0, 24.0, 32.0, 236.0, 112.0, 7.0, 16.0, 0.0, 0.0, 0.0, 1.6635917757147977E9, 0.0, 2022-09-19 17:49:35.714
76.0, -40885.721550669856, -33682.38016156914, -43150.422650626024, -40003.83347318572, -56244.90156708975, 187500.0, -37837.97178721092, -39716.412391234924, 0.772, -0.626, 0.226, 192.0, 0.0, 0.0, 0.0, 0.0, 0.0, 0.0, 0.0, 0.0, 0.0, 1.663591775718792E9, 0.0, 2022-09-19 17:49:35.718
77.0, -40901.032495621745, -33707.48117059245, -43158.961017007954, -40056.49418312242, -56282.117221607834, 187500.0, -37649.50187796377, -39774.90690647446, 0.772, -0.626, 0.226, 192.0, 0.0, 0.0, 0.0, 0.0, 0.0, 0.0, 0.0, 0.0, 0.0, 1.6635917757227836E9, 0.0, 2022-09-19 17:49:35.722
78.0, -40923.13837088804, -33731.37518541517, -43197.003686070886, -40072.967418785986, -56310.34747485489, 187500.0, -37699.70389601039, -39778.79611000969, 0.772, -0.626, 0.226, 192.0, 0.0, 0.0, 0.0, 0.0, 0.0, 0.0, 0.0, 0.0, 0.0, 1.663591775727884E9, 0.0, 2022-09-19 17:49:35.727
79.0, -40929.03923142424, -33720.48988586544, -43207.956040853984, -40030.789676998815, -56283.77125069753, 187500.0, -37964.974399205974, -39723.98963260528, 0.772, -0.626, 0.226, 192.0, 0.0, 0.0, 0.0, 0.0, 0.0, 0.0, 0.0, 0.0, 0.0, 1.663591775730895E9, 0.0, 2022-09-19 17:49:35.730
80.0, -40912.09660912712, -33694.226586130455, -43173.93668579301, -40009.10848487717, -56252.72467764911, 187500.0, -37967.74601551843, -39707.00230681924, 0.772, -0.626, 0.226, 192.0, 0.0, 0.0, 0.0, 0.0, 0.0, 0.0, 0.0, 0.0, 0.0, 1.663591775734876E9, 0.0, 2022-09-19 17:49:35.734
81.0, -40893.701123440405, -33697.73581000994, -43154.64713032808, -40019.16676988206, -56251.07064855941, 187500.0, -37840.542237823276, -39725.55425471714, 0.772, -0.626, 0.226, 192.0, 0.0, 0.0, 0.0, 0.0, 0.0, 0.0, 0.0, 0.0, 0.0, 1.6635917757388103E9, 0.0, 2022-09-19 17:49:35.738
82.0, -40885.36392275857, -33710.87863574966, -43150.512057603846, -40053.811973787786, -56278.16096283925, 187500.0, -37633.16275276694, -39770.168336649935, 0.772, -0.626, 0.226, 192.0, 0.0, 0.0, 0.0, 0.0, 0.0, 0.0, 0.0, 0.0, 0.0, 1.6635917757427983E9, 0.0, 2022-09-19 17:49:35.742
83.0, -40923.67481275497, -33721.71923181048, -43197.65188666009, -40071.067520507284, -56314.348437112385, 187500.0, -37696.41818957546, -39775.01866519674, 0.772, -0.626, 0.226, 192.0, 0.0, 0.0, 0.0, 0.0, 0.0, 0.0, 0.0, 0.0, 0.0, 1.6635917757469723E9, 0.0, 2022-09-19 17:49:35.746
84.0, -40919.696202241925, -33707.48117059245, -43213.02988684534, -40027.45926707498, -56289.739166467094, 187500.0, -37968.617733552186, -39716.74766740175, 0.772, -0.626, 0.226, 192.0, 0.0, 0.0, 0.0, 0.0, 0.0, 0.0, 0.0, 0.0, 0.0, 1.6635917757508333E9, 0.0, 2022-09-19 17:49:35.750
85.0, -40887.62144894856, -33689.84564421721, -43174.02609277083, -40004.05699063027, -56255.2280730281, 187500.0, -37964.81793699478, -39698.84392009305, 0.78, -0.626, 0.226, 192.0, 24.0, 96.0, 236.0, 112.0, 7.0, 16.0, 0.0, 0.0, 0.0, 1.6635917757549183E9, 0.0, 2022-09-19 17:49:35.754
86.0, -40884.91688786947, -33686.26936510437, -43154.15539195006, -40016.819836714254, -56258.290262018476, 187500.0, -37832.94264470848, -39723.18496980488, 0.78, -0.626, 0.226, 192.0, 0.0, 0.0, 0.0, 0.0, 0.0, 0.0, 0.0, 0.0, 0.0, 1.6635917757589831E9, 0.0, 2022-09-19 17:49:35.758
87.0, -40896.986829875335, -33700.5521298113, -43158.91631351904, -40057.54471511182, -56286.83343968791, 187500.0, -37633.609787656045, -39775.26453438575, 0.78, -0.626, 0.226, 192.0, 0.0, 0.0, 0.0, 0.0, 0.0, 0.0, 0.0, 0.0, 0.0, 1.663591775761983E9, 0.0, 2022-09-19 17:49:35.761
88.0, -40912.40953354949, -33734.0126912609, -43200.02117157235, -40065.94897102701, -56308.62639053183, 187500.0, -37699.43567507692, -39777.61146755356, 0.78, -0.626, 0.226, 192.0, 0.0, 0.0, 0.0, 0.0, 0.0, 0.0, 0.0, 0.0, 0.0, 1.6635917757670715E9, 0.0, 2022-09-19 17:49:35.767
89.0, -40921.32787958716, -33721.29454866583, -43202.88219486263, -40023.68182226203, -56278.71975645063, 187500.0, -37964.013274194396, -39723.967280860816, 0.78, -0.626, 0.226, 192.0, 0.0, 0.0, 0.0, 0.0, 0.0, 0.0, 0.0, 0.0, 0.0, 1.6635917757709484E9, 0.0, 2022-09-19 17:49:35.770
90.0, -40897.187995575434, -33685.263536603874, -43167.700549089976, -40001.017153384346, -56245.99680256806, 187500.0, -37954.69259675653, -39705.84001610756, 0.78, -0.626, 0.226, 192.0, 0.0, 0.0, 0.0, 0.0, 0.0, 0.0, 0.0, 0.0, 0.0, 1.6635917757749376E9, 0.0, 2022-09-19 17:49:35.774
91.0, -40889.11901582706, -33683.09541739171, -43160.79386005329, -40017.803313470286, -56254.95985209464, 187500.0, -37829.16519989553, -39728.75055417425, 0.78, -0.626, 0.226, 192.0, 0.0, 0.0, 0.0, 0.0, 0.0, 0.0, 0.0, 0.0, 0.0, 1.6635917757789314E9, 0.0, 2022-09-19 17:49:35.778
92.0, -40895.310449041186, -33697.62405128766, -43158.961017007954, -40051.73326155344, -56280.26202681805, 187500.0, -37634.32504347862, -39771.6882552729, 0.78, -0.626, 0.226, 192.0, 0.0, 0.0, 0.0, 0.0, 0.0, 0.0, 0.0, 0.0, 0.0, 1.6635917757829223E9, 0.0, 2022-09-19 17:49:35.782
93.0, -40926.66994651198, -33724.088516722746, -43196.73546513742, -40059.28815117933, -56308.0899486649, 187500.0, -37712.8020182612, -39771.75531050626, 0.78, -0.626, 0.226, 192.0, 0.0, 0.0, 0.0, 0.0, 0.0, 0.0, 0.0, 0.0, 0.0, 1.6635917757870324E9, 0.0, 2022-09-19 17:49:35.787
94.0, -40919.18211211945, -33702.07204843427, -43202.05518031778, -40008.370877310146, -56280.932579151704, 187500.0, -37970.96466671999, -39708.14224578646, 0.78, -0.626, 0.226, 192.0, 0.0, 0.0, 0.0, 0.0, 0.0, 0.0, 0.0, 0.0, 0.0, 1.663591775789894E9, 0.0, 2022-09-19 17:49:35.789
95.0, -40897.322106042164, -33689.130388394646, -43183.21265974196, -40010.42723780003, -56272.215398814136, 187500.0, -37971.679922542564, -39713.88664411147, 0.778, -0.628, 0.224, 192.0, 24.0, 80.0, 236.0, 96.0, 7.0, 0.0, 0.0, 0.0, 0.0, 1.6635917757949193E9, 0.0, 2022-09-19 17:49:35.794
96.0, -40896.51744324177, -33694.38304834164, -43163.27490368782, -40022.407772828075, -56268.79558191247, 187500.0, -37832.87558947511, -39729.73403093029, 0.778, -0.628, 0.224, 192.0, 0.0, 0.0, 0.0, 0.0, 0.0, 0.0, 0.0, 0.0, 0.0, 1.663591775798915E9, 0.0, 2022-09-19 17:49:35.798
97.0, -40894.125806585056, -33702.31791762327, -43147.718089546936, -40048.492258607424, -56280.41848902923, 187500.0, -37630.882874832496, -39762.077005157116, 0.778, -0.628, 0.224, 192.0, 0.0, 0.0, 0.0, 0.0, 0.0, 0.0, 0.0, 0.0, 0.0, 1.663591775803004E9, 0.0, 2022-09-19 17:49:35.803
98.0, -40919.070353397175, -33718.03119397535, -43188.57707841123, -40061.16569771358, -56311.91209696676, 187500.0, -37721.2509776653, -39772.001179695275, 0.778, -0.628, 0.224, 192.0, 0.0, 0.0, 0.0, 0.0, 0.0, 0.0, 0.0, 0.0, 0.0, 1.6635917758070128E9, 0.0, 2022-09-19 17:49:35.807
99.0, -40912.633050994045, -33694.293641363816, -43190.0969970342, -40015.702249491485, -56281.1337448518, 187500.0, -37976.08321620026, -39718.155827302435, 0.778, -0.628, 0.224, 192.0, 0.0, 0.0, 0.0, 0.0, 0.0, 0.0, 0.0, 0.0, 0.0, 1.6635917758109736E9, 0.0, 2022-09-19 17:49:35.810
100.0, -40896.67390545296, -33679.98852491242, -43160.23506644191, -40002.44766502949, -56255.496293961565, 187500.0, -37961.88985847114, -39708.030487064185, 0.778, -0.628, 0.224, 192.0, 0.0, 0.0, 0.0, 0.0, 0.0, 0.0, 0.0, 0.0, 0.0, 1.6635917758149352E9, 0.0, 2022-09-19 17:49:35.814
101.0, -40888.06848383766, -33677.41807430006, -43151.29436865978, -40014.76347622436, -56257.1279713068, 187500.0, -37832.361499352635, -39721.82151339311, 0.778, -0.628, 0.224, 192.0, 0.0, 0.0, 0.0, 0.0, 0.0, 0.0, 0.0, 0.0, 0.0, 1.6635917758179948E9, 0.0, 2022-09-19 17:49:35.817
102.0, -40893.72347518486, -33682.46956854696, -43149.506229103354, -40045.765345783875, -56276.90926514975, 187500.0, -37629.18414225389, -39759.908885944955, 0.778, -0.628, 0.224, 192.0, 0.0, 0.0, 0.0, 0.0, 0.0, 0.0, 0.0, 0.0, 0.0, 1.6635917758229928E9, 0.0, 2022-09-19 17:49:35.822
103.0, -40898.26087930929, -33710.31984213828, -43187.191270255, -40056.2036104445, -56302.90434395127, 187500.0, -37713.47257059486, -39764.178069135916, 0.778, -0.628, 0.224, 192.0, 0.0, 0.0, 0.0, 0.0, 0.0, 0.0, 0.0, 0.0, 0.0, 1.663591775826964E9, 0.0, 2022-09-19 17:49:35.826
104.0, -40912.40953354949, -33706.92237698107, -43192.801558113286, -40017.35627858118, -56279.94910239567, 187500.0, -37978.02781796787, -39716.23357727928, 0.778, -0.628, 0.224, 192.0, 0.0, 0.0, 0.0, 0.0, 0.0, 0.0, 0.0, 0.0, 0.0, 1.6635917758309894E9, 0.0, 2022-09-19 17:49:35.830
105.0, -40894.125806585056, -33671.56191725277, -43162.313778676245, -40000.27954581732, -56255.2280730281, 187500.0, -37959.76644274789, -39702.88958583946, 0.774, -0.636, 0.226, 192.0, 24.0, 48.0, 236.0, 32.0, 7.0, 16.0, 0.0, 0.0, 0.0, 1.6635917758349848E9, 0.0, 2022-09-19 17:49:35.834
106.0, -40865.80614636018, -33646.41620474055, -43135.42463009652, -39998.31259230526, -56239.51479667602, 187500.0, -37815.55298752225, -39706.53292018568, 0.774, -0.636, 0.226, 192.0, 0.0, 0.0, 0.0, 0.0, 0.0, 0.0, 0.0, 0.0, 0.0, 1.6635917758389924E9, 0.0, 2022-09-19 17:49:35.838
107.0, -40873.15987028598, -33672.85831843118, -43144.566493578735, -40043.57487482725, -56273.95883488165, 187500.0, -37618.2764909597, -39764.11101390255, 0.774, -0.636, 0.226, 192.0, 0.0, 0.0, 0.0, 0.0, 0.0, 0.0, 0.0, 0.0, 0.0, 1.6635917758420515E9, 0.0, 2022-09-19 17:49:35.842
108.0, -40912.968327160874, -33704.12840892415, -43193.494462191404, -40057.14238371162, -56307.32998935342, 187500.0, -37710.7009542824, -39768.38019709352, 0.774, -0.636, 0.226, 192.0, 0.0, 0.0, 0.0, 0.0, 0.0, 0.0, 0.0, 0.0, 0.0, 1.6635917758460937E9, 0.0, 2022-09-19 17:49:35.846
109.0, -40918.802132463716, -33698.272251876864, -43197.67423840454, -40015.38932506911, -56275.79167792698, 187500.0, -37965.689655028546, -39713.81958887811, 0.774, -0.636, 0.226, 192.0, 0.0, 0.0, 0.0, 0.0, 0.0, 0.0, 0.0, 0.0, 0.0, 1.6635917758510697E9, 0.0, 2022-09-19 17:49:35.851
110.0, -40890.3036582832, -33671.27134457485, -43158.84925828568, -39996.01036262636, -56243.47105544461, 187500.0, -37938.197009348514, -39696.34052471406, 0.774, -0.636, 0.226, 192.0, 0.0, 0.0, 0.0, 0.0, 0.0, 0.0, 0.0, 0.0, 0.0, 1.6635917758550644E9, 0.0, 2022-09-19 17:49:35.855
111.0, -40885.0509983362, -33674.445292287506, -43152.456659371455, -40018.987955926415, -56253.462285216134, 187500.0, -37806.00879263983, -39728.236464051784, 0.774, -0.636, 0.226, 192.0, 0.0, 0.0, 0.0, 0.0, 0.0, 0.0, 0.0, 0.0, 0.0, 1.663591775859126E9, 0.0, 2022-09-19 17:49:35.859
112.0, -40896.47273975286, -33697.355830354194, -43152.90369426057, -40057.18708720054, -56277.646872716774, 187500.0, -37613.49321764627, -39776.762101264256, 0.774, -0.636, 0.226, 192.0, 0.0, 0.0, 0.0, 0.0, 0.0, 0.0, 0.0, 0.0, 0.0, 1.6635917758631427E9, 0.0, 2022-09-19 17:49:35.863
113.0, -40924.83710346664, -33724.557903356304, -43193.06977904675, -40063.512630881385, -56305.29598060799, 187500.0, -37719.105210197595, -39772.0905866731, 0.774, -0.636, 0.226, 192.0, 0.0, 0.0, 0.0, 0.0, 0.0, 0.0, 0.0, 0.0, 0.0, 1.6635917758670316E9, 0.0, 2022-09-19 17:49:35.867
114.0, -40921.663155753995, -33701.33444086724, -43188.532374922324, -40007.1415313651, -56267.722698178615, 187500.0, -37959.83349798125, -39705.61649866301, 0.774, -0.636, 0.226, 192.0, 0.0, 0.0, 0.0, 0.0, 0.0, 0.0, 0.0, 0.0, 0.0, 1.6635917758710272E9, 0.0, 2022-09-19 17:49:35.871
115.0, -40869.82946036213, -33668.03034162883, -43152.36725239363, -39985.437987499, -56238.24074724207, 187500.0, -37919.93563412853, -39701.168501516404, 0.782, -0.634, 0.222, 192.0, 24.0, 112.0, 236.0, 48.0, 6.0, 240.0, 0.0, 0.0, 0.0, 1.6635917758740933E9, 0.0, 2022-09-19 17:49:35.874
116.0, -40873.22692551934, -33683.76596972537, -43153.19426693848, -40017.445685558996, -56265.30870977744, 187500.0, -37790.18375756547, -39746.766060205235, 0.782, -0.634, 0.222, 192.0, 0.0, 0.0, 0.0, 0.0, 0.0, 0.0, 0.0, 0.0, 0.0, 1.6635917758780596E9, 0.0, 2022-09-19 17:49:35.878
117.0, -40894.05875135169, -33697.780513498845, -43159.36334840815, -40059.26579943488, -56300.13272763881, 187500.0, -37604.50781637523, -39795.22464218434, 0.782, -0.634, 0.222, 192.0, 0.0, 0.0, 0.0, 0.0, 0.0, 0.0, 0.0, 0.0, 0.0, 1.6635917758830888E9, 0.0, 2022-09-19 17:49:35.883
118.0, -40929.28510061325, -33724.17792370056, -43197.02603781534, -40057.34354941172, -56318.95289647018, 187500.0, -37718.65817530849, -39778.17026116494, 0.782, -0.634, 0.222, 192.0, 0.0, 0.0, 0.0, 0.0, 0.0, 0.0, 0.0, 0.0, 0.0, 1.663591775887087E9, 0.0, 2022-09-19 17:49:35.887
119.0, -40929.93330120246, -33714.27610090686, -43201.20581402848, -40016.462208802965, -56292.0860996349, 187500.0, -37967.768367262885, -39726.403621006444, 0.782, -0.634, 0.222, 192.0, 0.0, 0.0, 0.0, 0.0, 0.0, 0.0, 0.0, 0.0, 0.0, 1.6635917758910587E9, 0.0, 2022-09-19 17:49:35.891
120.0, -40913.750638216814, -33697.13231290964, -43173.2437817149, -40008.32617382123, -56267.56623596743, 187500.0, -37946.84713445272, -39722.33560351558, 0.782, -0.634, 0.222, 192.0, 0.0, 0.0, 0.0, 0.0, 0.0, 0.0, 0.0, 0.0, 0.0, 1.6635917758941135E9, 0.0, 2022-09-19 17:49:35.894
121.0, -40890.415417005475, -33681.32962957974, -43150.91438900404, -40014.18233086853, -56262.335927764885, 187500.0, -37811.21674909792, -39734.09262109907, 0.782, -0.634, 0.222, 192.0, 0.0, 0.0, 0.0, 0.0, 0.0, 0.0, 0.0, 0.0, 0.0, 1.6635917758980947E9, 0.0, 2022-09-19 17:49:35.898
122.0, -40890.70598968339, -33688.66100176108, -43159.00572049686, -40049.54279059682, -56291.639064745796, 187500.0, -37623.35033695106, -39776.605639053065, 0.782, -0.634, 0.222, 192.0, 0.0, 0.0, 0.0, 0.0, 0.0, 0.0, 0.0, 0.0, 0.0, 1.6635917759021409E9, 0.0, 2022-09-19 17:49:35.902
123.0, -40920.590272020134, -33714.45491486251, -43204.73738965242, -40056.33772091124, -56318.841137747906, 187500.0, -37738.17124821797, -39773.454043084865, 0.782, -0.634, 0.222, 192.0, 0.0, 0.0, 0.0, 0.0, 0.0, 0.0, 0.0, 0.0, 0.0, 1.6635917759061084E9, 0.0, 2022-09-19 17:49:35.906
124.0, -40916.94693767392, -33700.70859202249, -43200.6470204171, -40007.85678718767, -56286.27464607652, 187500.0, -37984.8674517712, -39716.50179821275, 0.782, -0.634, 0.222, 192.0, 0.0, 0.0, 0.0, 0.0, 0.0, 0.0, 0.0, 0.0, 0.0, 1.6635917759111967E9, 0.0, 2022-09-19 17:49:35.911
125.0, -40896.74096068632, -33685.01766741487, -43168.39345316809, -39990.601240468175, -56261.307747519946, 187500.0, -37962.22513463797, -39705.48238819628, 0.786, -0.636, 0.226, 192.0, 24.0, 144.0, 236.0, 32.0, 7.0, 16.0, 0.0, 0.0, 0.0, 1.66359177591518E9, 0.0, 2022-09-19 17:49:35.915
126.0, -40870.03062606223, -33680.32380107925, -43156.077641973214, -40008.32617382123, -56264.10171557686, 187500.0, -37820.73859223587, -39734.740821688276, 0.786, -0.636, 0.226, 192.0, 0.0, 0.0, 0.0, 0.0, 0.0, 0.0, 0.0, 0.0, 0.0, 1.663591775920185E9, 0.0, 2022-09-19 17:49:35.920
127.0, -40850.27168396374, -33660.29663804729, -43145.50526684586, -40034.12008692266, -56283.68184371971, 187500.0, -37618.74587759327, -39770.07892967212, 0.786, -0.636, 0.226, 192.0, 0.0, 0.0, 0.0, 0.0, 0.0, 0.0, 0.0, 0.0, 0.0, 1.6635917759242275E9, 0.0, 2022-09-19 17:49:35.924
128.0, -40893.49995774031, -33680.25674584589, -43186.230145243426, -40040.378575370145, -56312.76146325606, 187500.0, -37734.41615514948, -39762.32287434612, 0.786, -0.636, 0.226, 192.0, 0.0, 0.0, 0.0, 0.0, 0.0, 0.0, 0.0, 0.0, 0.0, 1.6635917759271154E9, 0.0, 2022-09-19 17:49:35.927
129.0, -40900.8536816661, -33680.05558014579, -43187.52654642183, -40000.90539466207, -56280.798468684974, 187500.0, -37986.34266690525, -39709.79627487616, 0.786, -0.636, 0.226, 192.0, 0.0, 0.0, 0.0, 0.0, 0.0, 0.0, 0.0, 0.0, 0.0, 1.6635917759301708E9, 0.0, 2022-09-19 17:49:35.930
130.0, -40869.851812106586, -33658.016760112856, -43156.77054605133, -39988.231955555915, -56256.189198039676, 187500.0, -37957.10658515771, -39700.7214666273, 0.786, -0.636, 0.226, 192.0, 0.0, 0.0, 0.0, 0.0, 0.0, 0.0, 0.0, 0.0, 0.0, 1.6635917759342391E9, 0.0, 2022-09-19 17:49:35.934
131.0, -40871.19291677391, -33660.20723106948, -43147.494572102376, -40004.191101097, -56262.626500442806, 187500.0, -37816.73762997838, -39721.9779756043, 0.786, -0.636, 0.226, 192.0, 0.0, 0.0, 0.0, 0.0, 0.0, 0.0, 0.0, 0.0, 0.0, 1.6635917759381735E9, 0.0, 2022-09-19 17:49:35.938
132.0, -40893.76817867377, -33685.688219748525, -43149.64033957009, -40039.77507826985, -56287.012253643545, 187500.0, -37627.68657537539, -39764.87097321403, 0.786, -0.636, 0.226, 192.0, 0.0, 0.0, 0.0, 0.0, 0.0, 0.0, 0.0, 0.0, 0.0, 1.663591775943272E9, 0.0, 2022-09-19 17:49:35.943
133.0, -40884.33574251363, -33696.43940883153, -43181.02218878534, -40036.62348230166, -56306.36886434184, 187500.0, -37746.41904192198, -39752.01872015223, 0.786, -0.636, 0.226, 192.0, 0.0, 0.0, 0.0, 0.0, 0.0, 0.0, 0.0, 0.0, 0.0, 1.66359177594724E9, 0.0, 2022-09-19 17:49:35.947
134.0, -40886.056826836684, -33677.798053955805, -43178.45173817298, -39991.7411794354, -56274.00353837056, 187500.0, -37991.08123672977, -39697.5698706591, 0.786, -0.636, 0.226, 192.0, 0.0, 0.0, 0.0, 0.0, 0.0, 0.0, 0.0, 0.0, 0.0, 1.663591775950152E9, 0.0, 2022-09-19 17:49:35.950
135.0, -40877.13848079902, -33665.95162939449, -43149.595636081176, -39986.24265029939, -56253.28347126049, 187500.0, -37965.15321316162, -39700.74381837175, 0.78, -0.636, 0.23, 192.0, 24.0, 96.0, 236.0, 32.0, 7.0, 48.0, 0.0, 0.0, 0.0, 1.6635917759541492E9, 0.0, 2022-09-19 17:49:35.954
136.0, -40874.63508542003, -33670.35492305218, -43134.82113299622, -40005.286336575315, -56259.72077366362, 187500.0, -37834.35080460916, -39726.694193684365, 0.78, -0.636, 0.23, 192.0, 0.0, 0.0, 0.0, 0.0, 0.0, 0.0, 0.0, 0.0, 0.0, 1.6635917759583197E9, 0.0, 2022-09-19 17:49:35.958
137.0, -40872.86929760806, -33676.21108009948, -43128.22736838191, -40029.56033105378, -56277.82568667242, 187500.0, -37635.576741168115, -39754.38800506449, 0.78, -0.636, 0.23, 192.0, 0.0, 0.0, 0.0, 0.0, 0.0, 0.0, 0.0, 0.0, 0.0, 1.6635917759623117E9, 0.0, 2022-09-19 17:49:35.962
138.0, -40908.25210908081, -33710.67747004956, -43181.93861030801, -40047.93346499604, -56317.88001273633, 187500.0, -37757.840783338645, -39764.35688309156, 0.78, -0.636, 0.23, 192.0, 0.0, 0.0, 0.0, 0.0, 0.0, 0.0, 0.0, 0.0, 0.0, 1.6635917759662957E9, 0.0, 2022-09-19 17:49:35.966
139.0, -40909.99554514832, -33707.54822582581, -43190.23110750093, -40014.53995877981, -56294.365977569345, 187500.0, -37987.75082680593, -39723.98963260528, 0.78, -0.636, 0.23, 192.0, 0.0, 0.0, 0.0, 0.0, 0.0, 0.0, 0.0, 0.0, 0.0, 1.6635917759713109E9, 0.0, 2022-09-19 17:49:35.971
140.0, -40878.65839942198, -33682.78249296934, -43159.83273504171, -40002.82764468523, -56270.89664589127, 187500.0, -37955.45255606801, -39719.04989708065, 0.78, -0.636, 0.23, 192.0, 0.0, 0.0, 0.0, 0.0, 0.0, 0.0, 0.0, 0.0, 0.0, 1.663591775975221E9, 0.0, 2022-09-19 17:49:35.975
141.0, -40866.70021613839, -33679.22856560094, -43137.011603952844, -40007.85678718767, -56266.605110955854, 187500.0, -37811.037935142274, -39732.28212979819, 0.78, -0.636, 0.23, 192.0, 0.0, 0.0, 0.0, 0.0, 0.0, 0.0, 0.0, 0.0, 0.0, 1.66359177597829E9, 0.0, 2022-09-19 17:49:35.978
142.0, -40875.05976856468, -33695.120655908664, -43138.17389466452, -40042.68080504904, -56294.634198502805, 187500.0, -37608.73229607729, -39775.62216229703, 0.78, -0.636, 0.23, 192.0, 0.0, 0.0, 0.0, 0.0, 0.0, 0.0, 0.0, 0.0, 0.0, 1.66359177598225E9, 0.0, 2022-09-19 17:49:35.982
143.0, -40911.11313237109, -33722.27802542186, -43192.28746799081, -40047.32996789575, -56325.189033173214, 187500.0, -37741.32284418617, -39769.31897036063, 0.78, -0.636, 0.23, 192.0, 0.0, 0.0, 0.0, 0.0, 0.0, 0.0, 0.0, 0.0, 0.0, 1.6635917759863467E9, 0.0, 2022-09-19 17:49:35.986
144.0, -40905.83812067963, -33703.21198740149, -43188.2418022444, -40002.82764468523, -56285.268817576034, 187500.0, -37975.59147782224, -39710.31036499862, 0.78, -0.636, 0.23, 192.0, 0.0, 0.0, 0.0, 0.0, 0.0, 0.0, 0.0, 0.0, 0.0, 1.6635917759903622E9, 0.0, 2022-09-19 17:49:35.990
145.0, -40898.32793454265, -33694.69597276401, -43167.1864589675, -40019.055011159784, -56275.210532571145, 187500.0, -37946.310692585794, -39730.38223151949, 0.78, -0.636, 0.23, 192.0, 0.0, 0.0, 0.0, 0.0, 0.0, 0.0, 0.0, 0.0, 0.0, 1.66359177599435E9, 0.0, 2022-09-19 17:49:35.994
146.0, -40877.60786743258, -33688.72805699445, -43137.078659186205, -40020.70904024947, -56262.91707312073, 187500.0, -37788.28385928677, -39735.41137402193, 0.772, -0.636, 0.228, 192.0, 24.0, 32.0, 236.0, 32.0, 7.0, 32.0, 0.0, 0.0, 0.0, 1.6635917759983623E9, 0.0, 2022-09-19 17:49:35.998
147.0, -40873.204573774885, -33693.62308903016, -43140.856103999155, -40051.152116197605, -56282.51955300803, 187500.0, -37595.67887731539, -39772.80584249566, 0.772, -0.636, 0.228, 192.0, 0.0, 0.0, 0.0, 0.0, 0.0, 0.0, 0.0, 0.0, 0.0, 1.6635917760032828E9, 0.0, 2022-09-19 17:49:36.003
148.0, -40898.81967292067, -33705.6036240582, -43179.25640097337, -40039.886836992126, -56290.47677403412, 187500.0, -37728.64940508001, -39746.98957764979, 0.772, -0.636, 0.228, 192.0, 0.0, 0.0, 0.0, 0.0, 0.0, 0.0, 0.0, 0.0, 0.0, 1.663591776006352E9, 0.0, 2022-09-19 17:49:36.006
149.0, -40890.66128619448, -33691.18674888453, -43178.98818003991, -40001.39713304009, -56263.118238820825, 187500.0, -37967.27662888487, -39699.4697689378, 0.772, -0.636, 0.228, 192.0, 0.0, 0.0, 0.0, 0.0, 0.0, 0.0, 0.0, 0.0, 0.0, 1.6635917760103552E9, 0.0, 2022-09-19 17:49:36.010
150.0, -40882.07821632364, -33684.995315670414, -43153.30602566076, -40004.168749352546, -56251.09300030387, 187500.0, -37938.15230585961, -39712.76905688871, 0.772, -0.636, 0.228, 192.0, 0.0, 0.0, 0.0, 0.0, 0.0, 0.0, 0.0, 0.0, 0.0, 1.6635917760143301E9, 0.0, 2022-09-19 17:49:36.014
151.0, -40879.485413966824, -33692.32668785175, -43142.35367087766, -40027.7498397529, -56268.214436556635, 187500.0, -37806.16525485102, -39749.984711406796, 0.772, -0.636, 0.228, 192.0, 0.0, 0.0, 0.0, 0.0, 0.0, 0.0, 0.0, 0.0, 0.0, 1.66359177601832E9, 0.0, 2022-09-19 17:49:36.018
152.0, -40892.158853072986, -33713.516141595384, -43151.5849413377, -40064.563162870785, -56304.066634662944, 187500.0, -37622.54567415067, -39798.4432933859, 0.772, -0.636, 0.228, 192.0, 0.0, 0.0, 0.0, 0.0, 0.0, 0.0, 0.0, 0.0, 0.0, 1.663591776022316E9, 0.0, 2022-09-19 17:49:36.022
153.0, -40905.86047242409, -33715.50544685191, -43181.67038937454, -40036.42231660156, -56297.718739237636, 187500.0, -37747.223704722375, -39756.600827765564, 0.772, -0.636, 0.228, 192.0, 0.0, 0.0, 0.0, 0.0, 0.0, 0.0, 0.0, 0.0, 0.0, 1.6635917760263293E9, 0.0, 2022-09-19 17:49:36.026
154.0, -40892.71764668437, -33693.62308903016, -43170.76273808035, -39987.51669973334, -56253.84226487187, 187500.0, -37970.160003919606, -39693.03246653467, 0.772, -0.636, 0.228, 192.0, 0.0, 0.0, 0.0, 0.0, 0.0, 0.0, 0.0, 0.0, 0.0, 1.6635917760314124E9, 0.0, 2022-09-19 17:49:36.031
155.0, -40875.95383834289, -33682.60367901369, -43147.60633082466, -39996.412694026556, -56251.20475902614, 187500.0, -37942.22032335047, -39708.589280675566, 0.772, -0.636, 0.228, 192.0, 0.0, 0.0, 0.0, 0.0, 0.0, 0.0, 0.0, 0.0, 0.0, 1.6635917760343676E9, 0.0, 2022-09-19 17:49:36.034
156.0, -40870.12003304005, -33690.918527951064, -43144.32062438973, -40026.051107174295, -56271.38838426929, 187500.0, -37807.7745804518, -39746.65430148295, 0.778, -0.634, 0.228, 192.0, 24.0, 80.0, 236.0, 48.0, 7.0, 32.0, 0.0, 0.0, 0.0, 1.6635917760383296E9, 0.0, 2022-09-19 17:49:36.038
157.0, -40886.79443440371, -33708.86697874868, -43150.5344093483, -40057.567066856274, -56292.80135545747, 187500.0, -37621.71865960582, -39780.89717398849, 0.778, -0.634, 0.228, 192.0, 0.0, 0.0, 0.0, 0.0, 0.0, 0.0, 0.0, 0.0, 0.0, 1.6635917760423706E9, 0.0, 2022-09-19 17:49:36.042
158.0, -40904.34055380113, -33714.38785962914, -43178.38468293961, -40037.62931080214, -56287.95102691067, 187500.0, -37754.063338525695, -39744.463830526336, 0.778, -0.634, 0.228, 192.0, 0.0, 0.0, 0.0, 0.0, 0.0, 0.0, 0.0, 0.0, 0.0, 1.663591776046339E9, 0.0, 2022-09-19 17:49:36.046
159.0, -40892.20355656189, -33699.747467010915, -43172.237953214404, -40002.67118247404, -56257.798523640464, 187500.0, -37983.70516105952, -39707.471693452804, 0.778, -0.634, 0.228, 192.0, 0.0, 0.0, 0.0, 0.0, 0.0, 0.0, 0.0, 0.0, 0.0, 1.6635917760505085E9, 0.0, 2022-09-19 17:49:36.050
160.0, -40892.71764668437, -33701.78147575635, -43157.30698791826, -40013.08709539021, -56255.80921838394, 187500.0, -37949.93167518755, -39727.34239427357, 0.778, -0.634, 0.228, 192.0, 0.0, 0.0, 0.0, 0.0, 0.0, 0.0, 0.0, 0.0, 0.0, 1.663591776054407E9, 0.0, 2022-09-19 17:49:36.054
161.0, -40858.78769860121, -33677.865109189166, -43137.32452837521, -40015.143455880105, -56248.500197947054, 187500.0, -37798.90093790304, -39732.48329549829, 0.778, -0.634, 0.228, 192.0, 0.0, 0.0, 0.0, 0.0, 0.0, 0.0, 0.0, 0.0, 0.0, 1.6635917760594387E9, 0.0, 2022-09-19 17:49:36.059
