%OpenBCI Raw EEG Data
%Number of channels = 8
%Sample Rate = 250 Hz
%Board = OpenBCI_GUI$BoardCytonSerial
Sample Index, EXG Channel 0, EXG Channel 1, EXG Channel 2, EXG Channel 3, EXG Channel 4, EXG Channel 5, EXG Channel 6, EXG Channel 7, Accel Channel 0, Accel Channel 1, Accel Channel 2, Other, Other, Other, Other, Other, Other, Other, Analog Channel 0, Analog Channel 1, Analog Channel 2, Timestamp, Other, Timestamp (Formatted)
33.0, 23645.195203446772, 55792.45755582542, -38754.57212383415, -4954.018289329802, -187500.02235174447, -102077.28768316361, 10693.856858474834, -36996.65212591316, 0.0, 0.0, 0.0, 192.0, 0.0, 0.0, 0.0, 0.0, 0.0, 0.0, 0.0, 0.0, 0.0, 1.6635911639387963E9, 0.0, 2022-09-19 17:39:23.938
34.0, 23957.225556042857, 55824.82288179671, -38797.06279004369, -5021.140577929089, -187500.02235174447, -101535.01201093341, 11130.565241642624, -37070.3011238934, 0.0, 0.0, 0.0, 192.0, 0.0, 0.0, 0.0, 0.0, 0.0, 0.0, 0.0, 0.0, 0.0, 1.6635911639388516E9, 0.0, 2022-09-19 17:39:23.938
35.0, 23857.983810661295, 55787.92015170099, -38774.733397332835, -4944.071763047191, -187500.02235174447, -101464.76047811037, 10512.427748731106, -36928.79222974685, 0.0, 0.0, 0.0, 192.0, 0.0, 0.0, 0.0, 0.0, 0.0, 0.0, 0.0, 0.0, 0.0, 1.66359116393887E9, 0.0, 2022-09-19 17:39:23.938
0.0, 0.0, 0.0, 0.0, 0.0, 0.0, 0.0, 0.0, 0.0, 0.656, -0.752, 0.20400000000000001, 192.0, 20.0, 128.0, 232.0, 128.0, 6.0, 96.0, 0.0, 0.0, 0.0, 1.663591164000172E9, 0.0, 2022-09-19 17:39:24.000
1.0, 14172.145923631899, 53788.55661017378, -39254.044205432445, -7527.084055791385, -187500.02235174447, -44465.018149020456, -1086.0489113389149, -27846.742015688662, 0.656, -0.752, 0.20400000000000001, 192.0, 0.0, 0.0, 0.0, 0.0, 0.0, 0.0, 0.0, 0.0, 0.0, 1.6635911640151913E9, 0.0, 2022-09-19 17:39:24.015
2.0, 14090.271483692108, 53756.928891769516, -39268.796356772946, -7531.085018048885, -187500.02235174447, -44773.38281552587, -741.317956604714, -27904.543626850085, 0.656, -0.752, 0.20400000000000001, 192.0, 0.0, 0.0, 0.0, 0.0, 0.0, 0.0, 0.0, 0.0, 0.0, 1.6635911640192137E9, 0.0, 2022-09-19 17:39:24.019
3.0, 14306.50225955275, 53737.6840397935, -39297.652458864744, -7555.381364271804, -187500.02235174447, -44443.336956898806, -260.5319333710591, -27976.985630629737, 0.656, -0.752, 0.20400000000000001, 192.0, 0.0, 0.0, 0.0, 0.0, 0.0, 0.0, 0.0, 0.0, 0.0, 1.663591164023254E9, 0.0, 2022-09-19 17:39:24.023
4.0, 14704.855049235231, 53685.671530446, -39316.58438641839, -7573.508629025058, -187500.02235174447, -43654.54389507102, 55.29821578242967, -28013.418974091885, 0.656, -0.752, 0.20400000000000001, 192.0, 0.0, 0.0, 0.0, 0.0, 0.0, 0.0, 0.0, 0.0, 0.0, 1.6635911640283518E9, 0.0, 2022-09-19 17:39:24.028
5.0, 14478.230712202874, 53524.94013606789, -39271.500917852034, -7520.736160366078, -187500.02235174447, -43971.53633493619, -682.711682642899, -27903.917778005336, 0.656, -0.752, 0.20400000000000001, 192.0, 0.0, 0.0, 0.0, 0.0, 0.0, 0.0, 0.0, 0.0, 0.0, 1.6635911640312395E9, 0.0, 2022-09-19 17:39:24.031
6.0, 14001.87033437137, 53421.69742842882, -39238.57679826937, -7473.305758631916, -187500.02235174447, -44971.37456791098, -1086.9653328615825, -27856.55443150454, 0.656, -0.752, 0.20400000000000001, 192.0, 0.0, 0.0, 0.0, 0.0, 0.0, 0.0, 0.0, 0.0, 0.0, 1.6635911640342307E9, 0.0, 2022-09-19 17:39:24.034
7.0, 13917.023112419023, 53393.8024513486, -39261.666150291705, -7472.836371998355, -187500.02235174447, -45287.003551364374, -750.5492270647559, -27895.17824592331, 0.656, -0.752, 0.20400000000000001, 192.0, 0.0, 0.0, 0.0, 0.0, 0.0, 0.0, 0.0, 0.0, 0.0, 1.6635911640393405E9, 0.0, 2022-09-19 17:39:24.039
8.0, 14128.694132410781, 53356.206817174774, -39289.60583086083, -7506.453395659137, -187500.02235174447, -44956.64476831493, -270.567866631492, -27970.01188635968, 0.654, -0.742, 0.2, 192.0, 20.0, 112.0, 232.0, 208.0, 6.0, 64.0, 0.0, 0.0, 0.0, 1.66359116404331E9, 0.0, 2022-09-19 17:39:24.043
9.0, 14539.630954221602, 53308.30702880705, -39310.392953204275, -7539.623384430813, -187500.02235174447, -44142.19190385246, 54.51590472649393, -28024.93012248637, 0.654, -0.742, 0.2, 192.0, 0.0, 0.0, 0.0, 0.0, 0.0, 0.0, 0.0, 0.0, 0.0, 1.6635911640473485E9, 0.0, 2022-09-19 17:39:24.047
10.0, 14312.559582300137, 53148.84968386289, -39276.35124639884, -7514.790596340967, -187500.02235174447, -44464.7946315759, -695.4521769824239, -27926.493039905195, 0.654, -0.742, 0.2, 192.0, 0.0, 0.0, 0.0, 0.0, 0.0, 0.0, 0.0, 0.0, 0.0, 1.6635911640533628E9, 0.0, 2022-09-19 17:39:24.053
11.0, 13857.634527401273, 53055.55350250644, -39225.38926904074, -7456.51959854598, -187500.02235174447, -45463.939960472584, -1072.369643732267, -27843.679826698284, 0.654, -0.742, 0.2, 192.0, 0.0, 0.0, 0.0, 0.0, 0.0, 0.0, 0.0, 0.0, 0.0, 1.6635911640563447E9, 0.0, 2022-09-19 17:39:24.056
12.0, 13791.67452951366, 53001.52933615796, -39246.46696406209, -7465.795572494933, -187500.02235174447, -45767.96838855367, -723.5706715072002, -27883.71180101774, 0.654, -0.742, 0.2, 192.0, 0.0, 0.0, 0.0, 0.0, 0.0, 0.0, 0.0, 0.0, 0.0, 1.6635911640593424E9, 0.0, 2022-09-19 17:39:24.059
13.0, 14009.782851908549, 52929.6461259897, -39292.422150662205, -7508.979142782587, -187500.02235174447, -45418.67767795059, -250.87597976636647, -27960.57945019954, 0.654, -0.742, 0.2, 192.0, 0.0, 0.0, 0.0, 0.0, 0.0, 0.0, 0.0, 0.0, 0.0, 1.6635911640633686E9, 0.0, 2022-09-19 17:39:24.063
14.0, 14424.89944993251, 52845.35769764873, -39322.21702602113, -7537.6340791742905, -187500.02235174447, -44565.55629558043, 65.64707346523684, -28015.855314237513, 0.654, -0.742, 0.2, 192.0, 0.0, 0.0, 0.0, 0.0, 0.0, 0.0, 0.0, 0.0, 0.0, 1.6635911640673015E9, 0.0, 2022-09-19 17:39:24.067
15.0, 14208.087528716032, 52686.39209108259, -39289.91875528321, -7498.250305444039, -187500.02235174447, -44866.008444548665, -691.7641391472982, -27921.776821825126, 0.654, -0.742, 0.2, 192.0, 0.0, 0.0, 0.0, 0.0, 0.0, 0.0, 0.0, 0.0, 0.0, 1.6635911640713515E9, 0.0, 2022-09-19 17:39:24.071
16.0, 13734.543470685896, 52593.31942717069, -39253.23954263205, -7443.734400717545, -187500.02235174447, -45885.762081833134, -1089.111100329292, -27854.341608803465, 0.654, -0.742, 0.2, 192.0, 0.0, 0.0, 0.0, 0.0, 0.0, 0.0, 0.0, 0.0, 0.0, 1.6635911640753016E9, 0.0, 2022-09-19 17:39:24.075
17.0, 13670.70688852154, 52520.11746407956, -39256.972283956085, -7437.475912270059, -187500.02235174447, -46176.91590510797, -723.6824302294767, -27896.698164546273, 0.654, -0.742, 0.2, 192.0, 0.0, 0.0, 0.0, 0.0, 0.0, 0.0, 0.0, 0.0, 0.0, 1.663591164079366E9, 0.0, 2022-09-19 17:39:24.079
18.0, 13914.60912401785, 52424.384942577475, -39298.81474957642, -7463.694508516134, -187500.02235174447, -45781.044159060024, -243.18697967374084, -27960.512394966176, 0.654, -0.75, 0.196, 192.0, 20.0, 112.0, 232.0, 144.0, 6.0, 32.0, 0.0, 0.0, 0.0, 1.6635911640832891E9, 0.0, 2022-09-19 17:39:24.083
19.0, 14352.74801883078, 52352.658194620395, -39334.39872674927, -7500.619590356302, -187500.02235174447, -44876.983151076216, 79.37104456079538, -28018.179895660865, 0.654, -0.75, 0.196, 192.0, 0.0, 0.0, 0.0, 0.0, 0.0, 0.0, 0.0, 0.0, 0.0, 1.6635911640873816E9, 0.0, 2022-09-19 17:39:24.087
20.0, 14128.56002194405, 52192.351483386934, -39295.17141523021, -7481.218276169095, -187500.02235174447, -45173.30022732022, -693.1722990479826, -27931.9915690412, 0.654, -0.75, 0.196, 192.0, 0.0, 0.0, 0.0, 0.0, 0.0, 0.0, 0.0, 0.0, 0.0, 1.6635911640903375E9, 0.0, 2022-09-19 17:39:24.090
21.0, 13652.065533645813, 52115.50618594959, -39246.17639138417, -7437.7888366924335, -187500.02235174447, -46204.78853044374, -1082.78555664844, -27870.591327022474, 0.654, -0.75, 0.196, 192.0, 0.0, 0.0, 0.0, 0.0, 0.0, 0.0, 0.0, 0.0, 0.0, 1.6635911640953963E9, 0.0, 2022-09-19 17:39:24.095
22.0, 13579.087087999236, 52092.88622056082, -39270.09275795135, -7459.022993924975, -187500.02235174447, -46513.80139753836, -725.1576453635271, -27918.04408050109, 0.654, -0.75, 0.196, 192.0, 0.0, 0.0, 0.0, 0.0, 0.0, 0.0, 0.0, 0.0, 0.0, 1.6635911640993412E9, 0.0, 2022-09-19 17:39:24.099
23.0, 13819.994189738536, 52063.78424928001, -39317.14318002977, -7507.369817181804, -187500.02235174447, -46128.05499172866, -253.37937514536085, -28004.187703631844, 0.654, -0.75, 0.196, 192.0, 0.0, 0.0, 0.0, 0.0, 0.0, 0.0, 0.0, 0.0, 0.0, 1.6635911641034431E9, 0.0, 2022-09-19 17:39:24.103
24.0, 14256.34494499504, 51967.29176846645, -39345.686357699204, -7527.218166258117, -187500.02235174447, -45218.94248949796, 76.9347044151669, -28036.798898792138, 0.654, -0.75, 0.196, 192.0, 0.0, 0.0, 0.0, 0.0, 0.0, 0.0, 0.0, 0.0, 0.0, 1.6635911641073675E9, 0.0, 2022-09-19 17:39:24.107
25.0, 14038.884823189357, 51775.62555976219, -39311.33172647139, -7489.600180339835, -187500.02235174447, -45511.95150756258, -682.0411303092397, -27948.44245296031, 0.654, -0.75, 0.196, 192.0, 0.0, 0.0, 0.0, 0.0, 0.0, 0.0, 0.0, 0.0, 0.0, 1.6635911641113517E9, 0.0, 2022-09-19 17:39:24.111
26.0, 13576.181361220046, 51675.82502076925, -39260.86148749131, -7435.888938413733, -187500.02235174447, -46536.5331216494, -1069.9556553310938, -27886.61752779693, 0.654, -0.75, 0.196, 192.0, 0.0, 0.0, 0.0, 0.0, 0.0, 0.0, 0.0, 0.0, 0.0, 1.6635911641164994E9, 0.0, 2022-09-19 17:39:24.116
27.0, 13529.130939141625, 51615.944697373474, -39287.90709828223, -7435.576013991358, -187500.02235174447, -46812.06307554997, -725.1799971079823, -27912.836124043006, 0.654, -0.75, 0.196, 192.0, 0.0, 0.0, 0.0, 0.0, 0.0, 0.0, 0.0, 0.0, 0.0, 1.6635911641193738E9, 0.0, 2022-09-19 17:39:24.119
28.0, 13789.662872512685, 51560.802943802235, -39304.35798220134, -7458.084220657853, -187500.02235174447, -46392.073797234756, -230.51354056758174, -27983.624098732962, 0.66, -0.758, 0.19, 192.0, 20.0, 160.0, 232.0, 80.0, 5.0, 240.0, 0.0, 0.0, 0.0, 1.663591164123416E9, 0.0, 2022-09-19 17:39:24.123
29.0, 14241.324572721074, 51469.33960549112, -39334.421078493724, -7479.519543590492, -187500.02235174447, -45452.76408824493, 95.97839069108852, -28050.99225652126, 0.66, -0.758, 0.19, 192.0, 0.0, 0.0, 0.0, 0.0, 0.0, 0.0, 0.0, 0.0, 0.0, 1.6635911641273937E9, 0.0, 2022-09-19 17:39:24.127
30.0, 14020.668151458283, 51255.366355820464, -39295.86431930832, -7439.331107059849, -187500.02235174447, -45745.191960953714, -680.2753424972705, -27963.529880467642, 0.66, -0.758, 0.19, 192.0, 0.0, 0.0, 0.0, 0.0, 0.0, 0.0, 0.0, 0.0, 0.0, 1.6635911641314037E9, 0.0, 2022-09-19 17:39:24.131
31.0, 13535.612945033663, 51109.23065057166, -39254.7147577661, -7383.6082081327695, -187500.02235174447, -46802.65299113429, -1088.1276235732585, -27902.889597760393, 0.66, -0.758, 0.19, 192.0, 0.0, 0.0, 0.0, 0.0, 0.0, 0.0, 0.0, 0.0, 0.0, 1.6635911641354136E9, 0.0, 2022-09-19 17:39:24.135
32.0, 13479.688880406486, 51047.606891108386, -39274.13842369776, -7384.7257953555345, -187500.02235174447, -47094.27620104268, -733.8301222121862, -27932.326845208034, 0.66, -0.758, 0.19, 192.0, 0.0, 0.0, 0.0, 0.0, 0.0, 0.0, 0.0, 0.0, 0.0, 1.663591164139418E9, 0.0, 2022-09-19 17:39:24.139
33.0, 13741.405456233677, 50981.44572752067, -39313.23162475009, -7418.812205649878, -187500.02235174447, -46664.74272784504, -242.91875874027716, -27996.386944816943, 0.66, -0.758, 0.19, 192.0, 0.0, 0.0, 0.0, 0.0, 0.0, 0.0, 0.0, 0.0, 0.0, 1.6635911641434193E9, 0.0, 2022-09-19 17:39:24.143
34.0, 14207.126403704455, 50875.87843845826, -39351.16253509075, -7458.911235202699, -187500.02235174447, -45689.51376551554, 75.05715788092111, -28049.472337898296, 0.66, -0.758, 0.19, 192.0, 0.0, 0.0, 0.0, 0.0, 0.0, 0.0, 0.0, 0.0, 0.0, 1.6635911641464715E9, 0.0, 2022-09-19 17:39:24.146
35.0, 13991.38736622183, 50663.40275566611, -39306.10141826885, -7435.553662246903, -187500.02235174447, -45962.36151008147, -702.001238107829, -27951.012903572668, 0.66, -0.758, 0.19, 192.0, 0.0, 0.0, 0.0, 0.0, 0.0, 0.0, 0.0, 0.0, 0.0, 1.6635911641503904E9, 0.0, 2022-09-19 17:39:24.150
36.0, 13521.084311137714, 50556.15908576955, -39258.87218223479, -7384.479926166526, -187500.02235174447, -46994.5427172831, -1099.9293446456606, -27879.19674863777, 0.66, -0.758, 0.19, 192.0, 0.0, 0.0, 0.0, 0.0, 0.0, 0.0, 0.0, 0.0, 0.0, 1.6635911641554756E9, 0.0, 2022-09-19 17:39:24.155
37.0, 13475.039717559781, 50541.33987919568, -39264.303656137425, -7385.1951819890955, -187500.02235174447, -47258.06978441117, -730.6561744995325, -27909.75158330817, 0.66, -0.758, 0.19, 192.0, 0.0, 0.0, 0.0, 0.0, 0.0, 0.0, 0.0, 0.0, 0.0, 1.6635911641594305E9, 0.0, 2022-09-19 17:39:24.159
38.0, 13742.992430090002, 50504.884183989074, -39290.946935528154, -7416.822900393356, -187500.02235174447, -46798.093235265405, -215.38140957133885, -27971.73297068274, 0.656, -0.754, 0.192, 192.0, 20.0, 128.0, 232.0, 112.0, 6.0, 0.0, 0.0, 0.0, 0.0, 1.6635911641634927E9, 0.0, 2022-09-19 17:39:24.163
39.0, 14209.562743850083, 50428.28475574074, -39331.94003485919, -7457.257206113006, -187500.02235174447, -45797.58444995695, 107.84716699685657, -28028.126421943478, 0.656, -0.754, 0.192, 192.0, 0.0, 0.0, 0.0, 0.0, 0.0, 0.0, 0.0, 0.0, 0.0, 1.6635911641674316E9, 0.0, 2022-09-19 17:39:24.167
40.0, 14016.06369210049, 50260.08787871455, -39286.051903492444, -7411.70435091309, -187500.02235174447, -46033.283595238165, -671.0440720372286, -27914.624263599428, 0.656, -0.754, 0.192, 192.0, 0.0, 0.0, 0.0, 0.0, 0.0, 0.0, 0.0, 0.0, 0.0, 1.6635911641705208E9, 0.0, 2022-09-19 17:39:24.170
41.0, 13552.06382895277, 50165.22707524623, -39241.61663551529, -7351.309937394851, -187500.02235174447, -47049.52800864315, -1069.910951842183, -27852.195841335757, 0.656, -0.754, 0.192, 192.0, 0.0, 0.0, 0.0, 0.0, 0.0, 0.0, 0.0, 0.0, 0.0, 1.6635911641744874E9, 0.0, 2022-09-19 17:39:24.174
42.0, 13510.981322643915, 50128.54786259507, -39272.998484730546, -7357.613129331247, -187500.02235174447, -47300.35928492061, -708.8632236556082, -27898.642766313886, 0.656, -0.754, 0.192, 192.0, 0.0, 0.0, 0.0, 0.0, 0.0, 0.0, 0.0, 0.0, 0.0, 1.663591164178526E9, 0.0, 2022-09-19 17:39:24.178
43.0, 13775.625976994752, 50097.70245524675, -39323.44637196617, -7390.22432449154, -187500.02235174447, -46832.55962521549, -229.7759330005566, -27971.352991026997, 0.656, -0.754, 0.192, 192.0, 0.0, 0.0, 0.0, 0.0, 0.0, 0.0, 0.0, 0.0, 0.0, 1.6635911641834536E9, 0.0, 2022-09-19 17:39:24.183
44.0, 14240.922241320879, 50052.775448891574, -39370.787366722514, -7423.439016752126, -187500.02235174447, -45814.37061004289, 70.43034677867256, -28022.22556140728, 0.656, -0.754, 0.192, 192.0, 0.0, 0.0, 0.0, 0.0, 0.0, 0.0, 0.0, 0.0, 0.0, 1.6635911641875482E9, 0.0, 2022-09-19 17:39:24.187
45.0, 14052.83231172947, 49904.31516221943, -39298.61358387632, -7370.2865684374065, -187500.02235174447, -46033.52946442717, -680.4318047084575, -27916.077126989025, 0.656, -0.754, 0.192, 192.0, 0.0, 0.0, 0.0, 0.0, 0.0, 0.0, 0.0, 0.0, 0.0, 1.6635911641915047E9, 0.0, 2022-09-19 17:39:24.191
46.0, 13592.811059094794, 49814.03646636444, -39242.44365006014, -7305.824137428301, -187500.02235174447, -47043.470685895765, -1061.30553022689, -27853.26872506961, 0.656, -0.754, 0.192, 192.0, 0.0, 0.0, 0.0, 0.0, 0.0, 0.0, 0.0, 0.0, 0.0, 1.663591164195524E9, 0.0, 2022-09-19 17:39:24.195
47.0, 13555.841273765716, 49800.67012318017, -39263.65545554822, -7306.226468828496, -187500.02235174447, -47284.71306380189, -689.9089443575078, -27898.307490147054, 0.656, -0.754, 0.192, 192.0, 0.0, 0.0, 0.0, 0.0, 0.0, 0.0, 0.0, 0.0, 0.0, 1.6635911641985443E9, 0.0, 2022-09-19 17:39:24.198
48.0, 13838.926117292182, 49769.75766059848, -39295.75256058604, -7334.21085288654, -187500.02235174447, -46791.76769158455, -189.45338600318266, -27958.500737965198, 0.656, -0.752, 0.186, 192.0, 20.0, 128.0, 232.0, 128.0, 5.0, 208.0, 0.0, 0.0, 0.0, 1.6635911642025285E9, 0.0, 2022-09-19 17:39:24.202
49.0, 14308.11158515353, 49718.348648351275, -39343.62999720931, -7390.805469847378, -187500.02235174447, -45766.82844958645, 118.33013514639559, -28025.623026564484, 0.656, -0.752, 0.186, 192.0, 0.0, 0.0, 0.0, 0.0, 0.0, 0.0, 0.0, 0.0, 0.0, 1.6635911642065501E9, 0.0, 2022-09-19 17:39:24.206
50.0, 14098.608684373938, 49589.82611773326, -39303.06158102293, -7381.194219731596, -187500.02235174447, -46011.468292649784, -667.3560342021029, -27951.28112450613, 0.656, -0.752, 0.186, 192.0, 0.0, 0.0, 0.0, 0.0, 0.0, 0.0, 0.0, 0.0, 0.0, 1.6635911642114832E9, 0.0, 2022-09-19 17:39:24.211
51.0, 13629.825547912784, 49524.58137566822, -39257.955760712124, -7322.8785184477, -187500.02235174447, -47037.949805015305, -1067.8098878633843, -27864.93633567528, 0.656, -0.752, 0.186, 192.0, 0.0, 0.0, 0.0, 0.0, 0.0, 0.0, 0.0, 0.0, 0.0, 1.6635911642166235E9, 0.0, 2022-09-19 17:39:24.216
52.0, 13583.132753745647, 49528.0905995477, -39295.03730476348, -7341.631632045703, -187500.02235174447, -47293.58670635065, -722.8330639401751, -27918.401708412377, 0.656, -0.752, 0.186, 192.0, 0.0, 0.0, 0.0, 0.0, 0.0, 0.0, 0.0, 0.0, 0.0, 1.6635911642195723E9, 0.0, 2022-09-19 17:39:24.219
53.0, 13881.305024779444, 49548.877721891135, -39320.78651437599, -7361.703498566569, -187500.02235174447, -46794.42754917473, -223.40568583079408, -27987.178026101355, 0.656, -0.752, 0.186, 192.0, 0.0, 0.0, 0.0, 0.0, 0.0, 0.0, 0.0, 0.0, 0.0, 1.663591164223551E9, 0.0, 2022-09-19 17:39:24.223
54.0, 14381.872341856044, 49529.92344259303, -39346.960407133156, -7376.299187695884, -187500.02235174447, -45742.6438620858, 120.72177180311344, -28017.55404681612, 0.656, -0.752, 0.186, 192.0, 0.0, 0.0, 0.0, 0.0, 0.0, 0.0, 0.0, 0.0, 0.0, 1.6635911642265403E9, 0.0, 2022-09-19 17:39:24.226
55.0, 14173.554083532583, 49373.01419651678, -39304.13446475678, -7348.426562360116, -187500.02235174447, -45988.87067900547, -667.1772202464605, -27929.823449829037, 0.656, -0.752, 0.186, 192.0, 0.0, 0.0, 0.0, 0.0, 0.0, 0.0, 0.0, 0.0, 0.0, 1.6635911642305577E9, 0.0, 2022-09-19 17:39:24.230
56.0, 13702.334606925799, 49301.30980030415, -39255.40766184422, -7295.117651834208, -187500.02235174447, -47029.5008456112, -1095.1013678433142, -27857.403797793842, 0.656, -0.752, 0.186, 192.0, 0.0, 0.0, 0.0, 0.0, 0.0, 0.0, 0.0, 0.0, 0.0, 1.66359116423459E9, 0.0, 2022-09-19 17:39:24.234
57.0, 13662.436743073076, 49303.56732649414, -39255.05003393293, -7292.770718666401, -187500.02235174447, -47282.83551726765, -720.1508546055383, -27885.99167895218, 0.656, -0.752, 0.186, 192.0, 0.0, 0.0, 0.0, 0.0, 0.0, 0.0, 0.0, 0.0, 0.0, 1.6635911642385592E9, 0.0, 2022-09-19 17:39:24.238
58.0, 13933.541051571496, 49296.28065780171, -39296.06548500842, -7323.079684147798, -187500.02235174447, -46805.67047663576, -217.7283427391461, -27970.235403804232, 0.652, -0.744, 0.182, 192.0, 20.0, 96.0, 232.0, 192.0, 5.0, 176.0, 0.0, 0.0, 0.0, 1.6635911642436154E9, 0.0, 2022-09-19 17:39:24.243
59.0, 14420.13852836353, 49299.879288659016, -39348.50267750057, -7359.490675865492, -187500.02235174447, -45758.893580304815, 96.73835000256896, -28020.526828828675, 0.652, -0.744, 0.182, 192.0, 0.0, 0.0, 0.0, 0.0, 0.0, 0.0, 0.0, 0.0, 0.0, 1.663591164247616E9, 0.0, 2022-09-19 17:39:24.247
60.0, 14220.537450377638, 49171.62497897446, -39286.141310470266, -7323.5043672924485, -187500.02235174447, -45989.47417610576, -669.9711883033739, -27915.875961288926, 0.652, -0.744, 0.182, 192.0, 0.0, 0.0, 0.0, 0.0, 0.0, 0.0, 0.0, 0.0, 0.0, 1.6635911642515523E9, 0.0, 2022-09-19 17:39:24.251
61.0, 13737.42684572063, 49082.173297664325, -39228.36205105329, -7273.950549835033, -187500.02235174447, -47028.4503136218, -1066.8487628518062, -27860.577745506496, 0.652, -0.744, 0.182, 192.0, 0.0, 0.0, 0.0, 0.0, 0.0, 0.0, 0.0, 0.0, 0.0, 1.6635911642546527E9, 0.0, 2022-09-19 17:39:24.254
62.0, 13696.61256034524, 49096.81369028255, -39241.54958028193, -7282.466564472505, -187500.02235174447, -47273.045453196224, -690.5347932022564, -27899.93916749229, 0.652, -0.744, 0.182, 192.0, 0.0, 0.0, 0.0, 0.0, 0.0, 0.0, 0.0, 0.0, 0.0, 1.6635911642586331E9, 0.0, 2022-09-19 17:39:24.258
63.0, 13979.630348638339, 49109.91181253336, -39284.4202261472, -7322.230317858496, -187500.02235174447, -46775.07093847644, -193.27553430504017, -27968.603726458994, 0.652, -0.744, 0.182, 192.0, 0.0, 0.0, 0.0, 0.0, 0.0, 0.0, 0.0, 0.0, 0.0, 1.6635911642626328E9, 0.0, 2022-09-19 17:39:24.262
64.0, 14458.583528826659, 49075.40071909437, -39317.92549108571, -7370.7559550709675, -187500.02235174447, -45726.57295782244, 137.77615282251273, -28002.73484024225, 0.652, -0.744, 0.182, 192.0, 0.0, 0.0, 0.0, 0.0, 0.0, 0.0, 0.0, 0.0, 0.0, 1.6635911642666252E9, 0.0, 2022-09-19 17:39:24.266
65.0, 14269.532474223672, 48961.63033981685, -39283.92848776919, -7372.74526032749, -187500.02235174447, -45945.061259873066, -654.1014497401059, -27926.135411993913, 0.652, -0.744, 0.182, 192.0, 0.0, 0.0, 0.0, 0.0, 0.0, 0.0, 0.0, 0.0, 0.0, 1.663591164271684E9, 0.0, 2022-09-19 17:39:24.271
66.0, 13808.036006454946, 48934.54002553702, -39253.6642257767, -7353.5004083514705, -187500.02235174447, -46967.00536811416, -1079.1869257911355, -27870.300754344556, 0.652, -0.744, 0.182, 192.0, 0.0, 0.0, 0.0, 0.0, 0.0, 0.0, 0.0, 0.0, 0.0, 1.6635911642756588E9, 0.0, 2022-09-19 17:39:24.275
67.0, 13765.746505945506, 48957.78583977054, -39277.84881327734, -7381.976530787531, -187500.02235174447, -47217.38960950251, -720.1508546055383, -27911.651481586872, 0.652, -0.744, 0.182, 192.0, 0.0, 0.0, 0.0, 0.0, 0.0, 0.0, 0.0, 0.0, 0.0, 1.6635911642796645E9, 0.0, 2022-09-19 17:39:24.279
68.0, 14041.052942401522, 48976.941284768734, -39328.430810979706, -7430.770388933467, -187500.02235174447, -46729.13810362078, -215.71668573816845, -27983.3558777995, 0.664, -0.764, 0.17200000000000001, 192.0, 20.0, 192.0, 232.0, 32.0, 5.0, 96.0, 0.0, 0.0, 0.0, 1.6635911642826557E9, 0.0, 2022-09-19 17:39:24.282
69.0, 14524.521174969814, 48968.559380597995, -39379.817471482456, -7487.633226827768, -187500.02235174447, -45679.07550085491, 99.93464945967787, -28053.249782711242, 0.664, -0.764, 0.17200000000000001, 192.0, 0.0, 0.0, 0.0, 0.0, 0.0, 0.0, 0.0, 0.0, 0.0, 1.6635911642866943E9, 0.0, 2022-09-19 17:39:24.286
70.0, 14349.909347284956, 48884.51682144604, -39311.26467123803, -7441.923909416665, -187500.02235174447, -45883.30338994305, -671.3346447151476, -27948.509508193674, 0.664, -0.764, 0.17200000000000001, 192.0, 0.0, 0.0, 0.0, 0.0, 0.0, 0.0, 0.0, 0.0, 0.0, 1.6635911642907388E9, 0.0, 2022-09-19 17:39:24.290
71.0, 13886.960016126635, 48819.89792822575, -39287.9741535156, -7413.358380002783, -187500.02235174447, -46913.04825699905, -1095.5484027324203, -27934.562019653564, 0.664, -0.764, 0.17200000000000001, 192.0, 0.0, 0.0, 0.0, 0.0, 0.0, 0.0, 0.0, 0.0, 0.0, 1.6635911642947147E9, 0.0, 2022-09-19 17:39:24.294
72.0, 13853.07477153239, 48829.151550430244, -39320.00420332005, -7414.744188159012, -187500.02235174447, -47168.30517867865, -738.3451745921582, -27973.16348232788, 0.664, -0.764, 0.17200000000000001, 192.0, 0.0, 0.0, 0.0, 0.0, 0.0, 0.0, 0.0, 0.0, 0.0, 1.663591164300688E9, 0.0, 2022-09-19 17:39:24.300
73.0, 14159.338374059007, 48842.160265703234, -39313.63395615029, -7404.529440942936, -187500.02235174447, -46669.123669758286, -210.55343276899254, -27969.095464837013, 0.664, -0.764, 0.17200000000000001, 192.0, 0.0, 0.0, 0.0, 0.0, 0.0, 0.0, 0.0, 0.0, 0.0, 1.6635911643047385E9, 0.0, 2022-09-19 17:39:24.304
74.0, 14628.635600642634, 48811.02428567699, -39387.95350646419, -7485.934494249165, -187500.02235174447, -45657.170791288714, 78.4769747825831, -28058.949477547347, 0.664, -0.764, 0.17200000000000001, 192.0, 0.0, 0.0, 0.0, 0.0, 0.0, 0.0, 0.0, 0.0, 0.0, 1.6635911643087645E9, 0.0, 2022-09-19 17:39:24.308
75.0, 14450.246328144829, 48742.203264499105, -39292.8244820624, -7437.587670992336, -187500.02235174447, -45900.22366049572, -669.4123946919913, -27939.032368544624, 0.664, -0.764, 0.17200000000000001, 192.0, 0.0, 0.0, 0.0, 0.0, 0.0, 0.0, 0.0, 0.0, 0.0, 1.66359116431171E9, 0.0, 2022-09-19 17:39:24.311
76.0, 13981.664357383772, 48710.664953072665, -39227.62444348627, -7376.209780718063, -187500.02235174447, -46969.35230128197, -1055.1588005016806, -27843.299847042545, 0.664, -0.764, 0.17200000000000001, 192.0, 0.0, 0.0, 0.0, 0.0, 0.0, 0.0, 0.0, 0.0, 0.0, 1.6635911643147361E9, 0.0, 2022-09-19 17:39:24.314
77.0, 13920.554688042963, 48716.766979308966, -39275.635990576266, -7419.348647516805, -187500.02235174447, -47277.515802087284, -721.6707732284991, -27910.466839130742, 0.664, -0.764, 0.17200000000000001, 192.0, 0.0, 0.0, 0.0, 0.0, 0.0, 0.0, 0.0, 0.0, 0.0, 1.6635911643186884E9, 0.0, 2022-09-19 17:39:24.318
78.0, 14245.079665789566, 48799.244916349046, -39291.572784372904, -7429.071656354864, -187500.02235174447, -46773.26044717556, -196.1812610842301, -27956.757301897684, 0.666, -0.754, 0.176, 192.0, 20.0, 208.0, 232.0, 112.0, 5.0, 128.0, 0.0, 0.0, 0.0, 1.6635911643227437E9, 0.0, 2022-09-19 17:39:24.322
79.0, 14736.706285084045, 48782.257590563015, -39332.94586335967, -7485.353348893327, -187500.02235174447, -45737.19003643871, 127.24848118406311, -28035.614256336004, 0.666, -0.754, 0.176, 192.0, 0.0, 0.0, 0.0, 0.0, 0.0, 0.0, 0.0, 0.0, 0.0, 1.6635911643267767E9, 0.0, 2022-09-19 17:39:24.326
80.0, 14533.037189607287, 48624.78955087537, -39274.2725341645, -7471.629377797768, -187500.02235174447, -45998.52663261016, -657.2753974527595, -27959.998304843702, 0.666, -0.754, 0.176, 192.0, 0.0, 0.0, 0.0, 0.0, 0.0, 0.0, 0.0, 0.0, 0.0, 1.6635911643317578E9, 0.0, 2022-09-19 17:39:24.331
81.0, 14080.570826598505, 48577.9626462415, -39218.63904221523, -7412.173737546652, -187500.02235174447, -47047.49399989772, -1062.981911061038, -27870.18899562228, 0.666, -0.754, 0.176, 192.0, 0.0, 0.0, 0.0, 0.0, 0.0, 0.0, 0.0, 0.0, 0.0, 1.6635911643347573E9, 0.0, 2022-09-19 17:39:24.334
82.0, 14057.772047254091, 48619.87216709521, -39215.15217008021, -7388.4808884240265, -187500.02235174447, -47302.058017499214, -697.0838543276614, -27858.36492280542, 0.666, -0.754, 0.176, 192.0, 0.0, 0.0, 0.0, 0.0, 0.0, 0.0, 0.0, 0.0, 0.0, 1.6635911643387568E9, 0.0, 2022-09-19 17:39:24.338
83.0, 14351.742190330291, 48658.093650113784, -39247.58455128486, -7424.690714441624, -187500.02235174447, -46804.77640685754, -178.34456900889506, -27928.10236550598, 0.666, -0.754, 0.176, 192.0, 0.0, 0.0, 0.0, 0.0, 0.0, 0.0, 0.0, 0.0, 0.0, 1.6635911643429062E9, 0.0, 2022-09-19 17:39:24.342
84.0, 14854.70114406361, 48679.841897468796, -39267.63406606127, -7433.720819201568, -187500.02235174447, -45736.63124282733, 175.84117362990065, -27957.42785423134, 0.666, -0.754, 0.176, 192.0, 0.0, 0.0, 0.0, 0.0, 0.0, 0.0, 0.0, 0.0, 0.0, 1.6635911643467977E9, 0.0, 2022-09-19 17:39:24.346
85.0, 14657.558757967801, 48573.581704328266, -39232.76534471099, -7402.584839175325, -187500.02235174447, -45971.92805670835, -620.1267981680392, -27886.32695511901, 0.666, -0.754, 0.176, 192.0, 0.0, 0.0, 0.0, 0.0, 0.0, 0.0, 0.0, 0.0, 0.0, 1.663591164350783E9, 0.0, 2022-09-19 17:39:24.350
86.0, 14170.335432331018, 48511.66737218707, -39210.23478630004, -7377.08149875182, -187500.02235174447, -47041.03434575014, -1070.2238762645575, -27864.958687419738, 0.666, -0.754, 0.176, 192.0, 0.0, 0.0, 0.0, 0.0, 0.0, 0.0, 0.0, 0.0, 0.0, 1.6635911643547819E9, 0.0, 2022-09-19 17:39:24.354
87.0, 14142.283993039608, 48519.35637227969, -39217.34264103683, -7357.948405498077, -187500.02235174447, -47298.05705524171, -700.2354502958597, -27888.85270224246, 0.666, -0.754, 0.176, 192.0, 0.0, 0.0, 0.0, 0.0, 0.0, 0.0, 0.0, 0.0, 0.0, 1.663591164359861E9, 0.0, 2022-09-19 17:39:24.359
88.0, 14440.322153606672, 48533.12504686416, -39232.76534471099, -7361.211760188551, -187500.02235174447, -46807.90565108129, -167.19104852569683, -27930.76222309616, 0.666, -0.754, 0.176, 192.0, 0.0, 0.0, 0.0, 0.0, 0.0, 0.0, 0.0, 0.0, 0.0, 1.6635911643628087E9, 0.0, 2022-09-19 17:39:24.362
89.0, 14938.184909604182, 48530.04050612933, -39260.34739736884, -7395.722853627545, -187500.02235174447, -45754.51263839158, 192.7167406936575, -27985.099313867013, 0.666, -0.746, 0.184, 192.0, 20.0, 208.0, 232.0, 176.0, 5.0, 192.0, 0.0, 0.0, 0.0, 1.6635911643668003E9, 0.0, 2022-09-19 17:39:24.366
90.0, 14734.001724004953, 48389.00099861634, -39230.15019060972, -7388.167964001652, -187500.02235174447, -46003.42166464587, -613.5330335537236, -27896.13937093489, 0.666, -0.746, 0.184, 192.0, 0.0, 0.0, 0.0, 0.0, 0.0, 0.0, 0.0, 0.0, 0.0, 1.663591164370898E9, 0.0, 2022-09-19 17:39:24.370
91.0, 14256.255538017218, 48314.56968958017, -39190.341733734815, -7350.393515872182, -187500.02235174447, -47071.05273855362, -1041.4571811505773, -27832.638064937364, 0.666, -0.746, 0.184, 192.0, 0.0, 0.0, 0.0, 0.0, 0.0, 0.0, 0.0, 0.0, 0.0, 1.6635911643748643E9, 0.0, 2022-09-19 17:39:24.374
92.0, 14218.570496865572, 48346.68914636244, -39212.84994040131, -7364.162190456652, -187500.02235174447, -47347.297948276755, -684.7009878994213, -27879.75554224915, 0.666, -0.746, 0.184, 192.0, 0.0, 0.0, 0.0, 0.0, 0.0, 0.0, 0.0, 0.0, 0.0, 1.6635911643788452E9, 0.0, 2022-09-19 17:39:24.378
93.0, 14501.118898525108, 48386.40819625952, -39257.79929850093, -7392.526554170437, -187500.02235174447, -46876.92783795927, -183.66428418925813, -27963.507528723185, 0.666, -0.746, 0.184, 192.0, 0.0, 0.0, 0.0, 0.0, 0.0, 0.0, 0.0, 0.0, 0.0, 1.663591164382842E9, 0.0, 2022-09-19 17:39:24.382
94.0, 14993.01373875305, 48391.52674573979, -39272.59615333035, -7401.534307185925, -187500.02235174447, -45833.414296318806, 175.93058060772188, -27986.708639467794, 0.666, -0.746, 0.184, 192.0, 0.0, 0.0, 0.0, 0.0, 0.0, 0.0, 0.0, 0.0, 0.0, 1.663591164387881E9, 0.0, 2022-09-19 17:39:24.387
95.0, 14793.412660767159, 48251.06838358264, -39236.1628098682, -7363.625748589725, -187500.02235174447, -46085.47491854131, -624.7983127591983, -27906.979966995714, 0.666, -0.746, 0.184, 192.0, 0.0, 0.0, 0.0, 0.0, 0.0, 0.0, 0.0, 0.0, 0.0, 1.663591164390868E9, 0.0, 2022-09-19 17:39:24.390
96.0, 14325.59064931758, 48192.238592176276, -39175.880155072235, -7294.514154733915, -187500.02235174447, -47147.87568424651, -1030.0801432228259, -27829.50882071362, 0.666, -0.746, 0.184, 192.0, 0.0, 0.0, 0.0, 0.0, 0.0, 0.0, 0.0, 0.0, 0.0, 1.6635911643948576E9, 0.0, 2022-09-19 17:39:24.394
97.0, 14296.198105358853, 48226.59322340408, -39181.28927723042, -7288.702701175535, -187500.02235174447, -47418.041219477804, -648.357051415092, -27861.427111795798, 0.666, -0.746, 0.184, 192.0, 0.0, 0.0, 0.0, 0.0, 0.0, 0.0, 0.0, 0.0, 0.0, 1.6635911643988752E9, 0.0, 2022-09-19 17:39:24.398
98.0, 14594.593893837202, 48276.5940757506, -39210.36889676677, -7308.8863264186775, -187500.02235174447, -46931.95783280824, -134.4680946431273, -27918.42406015683, 0.666, -0.746, 0.184, 192.0, 0.0, 0.0, 0.0, 0.0, 0.0, 0.0, 0.0, 0.0, 0.0, 1.6635911644028888E9, 0.0, 2022-09-19 17:39:24.402
99.0, 15084.946463697728, 48280.14800311899, -39252.703100765124, -7358.306033409362, -187500.02235174447, -45890.00891327964, 181.18324055471905, -27983.087656866035, 0.672, -0.752, 0.186, 192.0, 21.0, 0.0, 232.0, 128.0, 5.0, 208.0, 0.0, 0.0, 0.0, 1.6635911644068651E9, 0.0, 2022-09-19 17:39:24.406
100.0, 14882.596121143833, 48171.63028378848, -39205.18329205314, -7339.26234713344, -187500.02235174447, -46141.309576190666, -613.7341992538213, -27902.308452404555, 0.672, -0.752, 0.186, 192.0, 0.0, 0.0, 0.0, 0.0, 0.0, 0.0, 0.0, 0.0, 0.0, 1.6635911644108677E9, 0.0, 2022-09-19 17:39:24.410
101.0, 14398.971426364355, 48133.833483914554, -39162.178535721134, -7294.849430900745, -187500.02235174447, -47219.02128684775, -1028.53787285541, -27850.22888782369, 0.672, -0.752, 0.186, 192.0, 0.0, 0.0, 0.0, 0.0, 0.0, 0.0, 0.0, 0.0, 0.0, 1.6635911644159124E9, 0.0, 2022-09-19 17:39:24.415
102.0, 14367.053135282176, 48180.70509203734, -39196.153187293196, -7307.612276984725, -187500.02235174447, -47498.35103730572, -683.225772765371, -27894.99943196767, 0.672, -0.752, 0.186, 192.0, 0.0, 0.0, 0.0, 0.0, 0.0, 0.0, 0.0, 0.0, 0.0, 1.66359116441892E9, 0.0, 2022-09-19 17:39:24.418
103.0, 14661.13503708065, 48222.36874370203, -39221.79063818343, -7330.858091218244, -187500.02235174447, -47035.33465091403, -181.6526271882805, -27928.214124228256, 0.672, -0.752, 0.186, 192.0, 0.0, 0.0, 0.0, 0.0, 0.0, 0.0, 0.0, 0.0, 0.0, 1.663591164422932E9, 0.0, 2022-09-19 17:39:24.422
104.0, 15143.843310337463, 48223.128703013506, -39267.29878989444, -7382.535324398915, -187500.02235174447, -46022.97944104427, 146.15805699325287, -27985.076962122555, 0.672, -0.752, 0.186, 192.0, 0.0, 0.0, 0.0, 0.0, 0.0, 0.0, 0.0, 0.0, 0.0, 1.6635911644269161E9, 0.0, 2022-09-19 17:39:24.426
105.0, 14943.437569551179, 48094.829689840044, -39200.64588792872, -7356.942576997588, -187500.02235174447, -46291.379188463594, -614.6282690320336, -27895.66998430133, 0.672, -0.752, 0.186, 192.0, 0.0, 0.0, 0.0, 0.0, 0.0, 0.0, 0.0, 0.0, 0.0, 1.663591164430926E9, 0.0, 2022-09-19 17:39:24.430
106.0, 14459.321136393684, 48046.70638402777, -39164.50311714448, -7314.809538699334, -187500.02235174447, -47387.82166097423, -1029.498997866988, -27828.815916635504, 0.672, -0.752, 0.186, 192.0, 0.0, 0.0, 0.0, 0.0, 0.0, 0.0, 0.0, 0.0, 0.0, 1.6635911644349313E9, 0.0, 2022-09-19 17:39:24.434
107.0, 14420.540859763725, 48069.594570350004, -39190.60995466828, -7319.413998057127, -187500.02235174447, -47687.826775053356, -676.4978976843236, -27866.344495575966, 0.672, -0.752, 0.186, 192.0, 0.0, 0.0, 0.0, 0.0, 0.0, 0.0, 0.0, 0.0, 0.0, 1.6635911644389613E9, 0.0, 2022-09-19 17:39:24.438
108.0, 14709.48186033748, 48110.16298653639, -39216.00153636951, -7335.574309298314, -187500.02235174447, -47241.44008653642, -167.48162120361582, -27920.391013668897, 0.672, -0.752, 0.186, 192.0, 0.0, 0.0, 0.0, 0.0, 0.0, 0.0, 0.0, 0.0, 0.0, 1.6635911644440124E9, 0.0, 2022-09-19 17:39:24.444
109.0, 15207.657540757364, 48142.595367741036, -39239.3144058364, -7345.096152436275, -187500.02235174447, -46223.87692020857, 190.63802845931394, -27951.929325095338, 0.672, -0.75, 0.192, 192.0, 21.0, 0.0, 232.0, 144.0, 6.0, 0.0, 0.0, 0.0, 0.0, 1.6635911644469225E9, 0.0, 2022-09-19 17:39:24.446
110.0, 15004.323721447436, 48066.95706450428, -39197.24842277151, -7303.410149027128, -187500.02235174447, -46508.88401375819, -612.4601498198688, -27865.159853119836, 0.672, -0.75, 0.192, 192.0, 0.0, 0.0, 0.0, 0.0, 0.0, 0.0, 0.0, 0.0, 0.0, 1.6635911644499183E9, 0.0, 2022-09-19 17:39:24.449
111.0, 14519.670846423012, 48040.17967464682, -39170.33692244732, -7248.916596045089, -187500.02235174447, -47616.725875941025, -1069.1956960196133, -27807.581759402965, 0.672, -0.75, 0.192, 192.0, 0.0, 0.0, 0.0, 0.0, 0.0, 0.0, 0.0, 0.0, 0.0, 1.663591164454909E9, 0.0, 2022-09-19 17:39:24.454
112.0, 14467.367764397593, 48078.557619876585, -39168.7946520799, -7248.357802433706, -187500.02235174447, -47935.797028040535, -680.744729130832, -27841.243486552656, 0.672, -0.75, 0.192, 192.0, 0.0, 0.0, 0.0, 0.0, 0.0, 0.0, 0.0, 0.0, 0.0, 1.6635911644590187E9, 0.0, 2022-09-19 17:39:24.459
113.0, 14739.164976974127, 48114.16394879389, -39205.6526786867, -7289.2838465313735, -187500.02235174447, -47501.793205951835, -150.69546111768022, -27914.803077555072, 0.672, -0.75, 0.192, 192.0, 0.0, 0.0, 0.0, 0.0, 0.0, 0.0, 0.0, 0.0, 0.0, 1.66359116446298E9, 0.0, 2022-09-19 17:39:24.462
114.0, 15221.87325023094, 48119.57307095207, -39238.28622559145, -7335.97664069851, -187500.02235174447, -46491.38259784968, 190.4592145036715, -27965.67564793535, 0.672, -0.75, 0.192, 192.0, 0.0, 0.0, 0.0, 0.0, 0.0, 0.0, 0.0, 0.0, 0.0, 1.663591164466948E9, 0.0, 2022-09-19 17:39:24.466
115.0, 15027.860108358875, 48008.03786612009, -39193.359219236285, -7312.708474720535, -187500.02235174447, -46740.269272359525, -595.6516379894779, -27878.906175959848, 0.672, -0.75, 0.192, 192.0, 0.0, 0.0, 0.0, 0.0, 0.0, 0.0, 0.0, 0.0, 0.0, 1.6635911644710183E9, 0.0, 2022-09-19 17:39:24.471
116.0, 14549.555128759757, 47982.35571174094, -39150.55562860437, -7272.452982956527, -187500.02235174447, -47801.86537526434, -1026.9956024879937, -27818.64587290834, 0.672, -0.75, 0.192, 192.0, 0.0, 0.0, 0.0, 0.0, 0.0, 0.0, 0.0, 0.0, 0.0, 1.663591164475037E9, 0.0, 2022-09-19 17:39:24.475
117.0, 14499.375462457594, 48036.15636064486, -39172.57209689285, -7277.9515120925325, -187500.02235174447, -48077.507087887185, -669.9264848144633, -27843.813937165018, 0.672, -0.75, 0.192, 192.0, 0.0, 0.0, 0.0, 0.0, 0.0, 0.0, 0.0, 0.0, 0.0, 1.6635911644779508E9, 0.0, 2022-09-19 17:39:24.477
118.0, 14793.747936933987, 48071.136840717416, -39205.98795485353, -7303.63366647168, -187500.02235174447, -47579.93490456759, -154.04822278597626, -27904.387164638898, 0.672, -0.75, 0.192, 192.0, 0.0, 0.0, 0.0, 0.0, 0.0, 0.0, 0.0, 0.0, 0.0, 1.663591164483008E9, 0.0, 2022-09-19 17:39:24.483
119.0, 15295.54459995563, 48092.70627411679, -39235.62636800127, -7321.9173934361215, -187500.02235174447, -46496.03176069639, 185.4971272345933, -27943.882697091427, 0.66, -0.746, 0.196, 192.0, 20.0, 160.0, 232.0, 176.0, 6.0, 32.0, 0.0, 0.0, 0.0, 1.6635911644870622E9, 0.0, 2022-09-19 17:39:24.487
120.0, 15099.475097593679, 47994.02332234661, -39204.44568448611, -7309.959210152532, -187500.02235174447, -46695.0740450709, -620.6632400349665, -27870.14429213337, 0.66, -0.746, 0.196, 192.0, 0.0, 0.0, 0.0, 0.0, 0.0, 0.0, 0.0, 0.0, 0.0, 1.6635911644910047E9, 0.0, 2022-09-19 17:39:24.491
121.0, 14633.955315822997, 47961.1215545084, -39153.68487282811, -7269.591959666248, -187500.02235174447, -47694.755815834505, -1030.0354397339154, -27814.84607635094, 0.66, -0.746, 0.196, 192.0, 0.0, 0.0, 0.0, 0.0, 0.0, 0.0, 0.0, 0.0, 0.0, 1.6635911644950387E9, 0.0, 2022-09-19 17:39:24.495
122.0, 14615.760995836377, 47986.51313620963, -39172.81796608186, -7270.2625119999075, -187500.02235174447, -47887.45020478371, -649.0723072376618, -27838.114242328913, 0.66, -0.746, 0.196, 192.0, 0.0, 0.0, 0.0, 0.0, 0.0, 0.0, 0.0, 0.0, 0.0, 1.6635911644990013E9, 0.0, 2022-09-19 17:39:24.499
123.0, 14932.328752556892, 48004.238069562685, -39213.833417157344, -7292.5695529663035, -187500.02235174447, -47312.004543781826, -147.54386514948192, -27901.012051226146, 0.66, -0.746, 0.196, 192.0, 0.0, 0.0, 0.0, 0.0, 0.0, 0.0, 0.0, 0.0, 0.0, 1.6635911645030792E9, 0.0, 2022-09-19 17:39:24.503
124.0, 15452.118569865057, 47990.84937463396, -39261.867315991796, -7328.131178394697, -187500.02235174447, -46161.94023632291, 175.9976358410878, -27946.028464559135, 0.66, -0.746, 0.196, 192.0, 0.0, 0.0, 0.0, 0.0, 0.0, 0.0, 0.0, 0.0, 0.0, 1.6635911645060449E9, 0.0, 2022-09-19 17:39:24.506
125.0, 15283.049974805115, 47882.53282100354, -39211.28531828944, -7305.354750794739, -187500.02235174447, -46296.6765518995, -609.4650160628577, -27869.85371945545, 0.66, -0.746, 0.196, 192.0, 0.0, 0.0, 0.0, 0.0, 0.0, 0.0, 0.0, 0.0, 0.0, 1.6635911645101027E9, 0.0, 2022-09-19 17:39:24.510
126.0, 14832.014123441473, 47896.435606054736, -39166.023035767445, -7263.847561341234, -187500.02235174447, -47253.197104119914, -1030.2813089229237, -27824.993768333647, 0.66, -0.746, 0.196, 192.0, 0.0, 0.0, 0.0, 0.0, 0.0, 0.0, 0.0, 0.0, 0.0, 1.6635911645150607E9, 0.0, 2022-09-19 17:39:24.515
127.0, 14817.105509889783, 47962.1720864978, -39172.61680038176, -7247.016697766388, -187500.02235174447, -47422.19864394649, -645.3395659136255, -27833.93446611577, 0.66, -0.746, 0.196, 192.0, 0.0, 0.0, 0.0, 0.0, 0.0, 0.0, 0.0, 0.0, 0.0, 1.6635911645190213E9, 0.0, 2022-09-19 17:39:24.519
128.0, 15129.202917719236, 48004.796863174066, -39210.30184153341, -7261.545331662337, -187500.02235174447, -46837.63347120684, -118.15132119075314, -27892.227815655213, 0.66, -0.746, 0.196, 192.0, 0.0, 0.0, 0.0, 0.0, 0.0, 0.0, 0.0, 0.0, 0.0, 1.6635911645231388E9, 0.0, 2022-09-19 17:39:24.523
129.0, 15646.690505348506, 48024.444046550285, -39251.71962400909, -7292.5695529663035, -187500.02235174447, -45687.05507362546, 212.989772914621, -27950.565868683563, 0.662, -0.746, 0.20600000000000002, 192.0, 20.0, 176.0, 232.0, 176.0, 6.0, 112.0, 0.0, 0.0, 0.0, 1.6635911645271208E9, 0.0, 2022-09-19 17:39:24.527
130.0, 15481.108782423591, 47923.48121684566, -39204.17746355265, -7246.480255899461, -187500.02235174447, -45810.50375825212, -582.2852948052043, -27852.821690180506, 0.662, -0.746, 0.20600000000000002, 192.0, 0.0, 0.0, 0.0, 0.0, 0.0, 0.0, 0.0, 0.0, 0.0, 1.663591164532116E9, 0.0, 2022-09-19 17:39:24.532
131.0, 15024.01560831256, 47890.355931562895, -39166.60418112328, -7199.027502420843, -187500.02235174447, -46764.85619126036, -1007.9966197009826, -27826.290169512056, 0.662, -0.746, 0.20600000000000002, 192.0, 0.0, 0.0, 0.0, 0.0, 0.0, 0.0, 0.0, 0.0, 0.0, 1.6635911645350685E9, 0.0, 2022-09-19 17:39:24.535
132.0, 14991.315006174447, 47916.10514117541, -39189.11238778978, -7197.731101242435, -187500.02235174447, -46952.38732724039, -652.1568479724941, -27855.1239198594, 0.662, -0.746, 0.20600000000000002, 192.0, 0.0, 0.0, 0.0, 0.0, 0.0, 0.0, 0.0, 0.0, 0.0, 1.6635911645381365E9, 0.0, 2022-09-19 17:39:24.538
133.0, 15301.356053514011, 47928.82328377048, -39214.7051351911, -7207.252944380396, -187500.02235174447, -46370.861991746664, -136.6585655997474, -27900.922644248327, 0.662, -0.746, 0.20600000000000002, 192.0, 0.0, 0.0, 0.0, 0.0, 0.0, 0.0, 0.0, 0.0, 0.0, 1.6635911645431213E9, 0.0, 2022-09-19 17:39:24.543
134.0, 15813.054539329356, 47920.95546972221, -39235.38049881226, -7231.616345836681, -187500.02235174447, -45227.033820990786, 206.15013911129705, -27945.737891881217, 0.662, -0.746, 0.20600000000000002, 192.0, 0.0, 0.0, 0.0, 0.0, 0.0, 0.0, 0.0, 0.0, 0.0, 1.663591164548139E9, 0.0, 2022-09-19 17:39:24.548
135.0, 15605.295074617277, 47798.93729674069, -39204.892719375224, -7212.684418283036, -187500.02235174447, -45387.5640496688, -603.9217834379415, -27872.245356112166, 0.662, -0.746, 0.20600000000000002, 192.0, 0.0, 0.0, 0.0, 0.0, 0.0, 0.0, 0.0, 0.0, 0.0, 1.663591164552075E9, 0.0, 2022-09-19 17:39:24.552
136.0, 15130.633429364376, 47785.772119256515, -39150.913256515654, -7159.487266479406, -187500.02235174447, -46350.1419246366, -1020.9606314850607, -27811.53801817155, 0.662, -0.746, 0.20600000000000002, 192.0, 0.0, 0.0, 0.0, 0.0, 0.0, 0.0, 0.0, 0.0, 0.0, 1.6635911645551407E9, 0.0, 2022-09-19 17:39:24.555
137.0, 15087.919245710284, 47841.964404817154, -39182.07158828635, -7179.13444985562, -187500.02235174447, -46549.83240960031, -667.9595313023963, -27868.982001421693, 0.662, -0.746, 0.20600000000000002, 192.0, 0.0, 0.0, 0.0, 0.0, 0.0, 0.0, 0.0, 0.0, 0.0, 1.6635911645591269E9, 0.0, 2022-09-19 17:39:24.559
138.0, 15365.773781034206, 47853.028518322535, -39206.502044976005, -7205.420101335061, -187500.02235174447, -46020.34193519854, -158.11624027684215, -27937.2442289882, 0.662, -0.746, 0.20600000000000002, 192.0, 0.0, 0.0, 0.0, 0.0, 0.0, 0.0, 0.0, 0.0, 0.0, 1.663591164562188E9, 0.0, 2022-09-19 17:39:24.562
139.0, 15883.775458785947, 47871.37930052034, -39218.77315268197, -7209.5104705703825, -187500.02235174447, -44900.00544786519, 206.9995054005987, -27951.214069272766, 0.664, -0.734, 0.20800000000000002, 192.0, 20.0, 192.0, 233.0, 16.0, 6.0, 128.0, 0.0, 0.0, 0.0, 1.6635911645661428E9, 0.0, 2022-09-19 17:39:24.566
140.0, 15695.037328605335, 47779.133651153286, -39155.07068098434, -7173.27829280833, -187500.02235174447, -45076.00308370627, -568.4272132429139, -27848.574858734, 0.664, -0.734, 0.20800000000000002, 192.0, 0.0, 0.0, 0.0, 0.0, 0.0, 0.0, 0.0, 0.0, 0.0, 1.6635911645711763E9, 0.0, 2022-09-19 17:39:24.571
141.0, 15181.081316600004, 47718.00163006802, -39136.585788319804, -7163.130600825621, -187500.02235174447, -46113.86163399954, -1023.7993030308847, -27812.83441934996, 0.664, -0.734, 0.20800000000000002, 192.0, 0.0, 0.0, 0.0, 0.0, 0.0, 0.0, 0.0, 0.0, 0.0, 1.6635911645751548E9, 0.0, 2022-09-19 17:39:24.575
142.0, 15087.516914310088, 47722.06964755889, -39171.543916647905, -7199.2957233543075, -187500.02235174447, -46396.63355310364, -692.8146711366977, -27870.725437489207, 0.664, -0.734, 0.20800000000000002, 192.0, 0.0, 0.0, 0.0, 0.0, 0.0, 0.0, 0.0, 0.0, 0.0, 1.6635911645792131E9, 0.0, 2022-09-19 17:39:24.579
143.0, 15362.108094943536, 47760.69346197766, -39187.88304184473, -7218.518223585871, -187500.02235174447, -45901.25184074067, -165.31350199145103, -27933.95852255327, 0.664, -0.734, 0.20800000000000002, 192.0, 0.0, 0.0, 0.0, 0.0, 0.0, 0.0, 0.0, 0.0, 0.0, 1.6635911645831501E9, 0.0, 2022-09-19 17:39:24.583
144.0, 15839.362542553252, 47743.86259840281, -39228.36205105329, -7252.6493373691255, -187500.02235174447, -44848.35056642897, 172.71192940615768, -27982.439456276832, 0.664, -0.734, 0.20800000000000002, 192.0, 0.0, 0.0, 0.0, 0.0, 0.0, 0.0, 0.0, 0.0, 0.0, 1.663591164586197E9, 0.0, 2022-09-19 17:39:24.586
145.0, 15627.982095239413, 47616.27884105192, -39174.67316087164, -7212.371493860662, -187500.02235174447, -45075.377234861524, -606.6263445170337, -27883.801207995562, 0.664, -0.734, 0.20800000000000002, 192.0, 0.0, 0.0, 0.0, 0.0, 0.0, 0.0, 0.0, 0.0, 0.0, 1.663591164590217E9, 0.0, 2022-09-19 17:39:24.590
146.0, 15137.718932356709, 47578.280875477896, -39133.36713711824, -7159.46491473495, -187500.02235174447, -46120.14247419149, -1031.0636199788596, -27825.776079389583, 0.664, -0.734, 0.20800000000000002, 192.0, 0.0, 0.0, 0.0, 0.0, 0.0, 0.0, 0.0, 0.0, 0.0, 1.6635911645942192E9, 0.0, 2022-09-19 17:39:24.594
147.0, 15101.41969936129, 47631.545082514895, -39149.77331754843, -7155.709821666458, -187500.02235174447, -46370.05732894628, -655.7778305742539, -27861.002428651147, 0.664, -0.734, 0.20800000000000002, 192.0, 0.0, 0.0, 0.0, 0.0, 0.0, 0.0, 0.0, 0.0, 0.0, 1.6635911645992093E9, 0.0, 2022-09-19 17:39:24.599
148.0, 15384.415135909932, 47675.376853391754, -39193.158053536186, -7191.182040117031, -187500.02235174447, -45886.92437254481, -147.09683026037578, -27934.539667909106, 0.664, -0.734, 0.20800000000000002, 192.0, 0.0, 0.0, 0.0, 0.0, 0.0, 0.0, 0.0, 0.0, 0.0, 1.6635911646032414E9, 0.0, 2022-09-19 17:39:24.603
149.0, 15877.47226684955, 47711.944307320635, -39237.392155813235, -7229.850558024712, -187500.02235174447, -44836.504141867656, 177.94223760869951, -27988.854406935505, 0.668, -0.73, 0.216, 192.0, 20.0, 224.0, 233.0, 48.0, 6.0, 192.0, 0.0, 0.0, 0.0, 1.6635911646072378E9, 0.0, 2022-09-19 17:39:24.607
150.0, 15662.493188678407, 47604.05243683487, -39182.63038189774, -7194.624208763148, -187500.02235174447, -45070.86218248155, -605.3075915941706, -27881.767199250127, 0.668, -0.73, 0.216, 192.0, 0.0, 0.0, 0.0, 0.0, 0.0, 0.0, 0.0, 0.0, 0.0, 1.663591164611226E9, 0.0, 2022-09-19 17:39:24.611
151.0, 15160.4283047233, 47583.08650053579, -39135.80347726387, -7149.160760541054, -187500.02235174447, -46119.60603232456, -1018.1219599392367, -27820.12108804239, 0.668, -0.73, 0.216, 192.0, 0.0, 0.0, 0.0, 0.0, 0.0, 0.0, 0.0, 0.0, 0.0, 1.663591164614358E9, 0.0, 2022-09-19 17:39:24.614
152.0, 15121.200993204237, 47638.76469597396, -39161.57503862084, -7162.951786869978, -187500.02235174447, -46361.586017797716, -648.6699758374663, -27875.46400731373, 0.668, -0.73, 0.216, 192.0, 0.0, 0.0, 0.0, 0.0, 0.0, 0.0, 0.0, 0.0, 0.0, 1.663591164618188E9, 0.0, 2022-09-19 17:39:24.618
153.0, 15420.133223549514, 47685.256324441, -39197.89662336071, -7187.114022626165, -187500.02235174447, -45846.35595635843, -145.66631861523612, -27928.86232481746, 0.668, -0.73, 0.216, 192.0, 0.0, 0.0, 0.0, 0.0, 0.0, 0.0, 0.0, 0.0, 0.0, 1.6635911646222818E9, 0.0, 2022-09-19 17:39:24.622
154.0, 15922.399273204717, 47674.03574872443, -39230.977205154566, -7228.263584168385, -187500.02235174447, -44759.547085708036, 187.17350806874134, -27972.850557905505, 0.668, -0.73, 0.216, 192.0, 0.0, 0.0, 0.0, 0.0, 0.0, 0.0, 0.0, 0.0, 0.0, 1.663591164626331E9, 0.0, 2022-09-19 17:39:24.626
155.0, 15714.148070114623, 47545.60262508424, -39189.24649825651, -7211.611534549182, -187500.02235174447, -44959.41638462739, -607.5651177841565, -27901.481437859708, 0.668, -0.73, 0.216, 192.0, 0.0, 0.0, 0.0, 0.0, 0.0, 0.0, 0.0, 0.0, 0.0, 1.663591164632341E9, 0.0, 2022-09-19 17:39:24.632
156.0, 15237.474767860744, 47521.61920328369, -39143.023090722934, -7155.6204146886375, -187500.02235174447, -45955.678338489335, -1023.3522681417786, -27835.16381206081, 0.668, -0.73, 0.216, 192.0, 0.0, 0.0, 0.0, 0.0, 0.0, 0.0, 0.0, 0.0, 0.0, 1.663591164636335E9, 0.0, 2022-09-19 17:39:24.636
157.0, 15209.87036345844, 47578.23617198899, -39160.68096884262, -7143.371658727129, -187500.02235174447, -46159.30273047718, -663.1539062445053, -27859.102530372445, 0.668, -0.73, 0.216, 192.0, 0.0, 0.0, 0.0, 0.0, 0.0, 0.0, 0.0, 0.0, 0.0, 1.663591164639337E9, 0.0, 2022-09-19 17:39:24.639
158.0, 15506.142736213535, 47642.944472187104, -39191.16874827966, -7166.4833624939165, -187500.02235174447, -45626.75006708504, -161.80427811196782, -27932.43860393031, 0.668, -0.73, 0.216, 192.0, 0.0, 0.0, 0.0, 0.0, 0.0, 0.0, 0.0, 0.0, 0.0, 1.6635911646433244E9, 0.0, 2022-09-19 17:39:24.643
159.0, 16001.815021254424, 47646.230178622034, -39244.70117625012, -7219.054665452799, -187500.02235174447, -44534.643832998736, 156.70808037615782, -28009.842694979037, 0.668, -0.728, 0.212, 192.0, 20.0, 224.0, 233.0, 64.0, 6.0, 160.0, 0.0, 0.0, 0.0, 1.663591164646328E9, 0.0, 2022-09-19 17:39:24.646
160.0, 15787.975882050501, 47542.58513958277, -39215.08511484684, -7192.321979084251, -187500.02235174447, -44736.92712031926, -668.22775223586, -27919.519295635142, 0.668, -0.728, 0.212, 192.0, 0.0, 0.0, 0.0, 0.0, 0.0, 0.0, 0.0, 0.0, 0.0, 1.6635911646503954E9, 0.0, 2022-09-19 17:39:24.650
161.0, 15301.870143636483, 47540.32761339279, -39162.402053165686, -7136.88965283509, -187500.02235174447, -45754.46793490266, -1070.693262898119, -27857.98494314968, 0.668, -0.728, 0.212, 192.0, 0.0, 0.0, 0.0, 0.0, 0.0, 0.0, 0.0, 0.0, 0.0, 1.663591164654349E9, 0.0, 2022-09-19 17:39:24.654
162.0, 15277.037355546638, 47620.10098935378, -39170.87336431425, -7125.870242818623, -187500.02235174447, -45971.1010421635, -678.643665152033, -27879.17439689331, 0.668, -0.728, 0.212, 192.0, 0.0, 0.0, 0.0, 0.0, 0.0, 0.0, 0.0, 0.0, 0.0, 1.6635911646593385E9, 0.0, 2022-09-19 17:39:24.659
163.0, 15571.275719556299, 47686.508022130496, -39203.99864959701, -7153.27348152083, -187500.02235174447, -45455.535704557384, -168.80037412647894, -27949.180060527335, 0.668, -0.728, 0.212, 192.0, 0.0, 0.0, 0.0, 0.0, 0.0, 0.0, 0.0, 0.0, 0.0, 1.6635911646633284E9, 0.0, 2022-09-19 17:39:24.663
164.0, 16068.043240075498, 47704.76939735048, -39253.95479845462, -7194.825374463246, -187500.02235174447, -44384.060130603335, 155.4340309422053, -28004.29946235412, 0.668, -0.728, 0.212, 192.0, 0.0, 0.0, 0.0, 0.0, 0.0, 0.0, 0.0, 0.0, 0.0, 1.663591164666345E9, 0.0, 2022-09-19 17:39:24.666
165.0, 15874.030098203433, 47607.293439780886, -39210.01126885549, -7152.89350186509, -187500.02235174447, -44586.723397579604, -637.6729175654552, -27901.14616169288, 0.668, -0.728, 0.212, 192.0, 0.0, 0.0, 0.0, 0.0, 0.0, 0.0, 0.0, 0.0, 0.0, 1.6635911646703744E9, 0.0, 2022-09-19 17:39:24.670
166.0, 15388.818429567627, 47577.36445395523, -39151.56145710486, -7094.086062203177, -187500.02235174447, -45609.94155525465, -1047.626262620242, -27846.674960455297, 0.668, -0.728, 0.212, 192.0, 0.0, 0.0, 0.0, 0.0, 0.0, 0.0, 0.0, 0.0, 0.0, 1.6635911646743584E9, 0.0, 2022-09-19 17:39:24.674
167.0, 15340.963344688815, 47615.80945441836, -39179.83641384082, -7101.931524506989, -187500.02235174447, -45851.9215407278, -681.5940954201336, -27890.640841798886, 0.668, -0.728, 0.212, 192.0, 0.0, 0.0, 0.0, 0.0, 0.0, 0.0, 0.0, 0.0, 0.0, 1.6635911646783524E9, 0.0, 2022-09-19 17:39:24.678
168.0, 15639.739112822905, 47669.252475411, -39207.44081824313, -7127.546623652772, -187500.02235174447, -45335.931519977035, -166.4534409586717, -27945.313208736567, 0.668, -0.728, 0.212, 192.0, 0.0, 0.0, 0.0, 0.0, 0.0, 0.0, 0.0, 0.0, 0.0, 1.6635911646823297E9, 0.0, 2022-09-19 17:39:24.682
169.0, 16120.502784312104, 47652.6451292807, -39286.81186280392, -7192.277275595341, -187500.02235174447, -44287.59000153423, 128.61193759583685, -28033.893172012948, 0.666, -0.734, 0.21, 192.0, 20.0, 208.0, 233.0, 16.0, 6.0, 144.0, 0.0, 0.0, 0.0, 1.6635911646864278E9, 0.0, 2022-09-19 17:39:24.686
170.0, 15914.15147950071, 47542.071049460304, -39232.96651041109, -7162.37064151414, -187500.02235174447, -44518.975260135565, -673.4804121828571, -27933.42208068634, 0.666, -0.734, 0.21, 192.0, 0.0, 0.0, 0.0, 0.0, 0.0, 0.0, 0.0, 0.0, 0.0, 1.6635911646913705E9, 0.0, 2022-09-19 17:39:24.691
171.0, 15440.741531937307, 47522.289755617356, -39150.913256515654, -7088.095794689155, -187500.02235174447, -45547.133153335235, -1050.8002103328956, -27835.007349849624, 0.666, -0.734, 0.21, 192.0, 0.0, 0.0, 0.0, 0.0, 0.0, 0.0, 0.0, 0.0, 0.0, 1.6635911646943583E9, 0.0, 2022-09-19 17:39:24.694
172.0, 15404.643464641986, 47584.24879124747, -39162.0444252544, -7085.3018266322415, -187500.02235174447, -45792.60001094342, -676.0061593063068, -27856.286210571077, 0.666, -0.734, 0.21, 192.0, 0.0, 0.0, 0.0, 0.0, 0.0, 0.0, 0.0, 0.0, 0.0, 1.6635911646994138E9, 0.0, 2022-09-19 17:39:24.699
173.0, 15701.988721130934, 47642.13980938671, -39195.728504148545, -7119.052960759755, -187500.02235174447, -45287.60704846466, -167.92865609272195, -27919.519295635142, 0.666, -0.734, 0.21, 192.0, 0.0, 0.0, 0.0, 0.0, 0.0, 0.0, 0.0, 0.0, 0.0, 1.6635911647024343E9, 0.0, 2022-09-19 17:39:24.702
174.0, 16195.045852070554, 47642.184512875625, -39247.9645309406, -7178.41919403305, -187500.02235174447, -44231.777695629324, 156.37280420932822, -27995.49287503873, 0.666, -0.734, 0.21, 192.0, 0.0, 0.0, 0.0, 0.0, 0.0, 0.0, 0.0, 0.0, 0.0, 1.663591164706359E9, 0.0, 2022-09-19 17:39:24.706
175.0, 15973.361250562819, 47515.718342747496, -39216.67208870317, -7171.579560229727, -187500.02235174447, -44474.47293692505, -648.6699758374663, -27938.875906333436, 0.666, -0.734, 0.21, 192.0, 0.0, 0.0, 0.0, 0.0, 0.0, 0.0, 0.0, 0.0, 0.0, 1.6635911647124174E9, 0.0, 2022-09-19 17:39:24.712
176.0, 15478.136000411036, 47490.50557500191, -39171.253343969984, -7126.138463752087, -187500.02235174447, -45517.0924087873, -1065.1276785287475, -27886.930452219305, 0.666, -0.734, 0.21, 192.0, 0.0, 0.0, 0.0, 0.0, 0.0, 0.0, 0.0, 0.0, 0.0, 1.6635911647154264E9, 0.0, 2022-09-19 17:39:24.715
177.0, 15429.431549242921, 47538.94180523656, -39180.842242341314, -7113.8897077905785, -187500.02235174447, -45767.92368506476, -691.4065112360133, -27885.70110627426, 0.666, -0.734, 0.21, 192.0, 0.0, 0.0, 0.0, 0.0, 0.0, 0.0, 0.0, 0.0, 0.0, 1.6635911647193809E9, 0.0, 2022-09-19 17:39:24.719
178.0, 15713.924552670069, 47585.813413359334, -39222.66235621719, -7154.167551299042, -187500.02235174447, -45274.33011225821, -196.58359248442562, -27950.744682639204, 0.666, -0.734, 0.21, 192.0, 0.0, 0.0, 0.0, 0.0, 0.0, 0.0, 0.0, 0.0, 0.0, 1.6635911647225268E9, 0.0, 2022-09-19 17:39:24.722
179.0, 16204.612398697425, 47588.36151222724, -39251.83138273137, -7197.5969907757035, -187500.02235174447, -44213.80689308726, 146.38157443780597, -28006.60169203302, 0.664, -0.736, 0.21, 192.0, 20.0, 192.0, 233.0, 0.0, 6.0, 144.0, 0.0, 0.0, 0.0, 1.663591164726503E9, 0.0, 2022-09-19 17:39:24.726
180.0, 15994.394242095263, 47481.27430454187, -39200.91410886218, -7159.50961822386, -187500.02235174447, -44438.53133184092, -642.7914670457205, -27917.19471421179, 0.664, -0.736, 0.21, 192.0, 0.0, 0.0, 0.0, 0.0, 0.0, 0.0, 0.0, 0.0, 0.0, 1.663591164730457E9, 0.0, 2022-09-19 17:39:24.730
181.0, 15498.87841926556, 47452.95464431699, -39160.81507930936, -7107.497108876361, -187500.02235174447, -45482.71542581504, -1074.78363213344, -27865.271611842112, 0.664, -0.736, 0.21, 192.0, 0.0, 0.0, 0.0, 0.0, 0.0, 0.0, 0.0, 0.0, 0.0, 1.6635911647344089E9, 0.0, 2022-09-19 17:39:24.734
182.0, 15437.142901080002, 47492.427825025065, -39177.40007369519, -7133.2016149999645, -187500.02235174447, -45748.99175751111, -713.288869057759, -27915.1383537219, 0.664, -0.736, 0.21, 192.0, 0.0, 0.0, 0.0, 0.0, 0.0, 0.0, 0.0, 0.0, 0.0, 1.6635911647385375E9, 0.0, 2022-09-19 17:39:24.738
183.0, 15728.341427843741, 47550.877636775695, -39209.13955082173, -7168.249150305885, -187500.02235174447, -45246.949225300465, -187.88876389131116, -27957.830185631537, 0.664, -0.736, 0.21, 192.0, 0.0, 0.0, 0.0, 0.0, 0.0, 0.0, 0.0, 0.0, 0.0, 1.663591164742545E9, 0.0, 2022-09-19 17:39:24.742
184.0, 16230.205146098751, 47570.167192240624, -39229.54669350942, -7212.170328160564, -187500.02235174447, -44177.194735669465, 179.1045283203755, -27999.247968107222, 0.664, -0.736, 0.21, 192.0, 0.0, 0.0, 0.0, 0.0, 0.0, 0.0, 0.0, 0.0, 0.0, 1.6635911647474902E9, 0.0, 2022-09-19 17:39:24.747
185.0, 16011.090995203376, 47441.15292324459, -39202.5010827185, -7187.315188326263, -187500.02235174447, -44418.168892642134, -618.6068795450783, -27913.32786242102, 0.664, -0.736, 0.21, 192.0, 0.0, 0.0, 0.0, 0.0, 0.0, 0.0, 0.0, 0.0, 0.0, 1.6635911647504911E9, 0.0, 2022-09-19 17:39:24.750
186.0, 15512.64709385003, 47398.50579482386, -39161.91031478767, -7132.307545221752, -187500.02235174447, -45476.92632400111, -1036.338631670312, -27861.158890862334, 0.664, -0.736, 0.21, 192.0, 0.0, 0.0, 0.0, 0.0, 0.0, 0.0, 0.0, 0.0, 0.0, 1.663591164754526E9, 0.0, 2022-09-19 17:39:24.754
187.0, 15452.38679079852, 47437.77780983184, -39205.67503043116, -7138.878958091612, -187500.02235174447, -45754.71380409167, -687.3161420006921, -27906.75644955116, 0.664, -0.736, 0.21, 192.0, 0.0, 0.0, 0.0, 0.0, 0.0, 0.0, 0.0, 0.0, 0.0, 1.6635911647585075E9, 0.0, 2022-09-19 17:39:24.758
188.0, 15746.02165770789, 47492.87485991417, -39241.795449470934, -7159.666080435048, -187500.02235174447, -45258.14744927257, -183.2843045335179, -27960.378284499442, 0.664, -0.736, 0.21, 192.0, 0.0, 0.0, 0.0, 0.0, 0.0, 0.0, 0.0, 0.0, 0.0, 1.6635911647625132E9, 0.0, 2022-09-19 17:39:24.762
189.0, 16253.473312076727, 47494.14890934812, -39257.598132800835, -7179.872057422645, -187500.02235174447, -44187.0295032298, 166.4087374697611, -28009.2615496232, 0.666, -0.752, 0.20800000000000002, 192.0, 20.0, 208.0, 232.0, 128.0, 6.0, 128.0, 0.0, 0.0, 0.0, 1.6635911647664835E9, 0.0, 2022-09-19 17:39:24.766
190.0, 16040.818815328934, 47352.528256479294, -39196.84609137131, -7145.629184917115, -187500.02235174447, -44407.35064832576, -611.8566527195755, -27912.27733043162, 0.666, -0.752, 0.20800000000000002, 192.0, 0.0, 0.0, 0.0, 0.0, 0.0, 0.0, 0.0, 0.0, 0.0, 1.6635911647705514E9, 0.0, 2022-09-19 17:39:24.770
191.0, 15535.870556339092, 47290.72568306037, -39171.968599792555, -7118.561222381738, -187500.02235174447, -45448.47255330951, -1044.4746666520437, -27881.4319230833, 0.666, -0.752, 0.20800000000000002, 192.0, 0.0, 0.0, 0.0, 0.0, 0.0, 0.0, 0.0, 0.0, 0.0, 1.6635911647755392E9, 0.0, 2022-09-19 17:39:24.775
192.0, 15494.698643052418, 47340.19009353997, -39203.484559474535, -7119.2317747153975, -187500.02235174447, -45680.52836424451, -693.8875548705524, -27909.975100752727, 0.666, -0.752, 0.20800000000000002, 192.0, 0.0, 0.0, 0.0, 0.0, 0.0, 0.0, 0.0, 0.0, 0.0, 1.663591164778548E9, 0.0, 2022-09-19 17:39:24.778
193.0, 15795.754289120949, 47394.81775698874, -39221.6565277167, -7122.137501494587, -187500.02235174447, -45151.239055542836, -168.1074700483644, -27940.351121467487, 0.666, -0.752, 0.20800000000000002, 192.0, 0.0, 0.0, 0.0, 0.0, 0.0, 0.0, 0.0, 0.0, 0.0, 1.6635911647835639E9, 0.0, 2022-09-19 17:39:24.783
194.0, 16305.396414446404, 47407.33473388371, -39236.11810637928, -7148.423152974028, -187500.02235174447, -44051.57793183064, 205.47958677763782, -27984.853444678003, 0.666, -0.752, 0.20800000000000002, 192.0, 0.0, 0.0, 0.0, 0.0, 0.0, 0.0, 0.0, 0.0, 0.0, 1.6635911647865648E9, 0.0, 2022-09-19 17:39:24.786
195.0, 16098.083984623432, 47308.294154202245, -39202.165806551675, -7126.518443407827, -187500.02235174447, -44242.841809134705, -597.842108946098, -27904.945958250282, 0.666, -0.752, 0.20800000000000002, 192.0, 0.0, 0.0, 0.0, 0.0, 0.0, 0.0, 0.0, 0.0, 0.0, 1.663591164790562E9, 0.0, 2022-09-19 17:39:24.790
196.0, 15611.218286897933, 47283.327255645665, -39176.90833531718, -7088.274608644797, -187500.02235174447, -45248.826771834705, -1041.6806985951303, -27853.64870472535, 0.666, -0.752, 0.20800000000000002, 192.0, 0.0, 0.0, 0.0, 0.0, 0.0, 0.0, 0.0, 0.0, 0.0, 1.663591164795559E9, 0.0, 2022-09-19 17:39:24.795
197.0, 15577.824780681703, 47343.36404125262, -39190.341733734815, -7088.45342260044, -187500.02235174447, -45459.5813703038, -666.6407783795331, -27886.081085930004, 0.666, -0.752, 0.20800000000000002, 192.0, 0.0, 0.0, 0.0, 0.0, 0.0, 0.0, 0.0, 0.0, 0.0, 1.6635911648006344E9, 0.0, 2022-09-19 17:39:24.800
198.0, 15874.924167981646, 47408.16174842856, -39218.12495209277, -7126.876071319112, -187500.02235174447, -44918.89267192992, -140.05603075695404, -27951.05760706158, 0.666, -0.752, 0.20800000000000002, 192.0, 0.0, 0.0, 0.0, 0.0, 0.0, 0.0, 0.0, 0.0, 0.0, 1.6635911648035293E9, 0.0, 2022-09-19 17:39:24.803
199.0, 16384.25336888473, 47415.448417120984, -39260.36974911329, -7170.685490451514, -187500.02235174447, -43809.463835890754, 189.34162728090612, -27995.82815120556, 0.666, -0.752, 0.20800000000000002, 192.0, 0.0, 0.0, 0.0, 0.0, 0.0, 0.0, 0.0, 0.0, 0.0, 1.6635911648065722E9, 0.0, 2022-09-19 17:39:24.806
200.0, 16202.131355062886, 47311.579860637175, -39203.506911218996, -7143.371658727129, -187500.02235174447, -43969.25645700174, -604.5476322826901, -27901.39203088189, 0.666, -0.75, 0.202, 192.0, 20.0, 208.0, 232.0, 144.0, 6.0, 80.0, 0.0, 0.0, 0.0, 1.6635911648106067E9, 0.0, 2022-09-19 17:39:24.810
201.0, 15730.084863911256, 47291.59740109413, -39151.337939660305, -7095.248352914853, -187500.02235174447, -44950.69920428982, -1021.3629628852563, -27842.383425519878, 0.666, -0.75, 0.202, 192.0, 0.0, 0.0, 0.0, 0.0, 0.0, 0.0, 0.0, 0.0, 0.0, 1.6635911648145757E9, 0.0, 2022-09-19 17:39:24.814
202.0, 15706.213200832988, 47346.91796862101, -39188.3524284783, -7109.553469366249, -187500.02235174447, -45147.34985200761, -669.2559324808041, -27883.130655661902, 0.666, -0.75, 0.202, 192.0, 0.0, 0.0, 0.0, 0.0, 0.0, 0.0, 0.0, 0.0, 0.0, 1.6635911648186464E9, 0.0, 2022-09-19 17:39:24.818
203.0, 16005.704224789648, 47374.47766953441, -39226.88683591924, -7161.409516502562, -187500.02235174447, -44603.218984987616, -165.60407466937002, -27953.069264062557, 0.666, -0.75, 0.202, 192.0, 0.0, 0.0, 0.0, 0.0, 0.0, 0.0, 0.0, 0.0, 0.0, 1.6635911648226202E9, 0.0, 2022-09-19 17:39:24.822
204.0, 16514.720501270356, 47366.65455897505, -39269.31044689542, -7208.594049047715, -187500.02235174447, -43493.1643001037, 167.16869678124152, -27995.53757852764, 0.666, -0.75, 0.202, 192.0, 0.0, 0.0, 0.0, 0.0, 0.0, 0.0, 0.0, 0.0, 0.0, 1.6635911648266394E9, 0.0, 2022-09-19 17:39:24.826
205.0, 16331.145624058918, 47283.28255215676, -39219.354298037804, -7178.642711477603, -187500.02235174447, -43656.10851718289, -623.5019115807905, -27892.227815655213, 0.666, -0.75, 0.202, 192.0, 0.0, 0.0, 0.0, 0.0, 0.0, 0.0, 0.0, 0.0, 0.0, 1.6635911648315918E9, 0.0, 2022-09-19 17:39:24.831
206.0, 15864.195330643099, 47261.78017399075, -39164.637227611216, -7131.636992888092, -187500.02235174447, -44629.4822847226, -1026.2132914320578, -27839.544753974053, 0.666, -0.75, 0.202, 192.0, 0.0, 0.0, 0.0, 0.0, 0.0, 0.0, 0.0, 0.0, 0.0, 1.6635911648346531E9, 0.0, 2022-09-19 17:39:24.834
207.0, 15832.388798283197, 47300.85102329863, -39171.38745443671, -7130.139426009587, -187500.02235174447, -44824.478903350704, -640.712754811377, -27862.388236807376, 0.666, -0.75, 0.202, 192.0, 0.0, 0.0, 0.0, 0.0, 0.0, 0.0, 0.0, 0.0, 0.0, 1.663591164837688E9, 0.0, 2022-09-19 17:39:24.837
208.0, 16136.283115897551, 47348.66140468853, -39211.50883573399, -7169.746717184391, -187500.02235174447, -44264.59005648972, -134.13281847629767, -27921.62035961394, 0.666, -0.75, 0.202, 192.0, 0.0, 0.0, 0.0, 0.0, 0.0, 0.0, 0.0, 0.0, 0.0, 1.663591164842662E9, 0.0, 2022-09-19 17:39:24.842
209.0, 16646.126406923104, 47365.51462000783, -39244.879990205765, -7216.573621818259, -187500.02235174447, -43143.381851122605, 196.1589093397748, -27981.97006964327, 0.666, -0.75, 0.202, 192.0, 0.0, 0.0, 0.0, 0.0, 0.0, 0.0, 0.0, 0.0, 0.0, 1.6635911648466487E9, 0.0, 2022-09-19 17:39:24.846
210.0, 16460.763390155244, 47274.028929952256, -39202.74695190751, -7184.163592358064, -187500.02235174447, -43295.79839656334, -607.5651177841565, -27877.877995714905, 0.676, -0.748, 0.2, 192.0, 21.0, 32.0, 232.0, 160.0, 6.0, 64.0, 0.0, 0.0, 0.0, 1.6635911648506525E9, 0.0, 2022-09-19 17:39:24.850
211.0, 15982.525465789495, 47230.688897453416, -39150.153297204175, -7148.534911696304, -187500.02235174447, -44263.15954484457, -1019.7089337955636, -27839.812974907516, 0.676, -0.748, 0.2, 192.0, 0.0, 0.0, 0.0, 0.0, 0.0, 0.0, 0.0, 0.0, 0.0, 1.6635911648547106E9, 0.0, 2022-09-19 17:39:24.854
212.0, 15943.409912992707, 47247.2515400948, -39187.65952440018, -7162.594158958693, -187500.02235174447, -44453.194076203596, -662.1033742551058, -27882.258937628143, 0.676, -0.748, 0.2, 192.0, 0.0, 0.0, 0.0, 0.0, 0.0, 0.0, 0.0, 0.0, 0.0, 1.6635911648587675E9, 0.0, 2022-09-19 17:39:24.858
213.0, 16257.474274334227, 47283.37195913458, -39220.04720211592, -7183.783612702324, -187500.02235174447, -43873.32276979957, -148.6838041167026, -27928.10236550598, 0.676, -0.748, 0.2, 192.0, 0.0, 0.0, 0.0, 0.0, 0.0, 0.0, 0.0, 0.0, 0.0, 1.6635911648626804E9, 0.0, 2022-09-19 17:39:24.862
214.0, 16781.712088788998, 47310.6187356256, -39243.270664604985, -7226.006057978399, -187500.02235174447, -42727.10296238696, 194.3260662944396, -27973.2528893057, 0.676, -0.748, 0.2, 192.0, 0.0, 0.0, 0.0, 0.0, 0.0, 0.0, 0.0, 0.0, 0.0, 1.6635911648657053E9, 0.0, 2022-09-19 17:39:24.865
215.0, 16600.819420912198, 47221.27881303774, -39197.60605068279, -7203.4084443340835, -187500.02235174447, -42861.28048435217, -605.2181846163494, -27884.292946373578, 0.676, -0.748, 0.2, 192.0, 0.0, 0.0, 0.0, 0.0, 0.0, 0.0, 0.0, 0.0, 0.0, 1.6635911648707376E9, 0.0, 2022-09-19 17:39:24.870
216.0, 16121.15098490131, 47188.533507410706, -39160.59156186481, -7166.840990405201, -187500.02235174447, -43812.77189407014, -1020.6700588071417, -27836.482564983675, 0.676, -0.748, 0.2, 192.0, 0.0, 0.0, 0.0, 0.0, 0.0, 0.0, 0.0, 0.0, 0.0, 1.6635911648747146E9, 0.0, 2022-09-19 17:39:24.874
217.0, 16083.80121991649, 47218.35073451409, -39201.36114375128, -7207.699979269502, -187500.02235174447, -43986.333189765595, -675.8496970951196, -27909.86334203045, 0.676, -0.748, 0.2, 192.0, 0.0, 0.0, 0.0, 0.0, 0.0, 0.0, 0.0, 0.0, 0.0, 1.6635911648787143E9, 0.0, 2022-09-19 17:39:24.878
218.0, 16410.516668619715, 47237.886159168025, -39211.128856078256, -7220.708694542492, -187500.02235174447, -43376.2870283469, -136.85973129984515, -27956.48908096422, 0.676, -0.748, 0.2, 192.0, 0.0, 0.0, 0.0, 0.0, 0.0, 0.0, 0.0, 0.0, 0.0, 1.6635911648827057E9, 0.0, 2022-09-19 17:39:24.882
219.0, 16935.4473871526, 47237.752048701295, -39274.22783067558, -7247.754305333413, -187500.02235174447, -42213.32576433728, 181.0267783435319, -28003.517151298187, 0.676, -0.748, 0.2, 192.0, 0.0, 0.0, 0.0, 0.0, 0.0, 0.0, 0.0, 0.0, 0.0, 1.6635911648887477E9, 0.0, 2022-09-19 17:39:24.888
220.0, 16757.75101873291, 47137.61623354152, -39224.606957984804, -7216.7300840294465, -187500.02235174447, -42323.18458833511, -612.7954259866984, -27922.626188114427, 0.676, -0.746, 0.20600000000000002, 192.0, 21.0, 32.0, 232.0, 176.0, 6.0, 112.0, 0.0, 0.0, 0.0, 1.663591164891821E9, 0.0, 2022-09-19 17:39:24.891
221.0, 16306.581056902536, 47117.27614608719, -39154.93657051761, -7140.957670325955, -187500.02235174447, -43224.965718384476, -1017.7643320279518, -27839.03066385158, 0.676, -0.746, 0.20600000000000002, 192.0, 0.0, 0.0, 0.0, 0.0, 0.0, 0.0, 0.0, 0.0, 0.0, 1.66359116489474E9, 0.0, 2022-09-19 17:39:24.894
222.0, 16295.13696374142, 47159.49859136326, -39171.02982652543, -7135.593251656682, -187500.02235174447, -43344.994586109475, -648.6923275819215, -27869.004353166147, 0.676, -0.746, 0.20600000000000002, 192.0, 0.0, 0.0, 0.0, 0.0, 0.0, 0.0, 0.0, 0.0, 0.0, 1.6635911648986602E9, 0.0, 2022-09-19 17:39:24.898
223.0, 16613.38110129608, 47184.621952131034, -39195.5496901929, -7155.486304221905, -187500.02235174447, -42716.79880819307, -117.63723106828107, -27925.2413422157, 0.676, -0.746, 0.20600000000000002, 192.0, 0.0, 0.0, 0.0, 0.0, 0.0, 0.0, 0.0, 0.0, 0.0, 1.663591164902778E9, 0.0, 2022-09-19 17:39:24.902
224.0, 17143.832700709427, 47179.86103056205, -39227.44562953063, -7175.736984698414, -187500.02235174447, -41530.36821250537, 243.0305174625537, -27968.648429947905, 0.676, -0.746, 0.20600000000000002, 192.0, 0.0, 0.0, 0.0, 0.0, 0.0, 0.0, 0.0, 0.0, 0.0, 1.6635911649067633E9, 0.0, 2022-09-19 17:39:24.906
225.0, 16959.98960256453, 47047.62811036445, -39193.24746051401, -7150.121885552631, -187500.02235174447, -41630.28051022059, -566.9743498533189, -27889.18797840929, 0.676, -0.746, 0.20600000000000002, 192.0, 0.0, 0.0, 0.0, 0.0, 0.0, 0.0, 0.0, 0.0, 0.0, 1.6635911649107475E9, 0.0, 2022-09-19 17:39:24.910
226.0, 16502.091765653106, 47017.02857220514, -39140.54204708839, -7094.600152325649, -187500.02235174447, -42520.21521570864, -980.3922152986784, -27831.207553292224, 0.676, -0.746, 0.20600000000000002, 192.0, 0.0, 0.0, 0.0, 0.0, 0.0, 0.0, 0.0, 0.0, 0.0, 1.66359116491478E9, 0.0, 2022-09-19 17:39:24.914
227.0, 16483.517466010748, 47065.08482278405, -39166.98416077902, -7097.371768638107, -187500.02235174447, -42628.10708619441, -631.4144291179692, -27875.173434635813, 0.676, -0.746, 0.20600000000000002, 192.0, 0.0, 0.0, 0.0, 0.0, 0.0, 0.0, 0.0, 0.0, 0.0, 1.66359116491873E9, 0.0, 2022-09-19 17:39:24.918
228.0, 16808.71299609101, 47142.69007953288, -39189.13473953423, -7116.080178747199, -187500.02235174447, -41986.90259300501, -132.79171380897927, -27936.73013886573, 0.676, -0.746, 0.20600000000000002, 192.0, 0.0, 0.0, 0.0, 0.0, 0.0, 0.0, 0.0, 0.0, 0.0, 1.6635911649218628E9, 0.0, 2022-09-19 17:39:24.921
229.0, 17339.030485037623, 47155.85525701705, -39216.068591602874, -7140.220062758931, -187500.02235174447, -40801.94721245137, 209.97228741315453, -27962.59110720052, 0.676, -0.746, 0.20600000000000002, 192.0, 0.0, 0.0, 0.0, 0.0, 0.0, 0.0, 0.0, 0.0, 0.0, 1.663591164926843E9, 0.0, 2022-09-19 17:39:24.926
230.0, 17154.472131070153, 47022.5494530856, -39166.93945729011, -7117.667152603526, -187500.02235174447, -40900.250184565804, -569.8353731435983, -27860.22011759521, 0.68, -0.738, 0.214, 192.0, 21.0, 64.0, 232.0, 240.0, 6.0, 176.0, 0.0, 0.0, 0.0, 1.66359116493075E9, 0.0, 2022-09-19 17:39:24.930
231.0, 16684.660814364055, 46981.98103689922, -39130.77433476142, -7082.932541719979, -187500.02235174447, -41797.628020957476, -983.2532385889577, -27805.16777100179, 0.68, -0.738, 0.214, 192.0, 0.0, 0.0, 0.0, 0.0, 0.0, 0.0, 0.0, 0.0, 0.0, 1.6635911649347417E9, 0.0, 2022-09-19 17:39:24.934
232.0, 16666.220625188427, 47019.86724375096, -39153.03667223891, -7088.49812608935, -187500.02235174447, -41904.53641468721, -622.0266964467403, -27847.345512788954, 0.68, -0.738, 0.214, 192.0, 0.0, 0.0, 0.0, 0.0, 0.0, 0.0, 0.0, 0.0, 0.0, 1.663591164938793E9, 0.0, 2022-09-19 17:39:24.938
233.0, 16981.3578702638, 47080.82045088059, -39180.61872489676, -7104.12199546361, -187500.02235174447, -41273.74783441399, -104.53910881747113, -27906.197655939777, 0.68, -0.738, 0.214, 192.0, 0.0, 0.0, 0.0, 0.0, 0.0, 0.0, 0.0, 0.0, 0.0, 1.663591164942845E9, 0.0, 2022-09-19 17:39:24.942
234.0, 17495.000957846758, 47070.78451762015, -39217.8567311593, -7132.374600455118, -187500.02235174447, -40104.95276510152, 230.55824405649236, -27954.455072218785, 0.68, -0.738, 0.214, 192.0, 0.0, 0.0, 0.0, 0.0, 0.0, 0.0, 0.0, 0.0, 0.0, 1.6635911649468017E9, 0.0, 2022-09-19 17:39:24.946
235.0, 17300.51842934113, 46925.72169610521, -39186.720751133056, -7120.416417171528, -187500.02235174447, -40211.34706870879, -578.8878296479976, -27884.538815562584, 0.68, -0.738, 0.214, 192.0, 0.0, 0.0, 0.0, 0.0, 0.0, 0.0, 0.0, 0.0, 0.0, 1.6635911649518063E9, 0.0, 2022-09-19 17:39:24.951
236.0, 16828.449586445044, 46884.95211421873, -39149.862724526254, -7089.012216211822, -187500.02235174447, -41115.60924239269, -1006.3649423557451, -27841.064672597015, 0.68, -0.738, 0.214, 192.0, 0.0, 0.0, 0.0, 0.0, 0.0, 0.0, 0.0, 0.0, 0.0, 1.6635911649548337E9, 0.0, 2022-09-19 17:39:24.954
237.0, 16813.85389731573, 46937.38930671088, -39150.13094545972, -7080.11622191861, -187500.02235174447, -41234.073488005815, -618.1598446559722, -27852.553469247043, 0.68, -0.738, 0.214, 192.0, 0.0, 0.0, 0.0, 0.0, 0.0, 0.0, 0.0, 0.0, 0.0, 1.6635911649587991E9, 0.0, 2022-09-19 17:39:24.958
238.0, 17125.526622000532, 46979.14236535339, -39170.73925384751, -7106.2007076979535, -187500.02235174447, -40620.56280619655, -99.84524248185664, -27889.47855108721, 0.68, -0.738, 0.214, 192.0, 0.0, 0.0, 0.0, 0.0, 0.0, 0.0, 0.0, 0.0, 0.0, 1.6635911649628603E9, 0.0, 2022-09-19 17:39:24.962
239.0, 17634.051160103223, 46963.76436516814, -39220.47188526057, -7142.812865115746, -187500.02235174447, -39471.459623749215, 215.98490667163216, -27930.181077740323, 0.68, -0.738, 0.214, 192.0, 0.0, 0.0, 0.0, 0.0, 0.0, 0.0, 0.0, 0.0, 0.0, 1.6635911649668317E9, 0.0, 2022-09-19 17:39:24.966
240.0, 17439.143948452944, 46841.723840442166, -39175.76839634996, -7115.566088624727, -187500.02235174447, -39591.17556705184, -581.0559488601624, -27848.08312035598, 0.682, -0.728, 0.224, 192.0, 21.0, 80.0, 233.0, 64.0, 7.0, 0.0, 0.0, 0.0, 0.0, 1.663591164971856E9, 0.0, 2022-09-19 17:39:24.971
241.0, 16957.955593819093, 46815.86287210738, -39122.83946547979, -7070.057936913721, -187500.02235174447, -40516.15780784581, -984.6390467451868, -27805.301881468524, 0.682, -0.728, 0.224, 192.0, 0.0, 0.0, 0.0, 0.0, 0.0, 0.0, 0.0, 0.0, 0.0, 1.6635911649758253E9, 0.0, 2022-09-19 17:39:24.975
242.0, 16922.863355024263, 46867.3612913324, -39132.83069525131, -7070.639082269559, -187500.02235174447, -40664.97572242925, -606.35812358357, -27849.17835583429, 0.682, -0.728, 0.224, 192.0, 0.0, 0.0, 0.0, 0.0, 0.0, 0.0, 0.0, 0.0, 0.0, 1.6635911649788587E9, 0.0, 2022-09-19 17:39:24.978
243.0, 17217.146422522834, 46886.04734969704, -39163.40788166617, -7089.660416801026, -187500.02235174447, -40082.198689246026, -100.24757388205218, -27902.129638448914, 0.682, -0.728, 0.224, 192.0, 0.0, 0.0, 0.0, 0.0, 0.0, 0.0, 0.0, 0.0, 0.0, 1.6635911649818451E9, 0.0, 2022-09-19 17:39:24.981
244.0, 17705.420280149017, 46853.16793360328, -39212.53701597894, -7131.145254510076, -187500.02235174447, -38966.10903335918, 209.2346798461294, -27954.119796051957, 0.682, -0.728, 0.224, 192.0, 0.0, 0.0, 0.0, 0.0, 0.0, 0.0, 0.0, 0.0, 0.0, 1.6635911649869244E9, 0.0, 2022-09-19 17:39:24.986
245.0, 17505.0815945961, 46737.78822872499, -39159.83160255332, -7108.748806565858, -187500.02235174447, -39102.27586058091, -577.7702424252323, -27876.84981546996, 0.682, -0.728, 0.224, 192.0, 0.0, 0.0, 0.0, 0.0, 0.0, 0.0, 0.0, 0.0, 0.0, 1.663591164990906E9, 0.0, 2022-09-19 17:39:24.990
246.0, 17028.40829234222, 46723.90779541824, -39113.07175315282, -7049.851959926124, -187500.02235174447, -40033.00249969989, -986.8071659573515, -27808.051146036523, 0.682, -0.728, 0.224, 192.0, 0.0, 0.0, 0.0, 0.0, 0.0, 0.0, 0.0, 0.0, 0.0, 1.663591164994848E9, 0.0, 2022-09-19 17:39:24.994
247.0, 16978.563902206886, 46759.20119991317, -39144.632416323715, -7061.519570531795, -187500.02235174447, -40211.928214064625, -649.4522868934021, -27854.788643692573, 0.682, -0.728, 0.224, 192.0, 0.0, 0.0, 0.0, 0.0, 0.0, 0.0, 0.0, 0.0, 0.0, 1.6635911649990003E9, 0.0, 2022-09-19 17:39:24.999
248.0, 17265.80617020204, 46783.51989788054, -39164.23489621102, -7095.650684315048, -187500.02235174447, -39648.5077915797, -142.3359086913954, -27925.82248757154, 0.682, -0.728, 0.224, 192.0, 0.0, 0.0, 0.0, 0.0, 0.0, 0.0, 0.0, 0.0, 0.0, 1.663591165001928E9, 0.0, 2022-09-19 17:39:25.001
249.0, 17761.27728954283, 46782.424662402234, -39181.31162897487, -7114.806129313247, -187500.02235174447, -38540.24124625221, 218.24243286161817, -27952.33165649553, 0.682, -0.728, 0.224, 192.0, 0.0, 0.0, 0.0, 0.0, 0.0, 0.0, 0.0, 0.0, 0.0, 1.6635911650059578E9, 0.0, 2022-09-19 17:39:25.005
250.0, 17553.696638786394, 46693.218850281104, -39136.31756738634, -7075.511762560816, -187500.02235174447, -38698.402190017965, -566.8402393865871, -27862.075312385, 0.68, -0.734, 0.228, 192.0, 21.0, 64.0, 233.0, 16.0, 7.0, 32.0, 0.0, 0.0, 0.0, 1.663591165009925E9, 0.0, 2022-09-19 17:39:25.009
251.0, 17052.65993507623, 46658.059556252905, -39098.92309891261, -7033.5351864737495, -187500.02235174447, -39663.37170164248, -989.6011340142649, -27820.45636420922, 0.68, -0.734, 0.228, 192.0, 0.0, 0.0, 0.0, 0.0, 0.0, 0.0, 0.0, 0.0, 0.0, 1.6635911650149157E9, 0.0, 2022-09-19 17:39:25.014
252.0, 17000.356853050813, 46687.29563800045, -39121.99009919049, -7030.2494800388195, -187500.02235174447, -39857.74247142583, -637.0470687207066, -27844.909172643325, 0.68, -0.734, 0.228, 192.0, 0.0, 0.0, 0.0, 0.0, 0.0, 0.0, 0.0, 0.0, 0.0, 1.6635911650189424E9, 0.0, 2022-09-19 17:39:25.018
253.0, 17284.872208222416, 46728.1322751203, -39156.63530309621, -7059.843189697646, -187500.02235174447, -39311.93522357169, -124.9686032496218, -27908.723403063228, 0.68, -0.734, 0.228, 192.0, 0.0, 0.0, 0.0, 0.0, 0.0, 0.0, 0.0, 0.0, 0.0, 1.6635911650229273E9, 0.0, 2022-09-19 17:39:25.022
254.0, 17774.174246093542, 46740.15751363725, -39204.64685018621, -7108.12295772111, -187500.02235174447, -38218.6219952848, 202.30563906498423, -27968.290802036623, 0.68, -0.734, 0.228, 192.0, 0.0, 0.0, 0.0, 0.0, 0.0, 0.0, 0.0, 0.0, 0.0, 1.6635911650259297E9, 0.0, 2022-09-19 17:39:25.025
255.0, 17567.599423837593, 46639.93229149965, -39148.36515764775, -7082.440803341962, -187500.02235174447, -38378.772244307074, -580.810079671154, -27873.60881252394, 0.68, -0.734, 0.228, 192.0, 0.0, 0.0, 0.0, 0.0, 0.0, 0.0, 0.0, 0.0, 0.0, 1.663591165029942E9, 0.0, 2022-09-19 17:39:25.029
0.0, 17076.844522576874, 46602.962506170574, -39108.489645539485, -7045.471018012884, -187500.02235174447, -39336.56684596144, -995.3231805948235, -27820.925750842784, 0.68, -0.734, 0.228, 192.0, 0.0, 0.0, 0.0, 0.0, 0.0, 0.0, 0.0, 0.0, 0.0, 1.6635911650339246E9, 0.0, 2022-09-19 17:39:25.033
1.0, 17029.70469352063, 46637.76417228749, -39143.53718084541, -7069.007404924322, -187500.02235174447, -39523.338022629985, -650.7039845828992, -27863.684637985785, 0.68, -0.734, 0.228, 192.0, 0.0, 0.0, 0.0, 0.0, 0.0, 0.0, 0.0, 0.0, 0.0, 1.663591165037932E9, 0.0, 2022-09-19 17:39:25.037
2.0, 17321.95375227377, 46672.319969215394, -39167.56530613486, -7107.631219343093, -187500.02235174447, -38965.37142579215, -135.54097837698203, -27926.80596432757, 0.68, -0.734, 0.228, 192.0, 0.0, 0.0, 0.0, 0.0, 0.0, 0.0, 0.0, 0.0, 0.0, 1.6635911650420232E9, 0.0, 2022-09-19 17:39:25.042
3.0, 17810.89816223361, 46661.99346327704, -39190.29703024591, -7140.443580203483, -187500.02235174447, -37871.81232831626, 220.09762765140866, -27972.358819527486, 0.68, -0.734, 0.228, 192.0, 0.0, 0.0, 0.0, 0.0, 0.0, 0.0, 0.0, 0.0, 0.0, 1.663591165046936E9, 0.0, 2022-09-19 17:39:25.046
4.0, 17610.514773191782, 46532.576862880815, -39143.023090722934, -7096.656512815537, -187500.02235174447, -38017.970385309505, -547.1930560103722, -27861.382408306887, 0.676, -0.728, 0.232, 192.0, 21.0, 32.0, 233.0, 64.0, 7.0, 64.0, 0.0, 0.0, 0.0, 1.6635911650519407E9, 0.0, 2022-09-19 17:39:25.051
5.0, 17129.34877030239, 46490.64499028266, -39114.144636886675, -7054.5458262617385, -187500.02235174447, -38956.72130068795, -969.7080814490416, -27818.467058952698, 0.676, -0.728, 0.232, 192.0, 0.0, 0.0, 0.0, 0.0, 0.0, 0.0, 0.0, 0.0, 0.0, 1.663591165055028E9, 0.0, 2022-09-19 17:39:25.055
6.0, 17085.874627336816, 46536.9354530496, -39126.43809633709, -7043.861692412102, -187500.02235174447, -39134.08239294081, -610.582603285623, -27852.262896569122, 0.676, -0.728, 0.232, 192.0, 0.0, 0.0, 0.0, 0.0, 0.0, 0.0, 0.0, 0.0, 0.0, 1.6635911650590775E9, 0.0, 2022-09-19 17:39:25.059
7.0, 17373.11689533197, 46612.28318360844, -39138.91036974316, -7050.567215748694, -187500.02235174447, -38577.61336298149, -102.8850797277784, -27904.342461149987, 0.676, -0.728, 0.232, 192.0, 0.0, 0.0, 0.0, 0.0, 0.0, 0.0, 0.0, 0.0, 0.0, 1.6635911650620098E9, 0.0, 2022-09-19 17:39:25.062
8.0, 17854.037029032355, 46626.78946575993, -39189.98410582353, -7094.980131981389, -187500.02235174447, -37484.38954167242, 213.23564210362937, -27968.447264247807, 0.676, -0.728, 0.232, 192.0, 0.0, 0.0, 0.0, 0.0, 0.0, 0.0, 0.0, 0.0, 0.0, 1.6635911650659733E9, 0.0, 2022-09-19 17:39:25.065
9.0, 17657.900471437035, 46503.89957474465, -39154.198962950584, -7070.370861336096, -187500.02235174447, -37616.19777872536, -580.1618790819501, -27865.539832775576, 0.676, -0.728, 0.232, 192.0, 0.0, 0.0, 0.0, 0.0, 0.0, 0.0, 0.0, 0.0, 0.0, 1.66359116507007E9, 0.0, 2022-09-19 17:39:25.070
10.0, 17185.384593651845, 46483.15715589013, -39102.11939836972, -7026.807311392702, -187500.02235174447, -38530.07120252505, -983.9461426670722, -27806.285358224555, 0.676, -0.728, 0.232, 192.0, 0.0, 0.0, 0.0, 0.0, 0.0, 0.0, 0.0, 0.0, 0.0, 1.6635911650750217E9, 0.0, 2022-09-19 17:39:25.075
11.0, 17132.232145337122, 46529.984060523995, -39123.51001781345, -7051.170712848987, -187500.02235174447, -38702.42550401992, -621.7361237688212, -27857.76142570513, 0.676, -0.728, 0.232, 192.0, 0.0, 0.0, 0.0, 0.0, 0.0, 0.0, 0.0, 0.0, 0.0, 1.6635911650790884E9, 0.0, 2022-09-19 17:39:25.079
12.0, 17415.898134219424, 46559.57777018283, -39148.63337858122, -7081.412623097018, -187500.02235174447, -38138.24512222351, -107.37778036329513, -27918.24524620119, 0.676, -0.728, 0.232, 192.0, 0.0, 0.0, 0.0, 0.0, 0.0, 0.0, 0.0, 0.0, 0.0, 1.6635911650820248E9, 0.0, 2022-09-19 17:39:25.082
13.0, 17895.857142908233, 46563.55638069587, -39194.99089658152, -7122.092798005677, -187500.02235174447, -37040.30508283438, 219.56118578448127, -27976.046857362613, 0.676, -0.728, 0.232, 192.0, 0.0, 0.0, 0.0, 0.0, 0.0, 0.0, 0.0, 0.0, 0.0, 1.6635911650860953E9, 0.0, 2022-09-19 17:39:25.086
14.0, 17697.70892831194, 46450.12127758518, -39156.70235832958, -7098.109376205132, -187500.02235174447, -37167.77708146299, -566.6614254309446, -27895.9829087237, 0.668, -0.734, 0.234, 192.0, 20.0, 224.0, 233.0, 16.0, 7.0, 80.0, 0.0, 0.0, 0.0, 1.6635911650900528E9, 0.0, 2022-09-19 17:39:25.090
15.0, 17229.26106801761, 46387.82696578824, -39099.258375079444, -7028.550747460216, -187500.02235174447, -38069.5358597679, -972.9714361395164, -27820.478715953675, 0.668, -0.734, 0.234, 192.0, 0.0, 0.0, 0.0, 0.0, 0.0, 0.0, 0.0, 0.0, 0.0, 1.6635911650940287E9, 0.0, 2022-09-19 17:39:25.094
16.0, 17191.35250942141, 46435.10090531122, -39119.330241600306, -7015.430273464951, -187500.02235174447, -38219.0690301739, -616.3717050995475, -27845.333855787976, 0.668, -0.734, 0.234, 192.0, 0.0, 0.0, 0.0, 0.0, 0.0, 0.0, 0.0, 0.0, 0.0, 1.6635911650980873E9, 0.0, 2022-09-19 17:39:25.098
17.0, 17467.195387744356, 46486.509917558426, -39168.682893357625, -7048.2649860697975, -187500.02235174447, -37654.374558255025, -132.3446789198731, -27913.685490332307, 0.668, -0.734, 0.234, 192.0, 0.0, 0.0, 0.0, 0.0, 0.0, 0.0, 0.0, 0.0, 0.0, 1.6635911651030848E9, 0.0, 2022-09-19 17:39:25.103
18.0, 17939.97948646301, 46492.097853672254, -39217.78967592593, -7111.028684500299, -187500.02235174447, -36557.485050855284, 190.21334531466312, -27983.3558777995, 0.668, -0.734, 0.234, 192.0, 0.0, 0.0, 0.0, 0.0, 0.0, 0.0, 0.0, 0.0, 0.0, 1.6635911651071012E9, 0.0, 2022-09-19 17:39:25.107
19.0, 17750.90608011557, 46406.535375897336, -39139.178590676616, -7062.033660654267, -187500.02235174447, -36665.95806669689, -565.9238178639196, -27866.79153046507, 0.668, -0.734, 0.234, 192.0, 0.0, 0.0, 0.0, 0.0, 0.0, 0.0, 0.0, 0.0, 0.0, 1.66359116511017E9, 0.0, 2022-09-19 17:39:25.110
20.0, 17271.1258853824, 46381.143794196105, -39095.63739247768, -7015.899660098513, -187500.02235174447, -37569.77320549169, -971.2950553053685, -27809.63811989285, 0.668, -0.734, 0.234, 192.0, 0.0, 0.0, 0.0, 0.0, 0.0, 0.0, 0.0, 0.0, 0.0, 1.663591165114071E9, 0.0, 2022-09-19 17:39:25.114
21.0, 17224.768367382094, 46402.534413639834, -39122.10185791276, -7031.277660283764, -187500.02235174447, -37726.32482365666, -621.0432196907068, -27859.348399561455, 0.668, -0.734, 0.234, 192.0, 0.0, 0.0, 0.0, 0.0, 0.0, 0.0, 0.0, 0.0, 0.0, 1.6635911651180987E9, 0.0, 2022-09-19 17:39:25.118
22.0, 17514.26816156723, 46434.43035297756, -39155.58477110681, -7055.752820462325, -187500.02235174447, -37148.04049110896, -121.50408285904919, -27922.067394503047, 0.668, -0.734, 0.234, 192.0, 0.0, 0.0, 0.0, 0.0, 0.0, 0.0, 0.0, 0.0, 0.0, 1.6635911651241393E9, 0.0, 2022-09-19 17:39:25.124
23.0, 18002.27379825995, 46439.526550713366, -39187.23484125553, -7086.397062110551, -187500.02235174447, -36038.58930332533, 212.9450694257104, -27964.803929901595, 0.668, -0.734, 0.234, 192.0, 0.0, 0.0, 0.0, 0.0, 0.0, 0.0, 0.0, 0.0, 0.0, 1.663591165127159E9, 0.0, 2022-09-19 17:39:25.127
24.0, 17805.62315054216, 46328.863063915145, -39143.31366340085, -7051.505989015817, -187500.02235174447, -36156.561810560444, -562.2357800287939, -27858.36492280542, 0.674, -0.728, 0.24, 192.0, 21.0, 16.0, 233.0, 64.0, 7.0, 128.0, 0.0, 0.0, 0.0, 1.6635911651301336E9, 0.0, 2022-09-19 17:39:25.130
25.0, 17328.48046165472, 46325.30913654675, -39101.94058441408, -7012.4574914523955, -187500.02235174447, -37061.22631564454, -972.1444215946701, -27811.806239105015, 0.674, -0.728, 0.24, 192.0, 0.0, 0.0, 0.0, 0.0, 0.0, 0.0, 0.0, 0.0, 0.0, 1.6635911651351485E9, 0.0, 2022-09-19 17:39:25.135
26.0, 17281.765315743127, 46398.622858360155, -39133.992985962985, -7021.107616556599, -187500.02235174447, -37218.80611405446, -625.8935482375084, -27863.729341474696, 0.674, -0.728, 0.24, 192.0, 0.0, 0.0, 0.0, 0.0, 0.0, 0.0, 0.0, 0.0, 0.0, 1.6635911651381445E9, 0.0, 2022-09-19 17:39:25.138
27.0, 17569.61108083857, 46477.79273722086, -39161.91031478767, -7039.547805732228, -187500.02235174447, -36652.52466827926, -128.67899282920277, -27919.85457180197, 0.674, -0.728, 0.24, 192.0, 0.0, 0.0, 0.0, 0.0, 0.0, 0.0, 0.0, 0.0, 0.0, 1.6635911651421185E9, 0.0, 2022-09-19 17:39:25.142
28.0, 18050.218290116583, 46493.26014438393, -39195.25911751499, -7071.3319863476745, -187500.02235174447, -35561.96070456037, 207.55829901198138, -27962.613458944972, 0.674, -0.728, 0.24, 192.0, 0.0, 0.0, 0.0, 0.0, 0.0, 0.0, 0.0, 0.0, 0.0, 1.6635911651462066E9, 0.0, 2022-09-19 17:39:25.146
29.0, 17864.519997181895, 46421.3098789823, -39141.838448266804, -7018.604221177605, -187500.02235174447, -35680.73787459587, -553.9432828358749, -27861.51651877362, 0.674, -0.728, 0.24, 192.0, 0.0, 0.0, 0.0, 0.0, 0.0, 0.0, 0.0, 0.0, 0.0, 1.6635911651501532E9, 0.0, 2022-09-19 17:39:25.150
30.0, 17386.952625149803, 46419.27587023686, -39086.227308062, -6951.481932578317, -187500.02235174447, -36593.069028028134, -956.0958690757597, -27807.626462891873, 0.674, -0.728, 0.24, 192.0, 0.0, 0.0, 0.0, 0.0, 0.0, 0.0, 0.0, 0.0, 0.0, 1.6635911651541889E9, 0.0, 2022-09-19 17:39:25.154
31.0, 17340.729217616226, 46476.38457732017, -39107.84144495028, -6947.078638920622, -187500.02235174447, -36759.83539340918, -602.0218851592405, -27851.74880644665, 0.674, -0.728, 0.24, 192.0, 0.0, 0.0, 0.0, 0.0, 0.0, 0.0, 0.0, 0.0, 0.0, 1.6635911651581604E9, 0.0, 2022-09-19 17:39:25.158
32.0, 17618.382587240052, 46519.076409229805, -39150.84620128229, -6984.584866116627, -187500.02235174447, -36215.90569208928, -114.37387637780624, -27932.48330741922, 0.674, -0.728, 0.24, 192.0, 0.0, 0.0, 0.0, 0.0, 0.0, 0.0, 0.0, 0.0, 0.0, 1.6635911651631503E9, 0.0, 2022-09-19 17:39:25.163
33.0, 18100.889694796766, 46535.61670012673, -39195.68380065964, -7029.15424456051, -187500.02235174447, -35140.67502506674, 199.22109833015185, -27983.40058128841, 0.674, -0.728, 0.24, 192.0, 0.0, 0.0, 0.0, 0.0, 0.0, 0.0, 0.0, 0.0, 0.0, 1.6635911651661491E9, 0.0, 2022-09-19 17:39:25.166
34.0, 17909.469355281515, 46440.75589665841, -39149.661558826156, -6996.76656684477, -187500.02235174447, -35278.89821277836, -592.7012077213774, -27894.75356277866, 0.668, -0.724, 0.232, 192.0, 20.0, 224.0, 233.0, 96.0, 7.0, 64.0, 0.0, 0.0, 0.0, 1.66359116517018E9, 0.0, 2022-09-19 17:39:25.170
35.0, 17424.704721534818, 46399.91925953857, -39084.68503769458, -6952.957147712368, -187500.02235174447, -36213.6481658993, -982.0015408994605, -27841.55641097503, 0.668, -0.724, 0.232, 192.0, 0.0, 0.0, 0.0, 0.0, 0.0, 0.0, 0.0, 0.0, 0.0, 1.6635911651741805E9, 0.0, 2022-09-19 17:39:25.174
36.0, 17367.39484875141, 46433.46922796598, -39098.0290291344, -6945.245795875287, -187500.02235174447, -36412.578691551535, -608.906222451475, -27857.292039071566, 0.668, -0.724, 0.232, 192.0, 0.0, 0.0, 0.0, 0.0, 0.0, 0.0, 0.0, 0.0, 0.0, 1.6635911651782284E9, 0.0, 2022-09-19 17:39:25.178
37.0, 17643.550651496727, 46475.55756277533, -39141.57022733334, -6976.672348579449, -187500.02235174447, -35889.01142943042, -122.06287647043187, -27929.33171145102, 0.668, -0.724, 0.232, 192.0, 0.0, 0.0, 0.0, 0.0, 0.0, 0.0, 0.0, 0.0, 0.0, 1.6635911651821704E9, 0.0, 2022-09-19 17:39:25.182
38.0, 18133.8808696128, 46491.09202517176, -39176.863631828266, -7004.097939026111, -187500.02235174447, -34822.36383227871, 211.0675228914646, -27982.238290576734, 0.668, -0.724, 0.232, 192.0, 0.0, 0.0, 0.0, 0.0, 0.0, 0.0, 0.0, 0.0, 0.0, 1.6635911651861985E9, 0.0, 2022-09-19 17:39:25.186
39.0, 17926.344922345274, 46382.350788396696, -39146.93464600261, -6981.589732359616, -187500.02235174447, -34990.02426743797, -572.5175824782351, -27891.333745877, 0.668, -0.724, 0.232, 192.0, 0.0, 0.0, 0.0, 0.0, 0.0, 0.0, 0.0, 0.0, 0.0, 1.663591165191259E9, 0.0, 2022-09-19 17:39:25.191
40.0, 17442.876689776982, 46357.96503519596, -39105.338049571285, -6941.043667917689, -187500.02235174447, -35935.39129917518, -996.1501951396699, -27837.622503950897, 0.668, -0.724, 0.232, 192.0, 0.0, 0.0, 0.0, 0.0, 0.0, 0.0, 0.0, 0.0, 0.0, 1.6635911651943653E9, 0.0, 2022-09-19 17:39:25.194
41.0, 17406.21982887028, 46437.3137280123, -39099.79481694637, -6938.920252194435, -187500.02235174447, -36127.37043230182, -617.9363272114191, -27856.286210571077, 0.668, -0.724, 0.232, 192.0, 0.0, 0.0, 0.0, 0.0, 0.0, 0.0, 0.0, 0.0, 0.0, 1.663591165198306E9, 0.0, 2022-09-19 17:39:25.198
42.0, 17677.88293098008, 46478.50799304342, -39141.190247677594, -6977.432307890929, -187500.02235174447, -35620.61168201109, -121.07939971439836, -27936.640731887906, 0.668, -0.724, 0.232, 192.0, 0.0, 0.0, 0.0, 0.0, 0.0, 0.0, 0.0, 0.0, 0.0, 1.663591165203334E9, 0.0, 2022-09-19 17:39:25.203
43.0, 18160.390038536792, 46485.90642045813, -39191.72754189104, -7026.874366626069, -187500.02235174447, -34575.60057349212, 190.92860113723293, -28002.24310186423, 0.668, -0.724, 0.232, 192.0, 0.0, 0.0, 0.0, 0.0, 0.0, 0.0, 0.0, 0.0, 0.0, 1.663591165206372E9, 0.0, 2022-09-19 17:39:25.206
44.0, 17970.26610019995, 46410.35752419919, -39137.97159647603, -6985.568342872661, -187500.02235174447, -34732.73333701293, -577.6584837029558, -27910.04215598609, 0.668, -0.724, 0.232, 192.0, 0.0, 0.0, 0.0, 0.0, 0.0, 0.0, 0.0, 0.0, 0.0, 1.6635911652102997E9, 0.0, 2022-09-19 17:39:25.210
45.0, 17481.36639372902, 46399.963963027476, -39107.39441006117, -6944.262319119253, -187500.02235174447, -35685.811720587226, -993.6244480162202, -27856.956762904738, 0.668, -0.73, 0.232, 192.0, 20.0, 224.0, 233.0, 48.0, 7.0, 64.0, 0.0, 0.0, 0.0, 1.663591165214275E9, 0.0, 2022-09-19 17:39:25.214
46.0, 17426.649323302427, 46452.0658793528, -39129.4332300941, -6938.853196961069, -187500.02235174447, -35896.58867080077, -642.1879699454272, -27877.810940481537, 0.668, -0.73, 0.232, 192.0, 0.0, 0.0, 0.0, 0.0, 0.0, 0.0, 0.0, 0.0, 0.0, 1.6635911652202609E9, 0.0, 2022-09-19 17:39:25.220
47.0, 17705.68850108248, 46514.896633016666, -39163.67610259964, -6961.853142005581, -187500.02235174447, -35387.19241466432, -148.21441748314112, -27944.419138958354, 0.668, -0.73, 0.232, 192.0, 0.0, 0.0, 0.0, 0.0, 0.0, 0.0, 0.0, 0.0, 0.0, 1.6635911652232544E9, 0.0, 2022-09-19 17:39:25.223
48.0, 18186.809800482966, 46537.181322238604, -39189.96175407908, -6988.876401052046, -187500.02235174447, -34345.33290211355, 192.89555464929995, -27987.200377845813, 0.668, -0.73, 0.232, 192.0, 0.0, 0.0, 0.0, 0.0, 0.0, 0.0, 0.0, 0.0, 0.0, 1.6635911652262557E9, 0.0, 2022-09-19 17:39:25.226
49.0, 17982.492504417005, 46456.89385615514, -39149.16982044814, -6961.003775716278, -187500.02235174447, -34522.291662966214, -586.3086088071595, -27903.24722567168, 0.668, -0.73, 0.232, 192.0, 0.0, 0.0, 0.0, 0.0, 0.0, 0.0, 0.0, 0.0, 0.0, 1.6635911652302725E9, 0.0, 2022-09-19 17:39:25.230
50.0, 17496.431469491898, 46447.93080662857, -39102.767598958926, -6907.694865190371, -187500.02235174447, -35472.509023250226, -992.5068607934548, -27849.93831514577, 0.668, -0.73, 0.232, 192.0, 0.0, 0.0, 0.0, 0.0, 0.0, 0.0, 0.0, 0.0, 0.0, 1.663591165234343E9, 0.0, 2022-09-19 17:39:25.234
51.0, 17450.40922765842, 46512.03560972639, -39124.51584631394, -6905.191469811377, -187500.02235174447, -35670.92545877999, -629.5815860726341, -27889.791475509584, 0.668, -0.73, 0.232, 192.0, 0.0, 0.0, 0.0, 0.0, 0.0, 0.0, 0.0, 0.0, 0.0, 1.6635911652382865E9, 0.0, 2022-09-19 17:39:25.238
52.0, 17732.264725239842, 46566.41740398615, -39156.83646879631, -6928.191414855888, -187500.02235174447, -35152.76731881706, -133.48461788709378, -27953.29278150711, 0.668, -0.73, 0.232, 192.0, 0.0, 0.0, 0.0, 0.0, 0.0, 0.0, 0.0, 0.0, 0.0, 1.663591165242304E9, 0.0, 2022-09-19 17:39:25.242
53.0, 18211.016739728064, 46590.06554961986, -39187.43600695563, -6968.268092664253, -187500.02235174447, -34106.57156784196, 192.0685401044536, -28010.93793045735, 0.668, -0.73, 0.232, 192.0, 0.0, 0.0, 0.0, 0.0, 0.0, 0.0, 0.0, 0.0, 0.0, 1.6635911652462947E9, 0.0, 2022-09-19 17:39:25.246
54.0, 18011.594475697813, 46514.40489463865, -39146.17468669113, -6937.132112638011, -187500.02235174447, -34262.34087495099, -592.0306553877182, -27913.797249054584, 0.668, -0.73, 0.232, 192.0, 0.0, 0.0, 0.0, 0.0, 0.0, 0.0, 0.0, 0.0, 0.0, 1.6635911652503216E9, 0.0, 2022-09-19 17:39:25.250
55.0, 17541.447882824887, 46520.66338308613, -39096.822034933815, -6888.382957980986, -187500.02235174447, -35180.9528685752, -993.0880061492928, -27856.062693126525, 0.668, -0.73, 0.23600000000000002, 192.0, 20.0, 224.0, 233.0, 48.0, 7.0, 96.0, 0.0, 0.0, 0.0, 1.6635911652533264E9, 0.0, 2022-09-19 17:39:25.253
56.0, 17503.42756550641, 46576.81096515786, -39115.35163108726, -6892.473327216307, -187500.02235174447, -35354.13418461492, -622.9207662249526, -27893.99360346718, 0.668, -0.73, 0.23600000000000002, 192.0, 0.0, 0.0, 0.0, 0.0, 0.0, 0.0, 0.0, 0.0, 0.0, 1.6635911652583792E9, 0.0, 2022-09-19 17:39:25.258
57.0, 17785.730097976935, 46618.31815461137, -39161.08330024282, -6921.061208374645, -187500.02235174447, -34812.216140296005, -139.02785051200993, -27953.672761162852, 0.668, -0.73, 0.23600000000000002, 192.0, 0.0, 0.0, 0.0, 0.0, 0.0, 0.0, 0.0, 0.0, 0.0, 1.6635911652623255E9, 0.0, 2022-09-19 17:39:25.262
58.0, 18266.314955510494, 46616.08298016584, -39184.70909413208, -6958.723897781837, -187500.02235174447, -33742.28283670936, 209.9052321797886, -28000.700831496815, 0.668, -0.73, 0.23600000000000002, 192.0, 0.0, 0.0, 0.0, 0.0, 0.0, 0.0, 0.0, 0.0, 0.0, 1.663591165266405E9, 0.0, 2022-09-19 17:39:25.266
59.0, 18065.8645112353, 46504.614830567225, -39144.81123027936, -6938.875548705524, -187500.02235174447, -33872.70526560608, -560.5146957057352, -27919.988682268704, 0.668, -0.73, 0.23600000000000002, 192.0, 0.0, 0.0, 0.0, 0.0, 0.0, 0.0, 0.0, 0.0, 0.0, 1.663591165270403E9, 0.0, 2022-09-19 17:39:25.270
60.0, 17600.523543420262, 46490.80145249384, -39099.70540996855, -6888.539420192173, -187500.02235174447, -34758.169622203066, -970.2668750604242, -27860.488338528674, 0.668, -0.73, 0.23600000000000002, 192.0, 0.0, 0.0, 0.0, 0.0, 0.0, 0.0, 0.0, 0.0, 0.0, 1.6635911652743979E9, 0.0, 2022-09-19 17:39:25.274
61.0, 17568.20292093789, 46541.27169147393, -39121.006622434455, -6893.881487116992, -187500.02235174447, -34900.371420427735, -613.421274831447, -27894.842969756482, 0.668, -0.73, 0.23600000000000002, 192.0, 0.0, 0.0, 0.0, 0.0, 0.0, 0.0, 0.0, 0.0, 0.0, 1.6635911652793803E9, 0.0, 2022-09-19 17:39:25.279
62.0, 17856.272203477885, 46590.4455292756, -39160.904486287174, -6925.218632843332, -187500.02235174447, -34337.1521636429, -123.53809160448213, -27963.954563612293, 0.668, -0.73, 0.23600000000000002, 192.0, 0.0, 0.0, 0.0, 0.0, 0.0, 0.0, 0.0, 0.0, 0.0, 1.6635911652833397E9, 0.0, 2022-09-19 17:39:25.283
63.0, 18340.58980233548, 46600.01207590247, -39206.9043763762, -6972.00083398829, -187500.02235174447, -33254.52306920565, 196.04715061749826, -28030.518058600195, 0.668, -0.73, 0.23600000000000002, 192.0, 0.0, 0.0, 0.0, 0.0, 0.0, 0.0, 0.0, 0.0, 0.0, 1.6635911652863908E9, 0.0, 2022-09-19 17:39:25.286
64.0, 18159.585375736402, 46508.41462712463, -39155.0930327288, -6937.579147527117, -187500.02235174447, -33358.45868092283, -569.9024283769642, -27938.71944412225, 0.668, -0.73, 0.23600000000000002, 192.0, 0.0, 0.0, 0.0, 0.0, 0.0, 0.0, 0.0, 0.0, 0.0, 1.6635911652904837E9, 0.0, 2022-09-19 17:39:25.290
65.0, 17698.98297774589, 46506.78294977939, -39109.98721241799, -6888.4276614698965, -187500.02235174447, -34228.50033384566, -978.8946484201728, -27869.004353166147, 0.666, -0.726, 0.23800000000000002, 192.0, 20.0, 208.0, 233.0, 80.0, 7.0, 112.0, 0.0, 0.0, 0.0, 1.6635911652953842E9, 0.0, 2022-09-19 17:39:25.295
66.0, 17664.002497673333, 46563.73519465151, -39121.498360812475, -6890.595780682062, -187500.02235174447, -34362.052006966114, -623.6360220475224, -27899.313318647542, 0.666, -0.726, 0.23800000000000002, 192.0, 0.0, 0.0, 0.0, 0.0, 0.0, 0.0, 0.0, 0.0, 0.0, 1.6635911653004196E9, 0.0, 2022-09-19 17:39:25.300
67.0, 17950.596565079282, 46602.53782302592, -39153.95309376158, -6926.55973751065, -187500.02235174447, -33790.18262507708, -120.05121946945424, -27963.90986012338, 0.666, -0.726, 0.23800000000000002, 192.0, 0.0, 0.0, 0.0, 0.0, 0.0, 0.0, 0.0, 0.0, 0.0, 1.6635911653034272E9, 0.0, 2022-09-19 17:39:25.303
68.0, 18450.94036471133, 46615.88181446574, -39184.686742387625, -6960.355575127074, -187500.02235174447, -32678.18333842556, 219.3153165954729, -28003.383040831453, 0.666, -0.726, 0.23800000000000002, 192.0, 0.0, 0.0, 0.0, 0.0, 0.0, 0.0, 0.0, 0.0, 0.0, 1.6635911653064904E9, 0.0, 2022-09-19 17:39:25.306
69.0, 18256.882519350354, 46532.733325092, -39145.526486101924, -6930.359534068052, -187500.02235174447, -32777.89447044068, -558.6595009159447, -27915.89831303338, 0.666, -0.726, 0.23800000000000002, 192.0, 0.0, 0.0, 0.0, 0.0, 0.0, 0.0, 0.0, 0.0, 0.0, 1.6635911653094213E9, 0.0, 2022-09-19 17:39:25.309
70.0, 17795.184885881532, 46535.63905187119, -39103.952241415056, -6888.293551003165, -187500.02235174447, -33625.494971930384, -964.8801046466953, -27865.964515920226, 0.666, -0.726, 0.23800000000000002, 192.0, 0.0, 0.0, 0.0, 0.0, 0.0, 0.0, 0.0, 0.0, 0.0, 1.663591165313463E9, 0.0, 2022-09-19 17:39:25.313
71.0, 17771.380278036628, 46607.32109633936, -39115.50809329845, -6899.64823718646, -187500.02235174447, -33727.418926646584, -602.9159549374527, -27896.25112965717, 0.666, -0.726, 0.23800000000000002, 192.0, 0.0, 0.0, 0.0, 0.0, 0.0, 0.0, 0.0, 0.0, 0.0, 1.663591165318493E9, 0.0, 2022-09-19 17:39:25.318
72.0, 18067.04915369143, 46648.04597473693, -39140.67615755513, -6928.996077656278, -187500.02235174447, -33128.48158222218, -99.3758558482952, -27948.48715644922, 0.666, -0.726, 0.23800000000000002, 192.0, 0.0, 0.0, 0.0, 0.0, 0.0, 0.0, 0.0, 0.0, 0.0, 1.6635911653224733E9, 0.0, 2022-09-19 17:39:25.322
73.0, 18559.81571195313, 46653.25393119502, -39190.74406513501, -6977.2981974241975, -187500.02235174447, -32006.803990221502, 207.73711296762383, -28004.321814098577, 0.666, -0.726, 0.23800000000000002, 192.0, 0.0, 0.0, 0.0, 0.0, 0.0, 0.0, 0.0, 0.0, 0.0, 1.6635911653264291E9, 0.0, 2022-09-19 17:39:25.326
74.0, 18379.6382998989, 46577.816793658356, -39137.65867205366, -6939.791970228192, -187500.02235174447, -32076.40732245533, -561.6099311840453, -27897.324013391022, 0.666, -0.726, 0.23800000000000002, 192.0, 0.0, 0.0, 0.0, 0.0, 0.0, 0.0, 0.0, 0.0, 0.0, 1.6635911653294709E9, 0.0, 2022-09-19 17:39:25.329
75.0, 17915.37021581772, 46564.69631966309, -39106.70150598306, -6910.421778013919, -187500.02235174447, -32909.278024348976, -965.7741744249075, -27852.28524831358, 0.668, -0.73, 0.24, 192.0, 20.0, 224.0, 233.0, 48.0, 7.0, 128.0, 0.0, 0.0, 0.0, 1.663591165333459E9, 0.0, 2022-09-19 17:39:25.333
76.0, 17887.76581141541, 46627.88470123824, -39124.158218402656, -6914.221574571321, -187500.02235174447, -32996.51688295804, -602.6924374928997, -27886.416362096832, 0.668, -0.73, 0.24, 192.0, 0.0, 0.0, 0.0, 0.0, 0.0, 0.0, 0.0, 0.0, 0.0, 1.6635911653374562E9, 0.0, 2022-09-19 17:39:25.337
77.0, 18179.88075970182, 46687.85443161183, -39163.98902702201, -6944.9552231973685, -187500.02235174447, -32389.152930873985, -109.45649259763869, -27947.458976204274, 0.668, -0.73, 0.24, 192.0, 0.0, 0.0, 0.0, 0.0, 0.0, 0.0, 0.0, 0.0, 0.0, 1.6635911653414524E9, 0.0, 2022-09-19 17:39:25.341
78.0, 18678.36936454408, 46689.463757212616, -39194.99089658152, -6974.392470645007, -187500.02235174447, -31255.539507334175, 232.9498807132102, -27990.687249980838, 0.668, -0.73, 0.24, 192.0, 0.0, 0.0, 0.0, 0.0, 0.0, 0.0, 0.0, 0.0, 0.0, 1.6635911653465009E9, 0.0, 2022-09-19 17:39:25.346
79.0, 18492.671071609388, 46575.62632270173, -39148.72278555903, -6931.432417801907, -187500.02235174447, -31324.204066300877, -539.4370006843807, -27891.5349115771, 0.668, -0.73, 0.24, 192.0, 0.0, 0.0, 0.0, 0.0, 0.0, 0.0, 0.0, 0.0, 0.0, 1.6635911653504949E9, 0.0, 2022-09-19 17:39:25.350
80.0, 18025.69842644911, 46535.527293148916, -39106.96972691652, -6885.857210857536, -187500.02235174447, -32154.437262348805, -949.8373806282736, -27844.484489498675, 0.668, -0.73, 0.24, 192.0, 0.0, 0.0, 0.0, 0.0, 0.0, 0.0, 0.0, 0.0, 0.0, 1.6635911653544705E9, 0.0, 2022-09-19 17:39:25.354
81.0, 17996.171772023652, 46609.84684346281, -39126.46044808155, -6887.645350413961, -187500.02235174447, -32246.079414615564, -603.2065276153717, -27881.47662657221, 0.668, -0.73, 0.24, 192.0, 0.0, 0.0, 0.0, 0.0, 0.0, 0.0, 0.0, 0.0, 0.0, 1.663591165357458E9, 0.0, 2022-09-19 17:39:25.357
82.0, 18288.398479032337, 46683.652303654235, -39155.78593680691, -6918.378999040008, -187500.02235174447, -31643.16345967811, -112.29516414346269, -27942.832165102027, 0.668, -0.73, 0.24, 192.0, 0.0, 0.0, 0.0, 0.0, 0.0, 0.0, 0.0, 0.0, 0.0, 1.663591165361493E9, 0.0, 2022-09-19 17:39:25.361
83.0, 18792.3856130106, 46699.76791140651, -39185.178480765644, -6953.873569235036, -187500.02235174447, -30510.712326849978, 222.1763398857522, -27981.433627776343, 0.668, -0.73, 0.24, 192.0, 0.0, 0.0, 0.0, 0.0, 0.0, 0.0, 0.0, 0.0, 0.0, 1.6635911653675144E9, 0.0, 2022-09-19 17:39:25.367
84.0, 18596.91960774894, 46588.746796697, -39145.30296865737, -6927.0514758886675, -187500.02235174447, -30596.945356958553, -553.1609717799391, -27886.215196396734, 0.668, -0.73, 0.24, 192.0, 0.0, 0.0, 0.0, 0.0, 0.0, 0.0, 0.0, 0.0, 0.0, 1.6635911653705308E9, 0.0, 2022-09-19 17:39:25.370
85.0, 18139.044122581974, 46584.589372228314, -39091.81524417582, -6879.93399857688, -187500.02235174447, -31433.41468970951, -953.5924736967652, -27830.291131769554, 0.664, -0.73, 0.23800000000000002, 192.0, 20.0, 192.0, 233.0, 48.0, 7.0, 112.0, 0.0, 0.0, 0.0, 1.6635911653744967E9, 0.0, 2022-09-19 17:39:25.374
86.0, 18101.984930275077, 46663.35691968881, -39122.30302361286, -6895.691978417872, -187500.02235174447, -31547.833269576226, -611.8566527195755, -27882.102475416956, 0.664, -0.73, 0.23800000000000002, 192.0, 0.0, 0.0, 0.0, 0.0, 0.0, 0.0, 0.0, 0.0, 0.0, 1.6635911653785548E9, 0.0, 2022-09-19 17:39:25.378
87.0, 18397.58675069651, 46735.597757768366, -39161.753852576476, -6923.698714220371, -187500.02235174447, -30956.629628733353, -129.17073120721952, -27941.826336601538, 0.664, -0.73, 0.23800000000000002, 192.0, 0.0, 0.0, 0.0, 0.0, 0.0, 0.0, 0.0, 0.0, 0.0, 1.6635911653825583E9, 0.0, 2022-09-19 17:39:25.382
88.0, 18882.82077107677, 46731.127408877306, -39197.4495884716, -6954.432362846418, -187500.02235174447, -29858.667237599762, 193.45434826068262, -27977.097389352013, 0.664, -0.73, 0.23800000000000002, 192.0, 0.0, 0.0, 0.0, 0.0, 0.0, 0.0, 0.0, 0.0, 0.0, 1.6635911653855617E9, 0.0, 2022-09-19 17:39:25.385
89.0, 18690.4616582944, 46620.441570334624, -39163.9443235331, -6922.111740364045, -187500.02235174447, -29962.424035361295, -588.3426175525925, -27883.84591148447, 0.664, -0.73, 0.23800000000000002, 192.0, 0.0, 0.0, 0.0, 0.0, 0.0, 0.0, 0.0, 0.0, 0.0, 1.6635911653895593E9, 0.0, 2022-09-19 17:39:25.389
90.0, 18216.247047930607, 46589.26088681947, -39130.50611382796, -6888.740585892271, -187500.02235174447, -30828.218856837615, -1000.4417300750888, -27848.12782384489, 0.664, -0.73, 0.23800000000000002, 192.0, 0.0, 0.0, 0.0, 0.0, 0.0, 0.0, 0.0, 0.0, 0.0, 1.66359116539359E9, 0.0, 2022-09-19 17:39:25.393
91.0, 18179.858407957367, 46656.33847192985, -39130.34965161677, -6886.393652724463, -187500.02235174447, -30959.736521212642, -625.6476790485, -27876.26867011412, 0.664, -0.73, 0.23800000000000002, 192.0, 0.0, 0.0, 0.0, 0.0, 0.0, 0.0, 0.0, 0.0, 0.0, 1.6635911653975904E9, 0.0, 2022-09-19 17:39:25.397
92.0, 18462.384457872446, 46723.39370529577, -39168.30291370188, -6917.730798450804, -187500.02235174447, -30403.602767420147, -125.99678349456592, -27932.595066141497, 0.664, -0.73, 0.23800000000000002, 192.0, 0.0, 0.0, 0.0, 0.0, 0.0, 0.0, 0.0, 0.0, 0.0, 1.6635911654035935E9, 0.0, 2022-09-19 17:39:25.403
93.0, 18953.899318444648, 46766.577275583426, -39184.32911447634, -6946.56454879815, -187500.02235174447, -29324.907580007028, 220.67877300724663, -27977.700886452305, 0.664, -0.73, 0.23800000000000002, 192.0, 0.0, 0.0, 0.0, 0.0, 0.0, 0.0, 0.0, 0.0, 0.0, 1.6635911654066377E9, 0.0, 2022-09-19 17:39:25.406
94.0, 18756.198138737458, 46698.00212359454, -39137.85983775376, -6907.896030890469, -187500.02235174447, -29459.487433372433, -548.8023816111543, -27882.393048094877, 0.664, -0.73, 0.23800000000000002, 192.0, 0.0, 0.0, 0.0, 0.0, 0.0, 0.0, 0.0, 0.0, 0.0, 1.6635911654106112E9, 0.0, 2022-09-19 17:39:25.410
95.0, 18276.70851668221, 46687.3179897449, -39110.00956416244, -6874.2790072296875, -187500.02235174447, -30362.184984944462, -965.5730087248098, -27842.718701686706, 0.66, -0.728, 0.242, 192.0, 20.0, 160.0, 233.0, 64.0, 7.0, 144.0, 0.0, 0.0, 0.0, 1.6635911654136052E9, 0.0, 2022-09-19 17:39:25.413
96.0, 18223.89134453432, 46731.21681585513, -39144.18538143461, -6886.103080046544, -187500.02235174447, -30540.57425744227, -637.1141239540725, -27869.13846363288, 0.66, -0.728, 0.242, 192.0, 0.0, 0.0, 0.0, 0.0, 0.0, 0.0, 0.0, 0.0, 0.0, 1.6635911654176507E9, 0.0, 2022-09-19 17:39:25.417
97.0, 18495.912074555406, 46794.8969358083, -39168.951114291085, -6917.730798450804, -187500.02235174447, -30024.740698902693, -141.508894146549, -27930.225781229234, 0.66, -0.728, 0.242, 192.0, 0.0, 0.0, 0.0, 0.0, 0.0, 0.0, 0.0, 0.0, 0.0, 1.6635911654216366E9, 0.0, 2022-09-19 17:39:25.421
98.0, 18980.296728646368, 46816.37696222985, -39187.503062189, -6936.439208559896, -187500.02235174447, -28978.299078738582, 211.8051304584897, -27963.842804890017, 0.66, -0.728, 0.242, 192.0, 0.0, 0.0, 0.0, 0.0, 0.0, 0.0, 0.0, 0.0, 0.0, 1.6635911654256117E9, 0.0, 2022-09-19 17:39:25.425
99.0, 18774.034830812794, 46701.04196084046, -39155.383605406714, -6906.398464011963, -187500.02235174447, -29143.791394685675, -563.3980707404698, -27880.537853305086, 0.66, -0.728, 0.242, 192.0, 0.0, 0.0, 0.0, 0.0, 0.0, 0.0, 0.0, 0.0, 0.0, 1.66359116542963E9, 0.0, 2022-09-19 17:39:25.429
100.0, 18291.23715057816, 46665.055652267416, -39116.044535165376, -6871.239169983765, -187500.02235174447, -30076.976725694745, -977.4194332861225, -27829.17354454679, 0.66, -0.728, 0.242, 192.0, 0.0, 0.0, 0.0, 0.0, 0.0, 0.0, 0.0, 0.0, 0.0, 1.6635911654346175E9, 0.0, 2022-09-19 17:39:25.434
101.0, 18248.32180122397, 46745.454877073156, -39120.67134626763, -6876.894161330958, -187500.02235174447, -30277.18130078093, -612.6613155199666, -27867.059751398534, 0.66, -0.728, 0.242, 192.0, 0.0, 0.0, 0.0, 0.0, 0.0, 0.0, 0.0, 0.0, 0.0, 1.663591165438686E9, 0.0, 2022-09-19 17:39:25.438
102.0, 18526.4222057369, 46823.70833441119, -39160.077471742334, -6914.825071671614, -187500.02235174447, -29779.944393628168, -127.76257130653516, -27931.81275508556, 0.66, -0.728, 0.242, 192.0, 0.0, 0.0, 0.0, 0.0, 0.0, 0.0, 0.0, 0.0, 0.0, 1.663591165441651E9, 0.0, 2022-09-19 17:39:25.441
103.0, 19005.19657196958, 46852.25151208061, -39188.66535290067, -6951.057249433667, -187500.02235174447, -28763.543518011993, 192.29205754900667, -27976.806816674092, 0.66, -0.728, 0.242, 192.0, 0.0, 0.0, 0.0, 0.0, 0.0, 0.0, 0.0, 0.0, 0.0, 1.6635911654467075E9, 0.0, 2022-09-19 17:39:25.446
104.0, 18785.367165251635, 46746.6842230182, -39140.586750577306, -6918.624868229016, -187500.02235174447, -28967.883165822408, -583.9169721504417, -27884.315298118032, 0.66, -0.728, 0.242, 192.0, 0.0, 0.0, 0.0, 0.0, 0.0, 0.0, 0.0, 0.0, 0.0, 1.6635911654506571E9, 0.0, 2022-09-19 17:39:25.450
105.0, 18301.988339661162, 46725.53947276348, -39100.510072768935, -6872.937902562368, -187500.02235174447, -29931.824497201982, -984.080253133804, -27836.996655106148, 0.662, -0.736, 0.23600000000000002, 192.0, 20.0, 176.0, 233.0, 0.0, 7.0, 96.0, 0.0, 0.0, 0.0, 1.6635911654546745E9, 0.0, 2022-09-19 17:39:25.454
106.0, 18255.228490260663, 46776.9931884996, -39131.69075628409, -6881.6774346443935, -187500.02235174447, -30163.455624992326, -635.907129753486, -27880.76137074964, 0.662, -0.736, 0.23600000000000002, 192.0, 0.0, 0.0, 0.0, 0.0, 0.0, 0.0, 0.0, 0.0, 0.0, 1.663591165459674E9, 0.0, 2022-09-19 17:39:25.459
107.0, 18532.43482499538, 46858.018262150086, -39158.37873916373, -6904.878545389002, -187500.02235174447, -29687.229357627555, -134.40103940976138, -27923.632016614916, 0.662, -0.736, 0.23600000000000002, 192.0, 0.0, 0.0, 0.0, 0.0, 0.0, 0.0, 0.0, 0.0, 0.0, 1.663591165462683E9, 0.0, 2022-09-19 17:39:25.462
108.0, 18999.362766666745, 46887.54491657554, -39202.18815829613, -6947.23510113181, -187500.02235174447, -28697.44940965765, 186.25708654607377, -27973.141130583423, 0.662, -0.736, 0.23600000000000002, 192.0, 0.0, 0.0, 0.0, 0.0, 0.0, 0.0, 0.0, 0.0, 0.0, 1.6635911654666808E9, 0.0, 2022-09-19 17:39:25.466
109.0, 18795.447802000977, 46804.57524115744, -39162.29029444341, -6913.729836193304, -187500.02235174447, -28900.224435356195, -594.8022717001762, -27889.590309809486, 0.662, -0.736, 0.23600000000000002, 192.0, 0.0, 0.0, 0.0, 0.0, 0.0, 0.0, 0.0, 0.0, 0.0, 1.6635911654700675E9, 0.0, 2022-09-19 17:39:25.470
110.0, 18310.683168254276, 46773.908647764765, -39124.717012014036, -6868.780478093681, -187500.02235174447, -29870.647772627806, -1000.2182126305357, -27845.624428465897, 0.662, -0.736, 0.23600000000000002, 192.0, 0.0, 0.0, 0.0, 0.0, 0.0, 0.0, 0.0, 0.0, 0.0, 1.6635911654747884E9, 0.0, 2022-09-19 17:39:25.474
111.0, 18265.644403176833, 46820.31086925398, -39144.96769249054, -6875.418946196908, -187500.02235174447, -30107.822133043068, -636.7341442983322, -27889.81382725404, 0.662, -0.736, 0.23600000000000002, 192.0, 0.0, 0.0, 0.0, 0.0, 0.0, 0.0, 0.0, 0.0, 0.0, 1.6635911654787145E9, 0.0, 2022-09-19 17:39:25.478
112.0, 18535.117034330015, 46865.32728258697, -39195.21441402607, -6911.137033836489, -187500.02235174447, -29653.992313622515, -153.75765010805728, -27966.077979335547, 0.662, -0.736, 0.23600000000000002, 192.0, 0.0, 0.0, 0.0, 0.0, 0.0, 0.0, 0.0, 0.0, 0.0, 1.6635911654826903E9, 0.0, 2022-09-19 17:39:25.482
113.0, 19024.2402582455, 46901.29123941556, -39201.71877166257, -6918.982496140301, -187500.02235174447, -28662.67009528519, 188.49226099160447, -27982.215938832276, 0.662, -0.736, 0.23600000000000002, 192.0, 0.0, 0.0, 0.0, 0.0, 0.0, 0.0, 0.0, 0.0, 0.0, 1.663591165485757E9, 0.0, 2022-09-19 17:39:25.485
114.0, 18823.745110481395, 46823.30600301099, -39136.31756738634, -6867.752297848738, -187500.02235174447, -28879.236147312662, -556.5807886816011, -27876.156911391845, 0.662, -0.736, 0.23600000000000002, 192.0, 0.0, 0.0, 0.0, 0.0, 0.0, 0.0, 0.0, 0.0, 0.0, 1.6635911654897416E9, 0.0, 2022-09-19 17:39:25.489
115.0, 18329.749206274653, 46796.26039222007, -39108.93668042859, -6834.515253843696, -187500.02235174447, -29880.080208787946, -975.5195350074215, -27833.487431226666, 0.662, -0.736, 0.23, 192.0, 20.0, 176.0, 233.0, 0.0, 7.0, 48.0, 0.0, 0.0, 0.0, 1.6635911654948332E9, 0.0, 2022-09-19 17:39:25.494
116.0, 18258.648307162322, 46835.979442117154, -39142.84427676729, -6868.042870526657, -187500.02235174447, -30162.87447963649, -648.8487897931087, -27895.42411511232, 0.662, -0.736, 0.23, 192.0, 0.0, 0.0, 0.0, 0.0, 0.0, 0.0, 0.0, 0.0, 0.0, 1.6635911654977355E9, 0.0, 2022-09-19 17:39:25.497
117.0, 18516.00629282073, 46888.88602124286, -39176.48365217253, -6909.840632658081, -187500.02235174447, -29744.2710094775, -161.91603683424435, -27960.71356066627, 0.662, -0.736, 0.23, 192.0, 0.0, 0.0, 0.0, 0.0, 0.0, 0.0, 0.0, 0.0, 0.0, 1.663591165501788E9, 0.0, 2022-09-19 17:39:25.501
118.0, 18980.989632724482, 46913.025905254595, -39204.75860890849, -6939.970784183834, -187500.02235174447, -28793.539559071014, 171.1696590387415, -27994.531750027152, 0.662, -0.736, 0.23, 192.0, 0.0, 0.0, 0.0, 0.0, 0.0, 0.0, 0.0, 0.0, 0.0, 1.6635911655057385E9, 0.0, 2022-09-19 17:39:25.505
119.0, 18758.992106794372, 46823.41776173327, -39156.47884088503, -6905.169118066921, -187500.02235174447, -29049.7576057622, -593.9305536664193, -27897.838103513495, 0.662, -0.736, 0.23, 192.0, 0.0, 0.0, 0.0, 0.0, 0.0, 0.0, 0.0, 0.0, 0.0, 1.6635911655097497E9, 0.0, 2022-09-19 17:39:25.509
120.0, 18258.648307162322, 46816.28755525203, -39116.22334912102, -6857.917530288402, -187500.02235174447, -30078.004905939688, -1010.2764976354239, -27839.634160951875, 0.662, -0.736, 0.23, 192.0, 0.0, 0.0, 0.0, 0.0, 0.0, 0.0, 0.0, 0.0, 0.0, 1.6635911655137537E9, 0.0, 2022-09-19 17:39:25.513
121.0, 18178.383192823316, 46876.03376818106, -39145.45943086856, -6871.59679789505, -187500.02235174447, -30388.515339912814, -673.6592261384995, -27880.62726028291, 0.662, -0.736, 0.23, 192.0, 0.0, 0.0, 0.0, 0.0, 0.0, 0.0, 0.0, 0.0, 0.0, 1.6635911655187907E9, 0.0, 2022-09-19 17:39:25.518
122.0, 18425.07939637654, 46935.400001454356, -39165.12896598923, -6906.17494656741, -187500.02235174447, -29997.918605556322, -169.9626648381549, -27948.86713610496, 0.662, -0.736, 0.23, 192.0, 0.0, 0.0, 0.0, 0.0, 0.0, 0.0, 0.0, 0.0, 0.0, 1.6635911655229547E9, 0.0, 2022-09-19 17:39:25.522
123.0, 18854.43405561853, 46942.463152702236, -39211.55353922291, -6965.563531585161, -187500.02235174447, -29104.38526921097, 156.14928676477513, -28020.616235806494, 0.662, -0.736, 0.23, 192.0, 0.0, 0.0, 0.0, 0.0, 0.0, 0.0, 0.0, 0.0, 0.0, 1.6635911655258183E9, 0.0, 2022-09-19 17:39:25.525
124.0, 18609.88361953302, 46848.89875041232, -39158.24462869699, -6936.528615537717, -187500.02235174447, -29409.06189788126, -608.8391672181091, -27925.531914893618, 0.662, -0.736, 0.23, 192.0, 0.0, 0.0, 0.0, 0.0, 0.0, 0.0, 0.0, 0.0, 0.0, 1.6635911655297935E9, 0.0, 2022-09-19 17:39:25.529
125.0, 18104.19775297615, 46823.73068615564, -39112.535311285894, -6889.321731248108, -187500.02235174447, -30469.808634496767, -1001.9616486980497, -27866.165681620325, 0.668, -0.738, 0.228, 192.0, 20.0, 224.0, 232.0, 240.0, 7.0, 32.0, 0.0, 0.0, 0.0, 1.6635911655347943E9, 0.0, 2022-09-19 17:39:25.534
126.0, 18027.777138683457, 46876.34669260344, -39135.065869696846, -6892.339216749575, -187500.02235174447, -30801.888501869264, -652.2686066947707, -27895.84879825697, 0.668, -0.738, 0.228, 192.0, 0.0, 0.0, 0.0, 0.0, 0.0, 0.0, 0.0, 0.0, 0.0, 1.6635911655388489E9, 0.0, 2022-09-19 17:39:25.538
127.0, 18260.23528101865, 46945.391231225876, -39188.77711162295, -6939.367287083542, -187500.02235174447, -30449.379140064615, -186.3688452683503, -27975.868043406972, 0.668, -0.738, 0.228, 192.0, 0.0, 0.0, 0.0, 0.0, 0.0, 0.0, 0.0, 0.0, 0.0, 1.6635911655428133E9, 0.0, 2022-09-19 17:39:25.542
128.0, 18699.424707820977, 46969.6875774488, -39226.30569056341, -6976.471182879351, -187500.02235174447, -29564.071245678813, 127.49435037307148, -28016.414107848897, 0.668, -0.738, 0.228, 192.0, 0.0, 0.0, 0.0, 0.0, 0.0, 0.0, 0.0, 0.0, 0.0, 1.663591165547832E9, 0.0, 2022-09-19 17:39:25.547
129.0, 18468.08415270855, 46878.85008798243, -39167.31943694585, -6932.438246302396, -187500.02235174447, -29861.86353705687, -613.8683097205532, -27916.94884502278, 0.668, -0.738, 0.228, 192.0, 0.0, 0.0, 0.0, 0.0, 0.0, 0.0, 0.0, 0.0, 0.0, 1.6635911655508342E9, 0.0, 2022-09-19 17:39:25.550
130.0, 17967.025097253932, 46866.08724189845, -39122.45948582405, -6880.917475332913, -187500.02235174447, -30911.92613982274, -1010.2317941465133, -27857.672018727306, 0.668, -0.738, 0.228, 192.0, 0.0, 0.0, 0.0, 0.0, 0.0, 0.0, 0.0, 0.0, 0.0, 1.6635911655538535E9, 0.0, 2022-09-19 17:39:25.553
131.0, 17896.125363841697, 46933.4777514312, -39143.33601514531, -6883.93496083438, -187500.02235174447, -31223.04007089616, -662.6174643775779, -27895.893501745883, 0.668, -0.738, 0.228, 192.0, 0.0, 0.0, 0.0, 0.0, 0.0, 0.0, 0.0, 0.0, 0.0, 1.663591165557856E9, 0.0, 2022-09-19 17:39:25.557
132.0, 18153.013962866542, 47022.88472925243, -39171.678027114634, -6905.437339000385, -187500.02235174447, -30820.015766622517, -161.96074032315497, -27951.459938461776, 0.668, -0.738, 0.228, 192.0, 0.0, 0.0, 0.0, 0.0, 0.0, 0.0, 0.0, 0.0, 0.0, 1.6635911655618517E9, 0.0, 2022-09-19 17:39:25.561
133.0, 18588.96238672285, 47054.13246800095, -39220.51658874948, -6950.051420933178, -187500.02235174447, -29900.979089853656, 146.8509610713674, -28008.50159031172, 0.668, -0.738, 0.228, 192.0, 0.0, 0.0, 0.0, 0.0, 0.0, 0.0, 0.0, 0.0, 0.0, 1.6635911655658422E9, 0.0, 2022-09-19 17:39:25.565
134.0, 18353.97849726421, 46963.51849597913, -39167.207678223574, -6912.65695245945, -187500.02235174447, -30177.179596087888, -622.4737313358464, -27913.57373161003, 0.668, -0.738, 0.228, 192.0, 0.0, 0.0, 0.0, 0.0, 0.0, 0.0, 0.0, 0.0, 0.0, 1.6635911655698798E9, 0.0, 2022-09-19 17:39:25.569
135.0, 17846.05745626181, 46939.870350345416, -39119.2855381114, -6869.272216471698, -187500.02235174447, -31218.74853596074, -1023.3522681417786, -27870.412513066833, 0.668, -0.742, 0.224, 192.0, 20.0, 224.0, 232.0, 208.0, 7.0, 0.0, 0.0, 0.0, 0.0, 1.6635911655739825E9, 0.0, 2022-09-19 17:39:25.573
136.0, 17757.47749298543, 46975.63314147391, -39151.963788505054, -6895.870792373514, -187500.02235174447, -31538.736109582915, -672.6086941491001, -27925.42015617134, 0.668, -0.742, 0.224, 192.0, 0.0, 0.0, 0.0, 0.0, 0.0, 0.0, 0.0, 0.0, 0.0, 1.6635911655790265E9, 0.0, 2022-09-19 17:39:25.579
137.0, 18014.65666468819, 47039.22385444926, -39169.50990790247, -6911.025275114212, -187500.02235174447, -31132.11317445197, -162.0724990454315, -27965.318020024064, 0.668, -0.742, 0.224, 192.0, 0.0, 0.0, 0.0, 0.0, 0.0, 0.0, 0.0, 0.0, 0.0, 1.6635911655818665E9, 0.0, 2022-09-19 17:39:25.581
138.0, 18463.412638117392, 47053.17134298937, -39209.40777175519, -6947.123342409533, -187500.02235174447, -30204.11344815653, 160.06084204445386, -28007.562817044596, 0.668, -0.742, 0.224, 192.0, 0.0, 0.0, 0.0, 0.0, 0.0, 0.0, 0.0, 0.0, 0.0, 1.6635911655858977E9, 0.0, 2022-09-19 17:39:25.585
139.0, 18225.612428857377, 46952.85671387395, -39179.791710351914, -6926.157406110455, -187500.02235174447, -30492.45095162999, -622.7196005248547, -27927.990606783704, 0.668, -0.742, 0.224, 192.0, 0.0, 0.0, 0.0, 0.0, 0.0, 0.0, 0.0, 0.0, 0.0, 1.6635911655898976E9, 0.0, 2022-09-19 17:39:25.589
140.0, 17714.472736653417, 46944.206588769746, -39135.35644237476, -6877.40825145343, -187500.02235174447, -31556.10341502469, -1022.0782187078261, -27866.947992676258, 0.668, -0.742, 0.224, 192.0, 0.0, 0.0, 0.0, 0.0, 0.0, 0.0, 0.0, 0.0, 0.0, 1.663591165593901E9, 0.0, 2022-09-19 17:39:25.593
141.0, 17624.68577917645, 47001.672923764345, -39163.87726829974, -6891.914533604924, -187500.02235174447, -31905.908215750245, -678.8001273632202, -27907.538760607098, 0.668, -0.742, 0.224, 192.0, 0.0, 0.0, 0.0, 0.0, 0.0, 0.0, 0.0, 0.0, 0.0, 1.6635911655979E9, 0.0, 2022-09-19 17:39:25.597
142.0, 17865.794046615847, 47044.74473532972, -39191.03463781293, -6924.771597954225, -187500.02235174447, -31558.495051681406, -189.9227726367441, -27966.703828180296, 0.668, -0.742, 0.224, 192.0, 0.0, 0.0, 0.0, 0.0, 0.0, 0.0, 0.0, 0.0, 0.0, 1.663591165602038E9, 0.0, 2022-09-19 17:39:25.602
143.0, 18299.641406493356, 47046.51052314169, -39215.06276310239, -6960.869665249546, -187500.02235174447, -30700.746858209, 142.93940579168867, -28012.502552569218, 0.668, -0.742, 0.224, 192.0, 0.0, 0.0, 0.0, 0.0, 0.0, 0.0, 0.0, 0.0, 0.0, 1.6635911656059275E9, 0.0, 2022-09-19 17:39:25.605
144.0, 18043.155138868708, 46959.62929244391, -39175.05314052739, -6936.998002171279, -187500.02235174447, -31081.553528494067, -627.7487430272988, -27929.08584226201, 0.668, -0.742, 0.224, 192.0, 0.0, 0.0, 0.0, 0.0, 0.0, 0.0, 0.0, 0.0, 0.0, 1.6635911656089284E9, 0.0, 2022-09-19 17:39:25.608
