%OpenBCI Raw EEG Data
%Number of channels = 8
%Sample Rate = 250 Hz
%Board = OpenBCI_GUI$BoardCytonSerial
Sample Index, EXG Channel 0, EXG Channel 1, EXG Channel 2, EXG Channel 3, EXG Channel 4, EXG Channel 5, EXG Channel 6, EXG Channel 7, Accel Channel 0, Accel Channel 1, Accel Channel 2, Other, Other, Other, Other, Other, Other, Other, Analog Channel 0, Analog Channel 1, Analog Channel 2, Timestamp, Other, Timestamp (Formatted)
2.0, -17357.157749790877, -18591.376375124022, -30565.7646734434, -16668.6346135896, 187500.0, 187500.0, -19180.344841521364, -31072.791644667584, 0.0, 0.0, 0.0, 192.0, 0.0, 0.0, 0.0, 0.0, 0.0, 0.0, 0.0, 0.0, 0.0, 1.6635876981139567E9, 0.0, 2022-09-19 16:41:38.113
0.0, 0.0, 0.0, 0.0, 0.0, 0.0, 0.0, 0.0, 0.0, 0.742, -0.524, 0.496, 192.0, 23.0, 48.0, 239.0, 160.0, 15.0, 128.0, 0.0, 0.0, 0.0, 1.6635876982147431E9, 0.0, 2022-09-19 16:41:38.214
1.0, -17266.767295213616, -17901.422727277604, -30075.948545449803, -16248.086541662997, 187500.0, 187500.0, -16264.895053493388, -30565.04941762083, 0.742, -0.524, 0.496, 192.0, 0.0, 0.0, 0.0, 0.0, 0.0, 0.0, 0.0, 0.0, 0.0, 1.6635876982327864E9, 0.0, 2022-09-19 16:41:38.232
2.0, -17273.361059827934, -17893.420802762605, -30074.56273729357, -16242.02921891561, 187500.0, 187500.0, -16297.930931798332, -30560.5120134964, 0.742, -0.524, 0.496, 192.0, 0.0, 0.0, 0.0, 0.0, 0.0, 0.0, 0.0, 0.0, 0.0, 1.6635876982357857E9, 0.0, 2022-09-19 16:41:38.235
3.0, -17278.680775008295, -17900.52865749939, -30071.008809925177, -16241.582184026503, 187500.0, 187500.0, -16291.60538811748, -30556.488699494446, 0.742, -0.524, 0.496, 192.0, 0.0, 0.0, 0.0, 0.0, 0.0, 0.0, 0.0, 0.0, 0.0, 1.6635876982387364E9, 0.0, 2022-09-19 16:41:38.238
4.0, -17262.18518760028, -17900.72982319949, -30066.314943589565, -16242.096274148975, 187500.0, 187500.0, -16252.199262642773, -30554.18646981555, 0.742, -0.524, 0.496, 192.0, 0.0, 0.0, 0.0, 0.0, 0.0, 0.0, 0.0, 0.0, 0.0, 1.6635876982428253E9, 0.0, 2022-09-19 16:41:38.242
5.0, -17252.238661317668, -17866.531654182872, -30064.258583099676, -16236.68715199079, 187500.0, 187500.0, -16219.49866050466, -30551.414853503094, 0.742, -0.524, 0.496, 192.0, 0.0, 0.0, 0.0, 0.0, 0.0, 0.0, 0.0, 0.0, 0.0, 1.6635876982457435E9, 0.0, 2022-09-19 16:41:38.245
6.0, -17260.106475365934, -17887.58699745977, -30061.62107725395, -16229.199317598262, 187500.0, 187500.0, -16246.901899206865, -30541.736548153945, 0.742, -0.524, 0.496, 192.0, 0.0, 0.0, 0.0, 0.0, 0.0, 0.0, 0.0, 0.0, 0.0, 1.663587698249802E9, 0.0, 2022-09-19 16:41:38.249
7.0, -17255.54671949705, -17875.04766882034, -30049.260562570165, -16219.342198293472, 187500.0, 187500.0, -16279.088411222509, -30532.66173990509, 0.742, -0.524, 0.496, 192.0, 0.0, 0.0, 0.0, 0.0, 0.0, 0.0, 0.0, 0.0, 0.0, 1.6635876982537715E9, 0.0, 2022-09-19 16:41:38.253
8.0, -17255.479664263687, -17843.218784715984, -30048.27708581413, -16219.900991904855, 187500.0, 187500.0, -16277.657899577369, -30536.886219607142, 0.736, -0.528, 0.496, 192.0, 23.0, 0.0, 239.0, 128.0, 15.0, 128.0, 0.0, 0.0, 0.0, 1.6635876982587905E9, 0.0, 2022-09-19 16:41:38.258
9.0, -17277.13850464088, -17871.381982729672, -30053.820318439048, -16223.566677995525, 187500.0, 187500.0, -16246.566623040037, -30538.160269041095, 0.736, -0.528, 0.496, 192.0, 0.0, 0.0, 0.0, 0.0, 0.0, 0.0, 0.0, 0.0, 0.0, 1.6635876982617655E9, 0.0, 2022-09-19 16:41:38.261
10.0, -17278.412554074832, -17876.388773487663, -30052.61332423846, -16221.487965761182, 187500.0, 187500.0, -16214.983608124687, -30540.440146975536, 0.736, -0.528, 0.496, 192.0, 0.0, 0.0, 0.0, 0.0, 0.0, 0.0, 0.0, 0.0, 0.0, 1.6635876982647989E9, 0.0, 2022-09-19 16:41:38.264
11.0, -17264.777989957096, -17844.649296361124, -30036.698882186283, -16204.21006729723, 187500.0, 187500.0, -16238.363532824938, -30528.392556714127, 0.736, -0.528, 0.496, 192.0, 0.0, 0.0, 0.0, 0.0, 0.0, 0.0, 0.0, 0.0, 0.0, 1.6635876982697747E9, 0.0, 2022-09-19 16:41:38.269
12.0, -17241.867451890404, -17811.233438400443, -30024.09249831349, -16189.994357823654, 187500.0, 187500.0, -16272.427591374826, -30509.617091371667, 0.736, -0.528, 0.496, 192.0, 0.0, 0.0, 0.0, 0.0, 0.0, 0.0, 0.0, 0.0, 0.0, 1.6635876982737904E9, 0.0, 2022-09-19 16:41:38.273
13.0, -17231.384483740865, -17824.890354262632, -30023.17607679082, -16192.765974136111, 187500.0, 187500.0, -16274.729821053723, -30508.32069019326, 0.736, -0.528, 0.496, 192.0, 0.0, 0.0, 0.0, 0.0, 0.0, 0.0, 0.0, 0.0, 0.0, 1.663587698277804E9, 0.0, 2022-09-19 16:41:38.277
14.0, -17237.59826869944, -17861.01077330241, -30027.51231521515, -16202.488982974171, 187500.0, 187500.0, -16248.578280041014, -30516.926111808552, 0.736, -0.528, 0.496, 192.0, 0.0, 0.0, 0.0, 0.0, 0.0, 0.0, 0.0, 0.0, 0.0, 1.6635876982819092E9, 0.0, 2022-09-19 16:41:38.281
15.0, -17232.3679604969, -17867.20220651653, -30029.143992560388, -16202.377224251893, 187500.0, 187500.0, -16218.939866893277, -30519.764783354378, 0.736, -0.528, 0.496, 192.0, 0.0, 0.0, 0.0, 0.0, 0.0, 0.0, 0.0, 0.0, 0.0, 1.663587698285854E9, 0.0, 2022-09-19 16:41:38.285
16.0, -17241.532175723576, -17857.747418611936, -30023.354890746465, -16192.833029369478, 187500.0, 187500.0, -16248.533576552103, -30512.634576873133, 0.736, -0.528, 0.496, 192.0, 0.0, 0.0, 0.0, 0.0, 0.0, 0.0, 0.0, 0.0, 0.0, 1.663587698288814E9, 0.0, 2022-09-19 16:41:38.288
17.0, -17250.02583861659, -17863.022430303386, -30016.135277287398, -16186.216913010707, 187500.0, 187500.0, -16290.823077061545, -30505.526722136347, 0.736, -0.528, 0.496, 192.0, 0.0, 0.0, 0.0, 0.0, 0.0, 0.0, 0.0, 0.0, 0.0, 1.663587698292812E9, 0.0, 2022-09-19 16:41:38.292
18.0, -17247.92477463779, -17854.037029032355, -30015.867056353934, -16182.8194478535, 187500.0, 187500.0, -16294.756984085678, -30501.190483712016, 0.732, -0.534, 0.498, 192.0, 22.0, 224.0, 239.0, 80.0, 15.0, 144.0, 0.0, 0.0, 0.0, 1.6635876982978225E9, 0.0, 2022-09-19 16:41:38.297
19.0, -17245.46608274771, -17857.322735467285, -30020.31505350054, -16190.44139271276, 187500.0, 187500.0, -16268.516036095149, -30505.146742480607, 0.732, -0.534, 0.498, 192.0, 0.0, 0.0, 0.0, 0.0, 0.0, 0.0, 0.0, 0.0, 0.0, 1.6635876983018064E9, 0.0, 2022-09-19 16:41:38.301
20.0, -17238.000600099636, -17837.42968290206, -30018.66102441085, -16191.514276446615, 187500.0, 187500.0, -16240.64341075938, -30506.979585525944, 0.732, -0.534, 0.498, 192.0, 0.0, 0.0, 0.0, 0.0, 0.0, 0.0, 0.0, 0.0, 0.0, 1.6635876983058505E9, 0.0, 2022-09-19 16:41:38.305
21.0, -17242.716818179706, -17836.937944524045, -30008.379221961408, -16181.903026330832, 187500.0, 187500.0, -16270.97472798523, -30498.821198799757, 0.732, -0.534, 0.498, 192.0, 0.0, 0.0, 0.0, 0.0, 0.0, 0.0, 0.0, 0.0, 0.0, 1.6635876983099608E9, 0.0, 2022-09-19 16:41:38.309
22.0, -17247.36598102641, -17825.203278685007, -30004.9817568042, -16179.801962352034, 187500.0, 187500.0, -16315.812327362577, -30495.80371329829, 0.732, -0.534, 0.498, 192.0, 0.0, 0.0, 0.0, 0.0, 0.0, 0.0, 0.0, 0.0, 0.0, 1.6635876983138995E9, 0.0, 2022-09-19 16:41:38.313
23.0, -17247.880071148884, -17836.62502010167, -30007.239282994185, -16180.785439108067, 187500.0, 187500.0, -16328.061083324086, -30494.909643520077, 0.732, -0.534, 0.498, 192.0, 0.0, 0.0, 0.0, 0.0, 0.0, 0.0, 0.0, 0.0, 0.0, 1.6635876983168693E9, 0.0, 2022-09-19 16:41:38.316
24.0, -17240.54869896754, -17868.25273850593, -30010.547341173573, -16186.976872322188, 187500.0, 187500.0, -16307.408071447382, -30499.89408253361, 0.732, -0.534, 0.498, 192.0, 0.0, 0.0, 0.0, 0.0, 0.0, 0.0, 0.0, 0.0, 0.0, 1.6635876983208845E9, 0.0, 2022-09-19 16:41:38.320
25.0, -17243.253260046633, -17885.95532011453, -30017.588140676995, -16192.25188401364, 187500.0, 187500.0, -16281.211826945762, -30505.079687247242, 0.732, -0.534, 0.498, 192.0, 0.0, 0.0, 0.0, 0.0, 0.0, 0.0, 0.0, 0.0, 0.0, 1.6635876983269253E9, 0.0, 2022-09-19 16:41:38.326
26.0, -17240.146367567348, -17862.553043669825, -30006.300509727065, -16175.778648350079, 187500.0, 187500.0, -16309.777356359644, -30493.88146327513, 0.732, -0.534, 0.498, 192.0, 0.0, 0.0, 0.0, 0.0, 0.0, 0.0, 0.0, 0.0, 0.0, 1.66358769833097E9, 0.0, 2022-09-19 16:41:38.330
27.0, -17251.925736895293, -17857.903880823123, -30001.584291646996, -16171.48711341466, 187500.0, 187500.0, -16354.123217358974, -30490.282832417826, 0.732, -0.534, 0.498, 192.0, 0.0, 0.0, 0.0, 0.0, 0.0, 0.0, 0.0, 0.0, 0.0, 1.6635876983339229E9, 0.0, 2022-09-19 16:41:38.333
28.0, -17232.256201774624, -17829.964200253988, -30003.84181783698, -16171.285947714561, 187500.0, 187500.0, -16364.516778530691, -30490.394591140106, 0.73, -0.53, 0.496, 192.0, 22.0, 208.0, 239.0, 112.0, 15.0, 128.0, 0.0, 0.0, 0.0, 1.6635876983379245E9, 0.0, 2022-09-19 16:41:38.337
29.0, -17208.40689044081, -17794.067298658767, -30005.36173645994, -16168.447276168738, 187500.0, 187500.0, -16342.94734513132, -30493.90381501959, 0.73, -0.53, 0.496, 192.0, 0.0, 0.0, 0.0, 0.0, 0.0, 0.0, 0.0, 0.0, 0.0, 1.6635876983419197E9, 0.0, 2022-09-19 16:41:38.341
30.0, -17213.748957365628, -17807.277179631852, -30005.406439948852, -16164.401610422328, 187500.0, 187500.0, -16307.18455400283, -30498.530626121836, 0.73, -0.53, 0.496, 192.0, 0.0, 0.0, 0.0, 0.0, 0.0, 0.0, 0.0, 0.0, 0.0, 1.6635876983448956E9, 0.0, 2022-09-19 16:41:38.344
31.0, -17244.862585647417, -17839.73191258096, -30011.9331493298, -16168.469627913193, 187500.0, 187500.0, -16342.500310242214, -30494.864940031166, 0.73, -0.53, 0.496, 192.0, 0.0, 0.0, 0.0, 0.0, 0.0, 0.0, 0.0, 0.0, 0.0, 1.6635876983489532E9, 0.0, 2022-09-19 16:41:38.348
32.0, -17242.22507980169, -17811.546362822817, -30007.283986483097, -16169.34134594695, 187500.0, 187500.0, -16390.24363639875, -30496.854245287686, 0.73, -0.53, 0.496, 192.0, 0.0, 0.0, 0.0, 0.0, 0.0, 0.0, 0.0, 0.0, 0.0, 1.663587698353974E9, 0.0, 2022-09-19 16:41:38.353
33.0, -17241.666286190306, -17813.692130290525, -30008.26746323913, -16170.548340147538, 187500.0, 187500.0, -16398.759651036224, -30500.922262778553, 0.73, -0.53, 0.496, 192.0, 0.0, 0.0, 0.0, 0.0, 0.0, 0.0, 0.0, 0.0, 0.0, 1.6635876983579507E9, 0.0, 2022-09-19 16:41:38.357
34.0, -17225.461271460208, -17825.67266531857, -30005.31703297103, -16179.600796651936, 187500.0, 187500.0, -16371.848150712032, -30504.23032095794, 0.73, -0.53, 0.496, 192.0, 0.0, 0.0, 0.0, 0.0, 0.0, 0.0, 0.0, 0.0, 0.0, 1.6635876983619545E9, 0.0, 2022-09-19 16:41:38.361
35.0, -17215.291227733043, -17852.941793554044, -30014.145972030878, -16193.39182298086, 187500.0, 187500.0, -16344.400208520916, -30515.51795190787, 0.73, -0.53, 0.496, 192.0, 0.0, 0.0, 0.0, 0.0, 0.0, 0.0, 0.0, 0.0, 0.0, 1.6635876983659668E9, 0.0, 2022-09-19 16:41:38.365
36.0, -17231.563297696506, -17858.44032269005, -30016.02351856512, -16191.581331679981, 187500.0, 187500.0, -16373.703345501823, -30514.176847240553, 0.73, -0.53, 0.496, 192.0, 0.0, 0.0, 0.0, 0.0, 0.0, 0.0, 0.0, 0.0, 0.0, 1.6635876983689425E9, 0.0, 2022-09-19 16:41:38.368
37.0, -17225.617733671395, -17807.120717420665, -30002.21014049174, -16177.477380928682, 187500.0, 187500.0, -16415.210534955328, -30501.637518601125, 0.73, -0.53, 0.496, 192.0, 0.0, 0.0, 0.0, 0.0, 0.0, 0.0, 0.0, 0.0, 0.0, 1.6635876983729477E9, 0.0, 2022-09-19 16:41:38.372
38.0, -17228.858736617414, -17848.7620173409, -30007.9321870723, -16185.702822888235, 187500.0, 187500.0, -16423.90536354844, -30508.879483804645, 0.724, -0.528, 0.502, 192.0, 22.0, 160.0, 239.0, 128.0, 15.0, 176.0, 0.0, 0.0, 0.0, 1.663587698377062E9, 0.0, 2022-09-19 16:41:38.377
39.0, -17224.433091215265, -17860.139055268653, -30014.682413897805, -16195.045852070554, 187500.0, 187500.0, -16398.603188825036, -30516.769649597365, 0.724, -0.528, 0.502, 192.0, 0.0, 0.0, 0.0, 0.0, 0.0, 0.0, 0.0, 0.0, 0.0, 1.6635876983810413E9, 0.0, 2022-09-19 16:41:38.381
40.0, -17228.814033128507, -17835.350970667718, -30014.32478598652, -16197.01280558262, 187500.0, 187500.0, -16360.851092440022, -30521.08353627724, 0.724, -0.528, 0.502, 192.0, 0.0, 0.0, 0.0, 0.0, 0.0, 0.0, 0.0, 0.0, 0.0, 1.6635876983859491E9, 0.0, 2022-09-19 16:41:38.385
41.0, -17241.062789090014, -17815.837897758236, -30002.388954447386, -16183.735869376169, 187500.0, 187500.0, -16377.972528692786, -30509.88531230513, 0.724, -0.528, 0.502, 192.0, 0.0, 0.0, 0.0, 0.0, 0.0, 0.0, 0.0, 0.0, 0.0, 1.6635876983900623E9, 0.0, 2022-09-19 16:41:38.390
42.0, -17239.78873965606, -17802.650368529605, -29994.521140399116, -16175.15279950533, 187500.0, 187500.0, -16418.116261734518, -30500.788152311823, 0.724, -0.528, 0.502, 192.0, 0.0, 0.0, 0.0, 0.0, 0.0, 0.0, 0.0, 0.0, 0.0, 1.6635876983940172E9, 0.0, 2022-09-19 16:41:38.394
43.0, -17236.123053565392, -17804.036176685833, -29992.665945609326, -16173.565825649004, 187500.0, 187500.0, -16420.887878046975, -30498.17299821055, 0.724, -0.528, 0.502, 192.0, 0.0, 0.0, 0.0, 0.0, 0.0, 0.0, 0.0, 0.0, 0.0, 1.6635876983970656E9, 0.0, 2022-09-19 16:41:38.397
44.0, -17252.618640973407, -17838.23434570245, -29998.812675334535, -16176.046869283542, 187500.0, 187500.0, -16394.021081211697, -30500.251710444896, 0.724, -0.528, 0.502, 192.0, 0.0, 0.0, 0.0, 0.0, 0.0, 0.0, 0.0, 0.0, 0.0, 1.6635876984010212E9, 0.0, 2022-09-19 16:41:38.401
45.0, -17246.98600137067, -17855.042857532844, -30001.450181180262, -16176.784476850567, 187500.0, 187500.0, -16359.420580794882, -30501.99514651241, 0.724, -0.528, 0.502, 192.0, 0.0, 0.0, 0.0, 0.0, 0.0, 0.0, 0.0, 0.0, 0.0, 1.6635876984050932E9, 0.0, 2022-09-19 16:41:38.405
46.0, -17254.540890996563, -17856.026334288876, -30000.444352679773, -16173.319956459995, 187500.0, 187500.0, -16380.967662449797, -30497.927129021544, 0.724, -0.528, 0.502, 192.0, 0.0, 0.0, 0.0, 0.0, 0.0, 0.0, 0.0, 0.0, 0.0, 1.663587698411048E9, 0.0, 2022-09-19 16:41:38.411
47.0, -17253.89269040736, -17832.959334011, -29994.968175288224, -16166.14504648984, 187500.0, 187500.0, -16420.217325713318, -30492.696820819, 0.724, -0.528, 0.502, 192.0, 0.0, 0.0, 0.0, 0.0, 0.0, 0.0, 0.0, 0.0, 0.0, 1.6635876984140873E9, 0.0, 2022-09-19 16:41:38.414
48.0, -17234.826652386982, -17807.0536621873, -29992.59889037596, -16161.62999410987, 187500.0, 187500.0, -16425.000599026753, -30486.70655330498, 0.73, -0.528, 0.5, 192.0, 22.0, 208.0, 239.0, 128.0, 15.0, 160.0, 0.0, 0.0, 0.0, 1.6635876984180896E9, 0.0, 2022-09-19 16:41:38.418
49.0, -17222.756710381116, -17806.897199976112, -29996.331631699995, -16167.933186046266, 187500.0, 187500.0, -16398.737299291766, -30492.294489418804, 0.73, -0.528, 0.5, 192.0, 0.0, 0.0, 0.0, 0.0, 0.0, 0.0, 0.0, 0.0, 0.0, 1.6635876984220479E9, 0.0, 2022-09-19 16:41:38.422
50.0, -17243.78970191356, -17825.53855485184, -30007.082820782998, -16176.270386728096, 187500.0, 187500.0, -16364.740295975245, -30499.8493790447, 0.73, -0.528, 0.5, 192.0, 0.0, 0.0, 0.0, 0.0, 0.0, 0.0, 0.0, 0.0, 0.0, 1.6635876984250708E9, 0.0, 2022-09-19 16:41:38.425
51.0, -17254.116207851912, -17830.455938632007, -30009.65327139536, -16178.460857684715, 187500.0, 187500.0, -16385.415659596405, -30500.832855800734, 0.73, -0.528, 0.5, 192.0, 0.0, 0.0, 0.0, 0.0, 0.0, 0.0, 0.0, 0.0, 0.0, 1.663587698429096E9, 0.0, 2022-09-19 16:41:38.429
52.0, -17239.833443144973, -17824.778595540356, -29997.963309045233, -16174.102267515931, 187500.0, 187500.0, -16430.92381130741, -30496.071934231753, 0.73, -0.528, 0.5, 192.0, 0.0, 0.0, 0.0, 0.0, 0.0, 0.0, 0.0, 0.0, 0.0, 1.6635876984330652E9, 0.0, 2022-09-19 16:41:38.433
53.0, -17235.40779774282, -17835.261563689895, -29995.236396221688, -16177.387973950861, 187500.0, 187500.0, -16441.563241668136, -30497.59185285471, 0.73, -0.528, 0.5, 192.0, 0.0, 0.0, 0.0, 0.0, 0.0, 0.0, 0.0, 0.0, 0.0, 1.663587698437063E9, 0.0, 2022-09-19 16:41:38.437
54.0, -17238.89466987785, -17847.890299307146, -29998.857378823446, -16186.753354877634, 187500.0, 187500.0, -16421.178450724896, -30502.46453314597, 0.73, -0.528, 0.5, 192.0, 0.0, 0.0, 0.0, 0.0, 0.0, 0.0, 0.0, 0.0, 0.0, 1.66358769844209E9, 0.0, 2022-09-19 16:41:38.442
55.0, -17250.830501416982, -17861.994250058444, -30010.390878962386, -16194.464706714716, 187500.0, 187500.0, -16387.784944508665, -30510.444105916515, 0.73, -0.528, 0.5, 192.0, 0.0, 0.0, 0.0, 0.0, 0.0, 0.0, 0.0, 0.0, 0.0, 1.6635876984460974E9, 0.0, 2022-09-19 16:41:38.446
56.0, -17254.451484018744, -17843.218784715984, -30005.49584692667, -16185.814581610512, 187500.0, 187500.0, -16407.901514518442, -30507.02428901485, 0.73, -0.528, 0.5, 192.0, 0.0, 0.0, 0.0, 0.0, 0.0, 0.0, 0.0, 0.0, 0.0, 1.663587698449093E9, 0.0, 2022-09-19 16:41:38.449
57.0, -17254.719704952207, -17836.24504044593, -29997.762143345135, -16180.181942007774, 187500.0, 187500.0, -16457.38827674249, -30498.932957522033, 0.73, -0.528, 0.5, 192.0, 0.0, 0.0, 0.0, 0.0, 0.0, 0.0, 0.0, 0.0, 0.0, 1.6635876984530272E9, 0.0, 2022-09-19 16:41:38.453
58.0, -17259.570033499007, -17859.02146804589, -29997.98566078969, -16181.232473997174, 187500.0, 187500.0, -16476.72253569633, -30498.061239488274, 0.728, -0.53, 0.502, 192.0, 22.0, 192.0, 239.0, 112.0, 15.0, 176.0, 0.0, 0.0, 0.0, 1.66358769845712E9, 0.0, 2022-09-19 16:41:38.457
59.0, -17252.730399695683, -17857.836825589755, -30001.22666373571, -16179.690203629758, 187500.0, 187500.0, -16459.757561654755, -30493.836759786223, 0.728, -0.53, 0.502, 192.0, 0.0, 0.0, 0.0, 0.0, 0.0, 0.0, 0.0, 0.0, 0.0, 1.663587698461124E9, 0.0, 2022-09-19 16:41:38.461
60.0, -17264.286251579077, -17859.49085467945, -30005.205274248754, -16177.432677439772, 187500.0, 187500.0, -16424.128880992994, -30489.634631828623, 0.728, -0.53, 0.502, 192.0, 0.0, 0.0, 0.0, 0.0, 0.0, 0.0, 0.0, 0.0, 0.0, 1.6635876984651382E9, 0.0, 2022-09-19 16:41:38.465
61.0, -17266.2755568356, -17846.325677195273, -29993.157683987345, -16168.469627913193, 187500.0, 187500.0, -16445.027762058708, -30480.336306135217, 0.728, -0.53, 0.502, 192.0, 0.0, 0.0, 0.0, 0.0, 0.0, 0.0, 0.0, 0.0, 0.0, 1.663587698469118E9, 0.0, 2022-09-19 16:41:38.469
62.0, -17238.22411754419, -17775.80592343878, -29979.746637314158, -16153.382200405862, 187500.0, 187500.0, -16494.291006838204, -30469.920393219043, 0.728, -0.53, 0.502, 192.0, 0.0, 0.0, 0.0, 0.0, 0.0, 0.0, 0.0, 0.0, 0.0, 1.6635876984741163E9, 0.0, 2022-09-19 16:41:38.474
63.0, -17237.397102999344, -17797.12948764914, -29978.763160558126, -16156.645555096336, 187500.0, 187500.0, -16513.401748347493, -30476.447102599992, 0.728, -0.53, 0.502, 192.0, 0.0, 0.0, 0.0, 0.0, 0.0, 0.0, 0.0, 0.0, 0.0, 1.6635876984771757E9, 0.0, 2022-09-19 16:41:38.477
64.0, -17243.297963535544, -17822.25284841691, -29980.88657628138, -16155.77383706258, 187500.0, 187500.0, -16496.21325686136, -30468.64634378509, 0.728, -0.53, 0.502, 192.0, 0.0, 0.0, 0.0, 0.0, 0.0, 0.0, 0.0, 0.0, 0.0, 1.663587698481116E9, 0.0, 2022-09-19 16:41:38.481
65.0, -17245.868414147906, -17816.86607800318, -29984.015820505123, -16153.873938783878, 187500.0, 187500.0, -16466.01605010224, -30465.673561772535, 0.728, -0.53, 0.502, 192.0, 0.0, 0.0, 0.0, 0.0, 0.0, 0.0, 0.0, 0.0, 0.0, 1.6635876984851484E9, 0.0, 2022-09-19 16:41:38.485
66.0, -17256.351382297442, -17822.76693853938, -29982.45119839325, -16152.28696492755, 187500.0, 187500.0, -16488.568960257646, -30466.567631550748, 0.728, -0.53, 0.502, 192.0, 0.0, 0.0, 0.0, 0.0, 0.0, 0.0, 0.0, 0.0, 0.0, 1.6635876984891932E9, 0.0, 2022-09-19 16:41:38.489
67.0, -17258.072466620502, -17830.23242118745, -29979.523119869606, -16150.699991071224, 187500.0, 187500.0, -16538.569812604168, -30463.907773960567, 0.728, -0.53, 0.502, 192.0, 0.0, 0.0, 0.0, 0.0, 0.0, 0.0, 0.0, 0.0, 0.0, 1.6635876984951751E9, 0.0, 2022-09-19 16:41:38.495
68.0, -17251.903385150836, -17803.499734818906, -29973.51050061113, -16148.442464881238, 187500.0, 187500.0, -16555.26656571228, -30461.78435823731, 0.724, -0.526, 0.5, 192.0, 22.0, 160.0, 239.0, 144.0, 15.0, 160.0, 0.0, 0.0, 0.0, 1.663587698498147E9, 0.0, 2022-09-19 16:41:38.498
69.0, -17259.435923032277, -17813.155688423598, -29976.706800068237, -16149.850624781922, 187500.0, 187500.0, -16543.017809750774, -30466.455872828472, 0.724, -0.526, 0.5, 192.0, 0.0, 0.0, 0.0, 0.0, 0.0, 0.0, 0.0, 0.0, 0.0, 1.6635876985022328E9, 0.0, 2022-09-19 16:41:38.502
70.0, -17262.051077133547, -17819.86121176019, -29983.233509449186, -16159.886558042355, 187500.0, 187500.0, -16509.914876212464, -30476.491806088903, 0.724, -0.526, 0.5, 192.0, 0.0, 0.0, 0.0, 0.0, 0.0, 0.0, 0.0, 0.0, 0.0, 1.663587698505182E9, 0.0, 2022-09-19 16:41:38.505
71.0, -17266.70023998025, -17821.962275738988, -29977.98084950219, -16158.00901150811, 187500.0, 187500.0, -16522.878887996543, -30475.441274099503, 0.724, -0.526, 0.5, 192.0, 0.0, 0.0, 0.0, 0.0, 0.0, 0.0, 0.0, 0.0, 0.0, 1.6635876985092957E9, 0.0, 2022-09-19 16:41:38.509
72.0, -17267.616661502918, -17830.590049098737, -29969.084855208977, -16151.23643293815, 187500.0, 187500.0, -16575.62900491107, -30467.260535628862, 0.724, -0.526, 0.5, 192.0, 0.0, 0.0, 0.0, 0.0, 0.0, 0.0, 0.0, 0.0, 0.0, 1.6635876985132031E9, 0.0, 2022-09-19 16:41:38.513
73.0, -17245.108454836423, -17825.1585751961, -29963.049884206044, -16145.223813679673, 187500.0, 187500.0, -16590.24704578484, -30460.487957058904, 0.724, -0.526, 0.5, 192.0, 0.0, 0.0, 0.0, 0.0, 0.0, 0.0, 0.0, 0.0, 0.0, 1.6635876985172648E9, 0.0, 2022-09-19 16:41:38.517
74.0, -17249.757617683128, -17807.768918009868, -29967.252012163644, -16147.391932891838, 187500.0, 187500.0, -16572.27624324277, -30459.21390762495, 0.724, -0.526, 0.5, 192.0, 0.0, 0.0, 0.0, 0.0, 0.0, 0.0, 0.0, 0.0, 0.0, 1.6635876985212092E9, 0.0, 2022-09-19 16:41:38.521
75.0, -17260.64291723286, -17811.836935500734, -29980.439541392272, -16161.942918532244, 187500.0, 187500.0, -16535.239402680327, -30468.758102507367, 0.724, -0.526, 0.5, 192.0, 0.0, 0.0, 0.0, 0.0, 0.0, 0.0, 0.0, 0.0, 0.0, 1.6635876985252044E9, 0.0, 2022-09-19 16:41:38.525
76.0, -17254.876167163395, -17833.495775877927, -29984.909890283336, -16165.698011600736, 187500.0, 187500.0, -16546.079998741152, -30476.000067710887, 0.724, -0.526, 0.5, 192.0, 0.0, 0.0, 0.0, 0.0, 0.0, 0.0, 0.0, 0.0, 0.0, 1.663587698530191E9, 0.0, 2022-09-19 16:41:38.530
77.0, -17254.675001463296, -17835.596839856727, -29980.618355347917, -16162.68052609927, 187500.0, 187500.0, -16594.85150514263, -30474.726018276935, 0.724, -0.526, 0.5, 192.0, 0.0, 0.0, 0.0, 0.0, 0.0, 0.0, 0.0, 0.0, 0.0, 1.6635876985331888E9, 0.0, 2022-09-19 16:41:38.533
78.0, -17237.03947508806, -17808.84180174372, -29970.202442431742, -16156.19852020723, 187500.0, 187500.0, -16614.521040263302, -30467.37229435114, 0.728, -0.534, 0.494, 192.0, 22.0, 192.0, 239.0, 80.0, 15.0, 112.0, 0.0, 0.0, 0.0, 1.6635876985372996E9, 0.0, 2022-09-19 16:41:38.537
79.0, -17220.879163846872, -17781.863246186167, -29971.722361054704, -16159.90890978681, 187500.0, 187500.0, -16601.624083712588, -30468.46752982945, 0.728, -0.534, 0.494, 192.0, 0.0, 0.0, 0.0, 0.0, 0.0, 0.0, 0.0, 0.0, 0.0, 1.6635876985412424E9, 0.0, 2022-09-19 16:41:38.541
80.0, -17219.64981790183, -17794.156705636586, -29979.36665765842, -16171.39770643684, 187500.0, 187500.0, -16564.967222805884, -30480.582175324223, 0.728, -0.534, 0.494, 192.0, 0.0, 0.0, 0.0, 0.0, 0.0, 0.0, 0.0, 0.0, 0.0, 1.6635876985452447E9, 0.0, 2022-09-19 16:41:38.545
81.0, -17235.74307390965, -17817.603685570204, -29980.484244881183, -16172.694107615247, 187500.0, 187500.0, -16577.126571789573, -30480.31395439076, 0.728, -0.534, 0.494, 192.0, 0.0, 0.0, 0.0, 0.0, 0.0, 0.0, 0.0, 0.0, 0.0, 1.6635876985492752E9, 0.0, 2022-09-19 16:41:38.549
82.0, -17262.49811202265, -17872.14194204115, -29984.17228271631, -16172.9176250598, 187500.0, 187500.0, -16628.982618925886, -30475.150701421586, 0.728, -0.534, 0.494, 192.0, 0.0, 0.0, 0.0, 0.0, 0.0, 0.0, 0.0, 0.0, 0.0, 1.663587698553303E9, 0.0, 2022-09-19 16:41:38.553
83.0, -17262.386353300375, -17866.911633838612, -29985.513387383628, -16165.921529045288, 187500.0, 187500.0, -16646.372276112113, -30471.8426432422, 0.728, -0.534, 0.494, 192.0, 0.0, 0.0, 0.0, 0.0, 0.0, 0.0, 0.0, 0.0, 0.0, 1.6635876985583065E9, 0.0, 2022-09-19 16:41:38.558
84.0, -17258.541853254064, -17837.452034646518, -29987.815617062526, -16162.233491210163, 187500.0, 187500.0, -16632.313028849727, -30470.613297297157, 0.728, -0.534, 0.494, 192.0, 0.0, 0.0, 0.0, 0.0, 0.0, 0.0, 0.0, 0.0, 0.0, 1.6635876985613055E9, 0.0, 2022-09-19 16:41:38.561
85.0, -17236.23481228767, -17811.47930758945, -29988.374410673907, -16164.53572088906, 187500.0, 187500.0, -16595.18678130946, -30474.83777699921, 0.728, -0.534, 0.494, 192.0, 0.0, 0.0, 0.0, 0.0, 0.0, 0.0, 0.0, 0.0, 0.0, 1.6635876985643823E9, 0.0, 2022-09-19 16:41:38.564
86.0, -17234.78194889807, -17783.159647364577, -29985.245166450164, -16158.925433030778, 187500.0, 187500.0, -16600.595903467645, -30468.758102507367, 0.728, -0.534, 0.494, 192.0, 0.0, 0.0, 0.0, 0.0, 0.0, 0.0, 0.0, 0.0, 0.0, 1.6635876985693312E9, 0.0, 2022-09-19 16:41:38.569
87.0, -17244.326143780487, -17773.50369375988, -29981.110093725933, -16151.012915493598, 187500.0, 187500.0, -16648.71920927992, -30457.872802957634, 0.728, -0.534, 0.494, 192.0, 0.0, 0.0, 0.0, 0.0, 0.0, 0.0, 0.0, 0.0, 0.0, 1.6635876985743139E9, 0.0, 2022-09-19 16:41:38.574
88.0, -17248.41651301581, -17781.013879896866, -29980.484244881183, -16149.582403848459, 187500.0, 187500.0, -16668.96988975643, -30452.709549988456, 0.728, -0.534, 0.494, 192.0, 0.0, 0.0, 0.0, 0.0, 0.0, 0.0, 0.0, 0.0, 0.0, 1.6635876985793004E9, 0.0, 2022-09-19 16:41:38.579
89.0, -17238.51469022211, -17800.61635978417, -29979.098436724955, -16152.175206205275, 187500.0, 187500.0, -16657.39168612858, -30451.12257613213, 0.73, -0.53, 0.496, 192.0, 22.0, 208.0, 239.0, 112.0, 15.0, 128.0, 0.0, 0.0, 0.0, 1.663587698582324E9, 0.0, 2022-09-19 16:41:38.582
90.0, -17229.4175302288, -17801.42102258456, -29978.65140183585, -16151.079970726965, 187500.0, 187500.0, -16619.14785136555, -30454.900020945075, 0.73, -0.53, 0.496, 192.0, 0.0, 0.0, 0.0, 0.0, 0.0, 0.0, 0.0, 0.0, 0.0, 1.663587698585315E9, 0.0, 2022-09-19 16:41:38.585
91.0, -17245.108454836423, -17801.24220862892, -29980.774817559104, -16152.063447482999, 187500.0, 187500.0, -16628.110900892127, -30457.805747724266, 0.73, -0.53, 0.496, 192.0, 0.0, 0.0, 0.0, 0.0, 0.0, 0.0, 0.0, 0.0, 0.0, 1.6635876985893192E9, 0.0, 2022-09-19 16:41:38.589
92.0, -17258.765370698617, -17812.70865353449, -29977.489111124174, -16143.614488078892, 187500.0, 187500.0, -16679.497561394877, -30450.9884656654, 0.73, -0.53, 0.496, 192.0, 0.0, 0.0, 0.0, 0.0, 0.0, 0.0, 0.0, 0.0, 0.0, 1.6635876985923593E9, 0.0, 2022-09-19 16:41:38.592
93.0, -17267.75077196965, -17841.76592132639, -29980.50659662564, -16142.966287489688, 187500.0, 187500.0, -16703.88331459562, -30450.250858098374, 0.73, -0.53, 0.496, 192.0, 0.0, 0.0, 0.0, 0.0, 0.0, 0.0, 0.0, 0.0, 0.0, 1.6635876985974057E9, 0.0, 2022-09-19 16:41:38.597
94.0, -17268.823655703505, -17836.647371846124, -29986.921547284313, -16150.163549204297, 187500.0, 187500.0, -16692.6403871346, -30455.995256423386, 0.73, -0.53, 0.496, 192.0, 0.0, 0.0, 0.0, 0.0, 0.0, 0.0, 0.0, 0.0, 0.0, 1.663587698601315E9, 0.0, 2022-09-19 16:41:38.601
95.0, -17262.36400155592, -17837.273220690873, -29996.018707277624, -16162.278194699073, 187500.0, 187500.0, -16656.609375072643, -30466.053541428275, 0.73, -0.53, 0.496, 192.0, 0.0, 0.0, 0.0, 0.0, 0.0, 0.0, 0.0, 0.0, 0.0, 1.663587698605399E9, 0.0, 2022-09-19 16:41:38.605
96.0, -17260.061771877023, -17816.597857069715, -29982.98764026018, -16146.319049157984, 187500.0, 187500.0, -16659.49275010738, -30449.35678832016, 0.73, -0.53, 0.496, 192.0, 0.0, 0.0, 0.0, 0.0, 0.0, 0.0, 0.0, 0.0, 0.0, 1.663587698609376E9, 0.0, 2022-09-19 16:41:38.609
97.0, -17272.288176094076, -17813.915647735077, -29973.93518375578, -16137.870089753878, 187500.0, 187500.0, -16705.179715774026, -30443.612389995145, 0.73, -0.53, 0.496, 192.0, 0.0, 0.0, 0.0, 0.0, 0.0, 0.0, 0.0, 0.0, 0.0, 1.6635876986123695E9, 0.0, 2022-09-19 16:41:38.612
98.0, -17273.89750169486, -17824.197450184518, -29974.046942478057, -16143.592136334437, 187500.0, 187500.0, -16726.235059050927, -30449.960285420453, 0.73, -0.53, 0.496, 192.0, 0.0, 0.0, 0.0, 0.0, 0.0, 0.0, 0.0, 0.0, 0.0, 1.6635876986163695E9, 0.0, 2022-09-19 16:41:38.616
99.0, -17242.515652479608, -17789.395784067605, -29970.470663365206, -16140.507595599604, 187500.0, 187500.0, -16714.187468789514, -30450.764948220844, 0.732, -0.532, 0.492, 192.0, 22.0, 224.0, 239.0, 96.0, 15.0, 96.0, 0.0, 0.0, 0.0, 1.6635876986204205E9, 0.0, 2022-09-19 16:41:38.620
100.0, -17209.278608474568, -17789.798115467802, -29971.185919187777, -16141.133444444353, 187500.0, 187500.0, -16674.49077063689, -30448.619180753136, 0.732, -0.532, 0.492, 192.0, 0.0, 0.0, 0.0, 0.0, 0.0, 0.0, 0.0, 0.0, 0.0, 1.6635876986253898E9, 0.0, 2022-09-19 16:41:38.625
101.0, -17225.953009838227, -17820.889392005134, -29982.004163504145, -16149.649459081826, 187500.0, 187500.0, -16681.30805269576, -30455.41411106755, 0.732, -0.532, 0.492, 192.0, 0.0, 0.0, 0.0, 0.0, 0.0, 0.0, 0.0, 0.0, 0.0, 1.6635876986293657E9, 0.0, 2022-09-19 16:41:38.629
102.0, -17241.666286190306, -17839.039008502845, -29981.534776870583, -16146.76608404709, 187500.0, 187500.0, -16730.146614330606, -30451.279038343317, 0.732, -0.532, 0.492, 192.0, 0.0, 0.0, 0.0, 0.0, 0.0, 0.0, 0.0, 0.0, 0.0, 1.6635876986334465E9, 0.0, 2022-09-19 16:41:38.633
103.0, -17231.205669785224, -17790.222798612453, -29981.043038492568, -16142.139272944842, 187500.0, 187500.0, -16750.039666895827, -30451.323741832228, 0.732, -0.532, 0.492, 192.0, 0.0, 0.0, 0.0, 0.0, 0.0, 0.0, 0.0, 0.0, 0.0, 1.6635876986374087E9, 0.0, 2022-09-19 16:41:38.637
104.0, -17220.387425468853, -17781.393859552605, -29983.12175072691, -16145.603793335415, 187500.0, 187500.0, -16735.242812066415, -30454.69885524498, 0.732, -0.532, 0.492, 192.0, 0.0, 0.0, 0.0, 0.0, 0.0, 0.0, 0.0, 0.0, 0.0, 1.6635876986404233E9, 0.0, 2022-09-19 16:41:38.640
105.0, -17223.762538881605, -17808.573580810258, -29984.619317605415, -16147.77191254758, 187500.0, 187500.0, -16695.948445313985, -30456.64345701259, 0.732, -0.532, 0.492, 192.0, 0.0, 0.0, 0.0, 0.0, 0.0, 0.0, 0.0, 0.0, 0.0, 1.6635876986444225E9, 0.0, 2022-09-19 16:41:38.644
106.0, -17235.564259954008, -17800.303435361795, -29985.93807052828, -16147.168415447286, 187500.0, 187500.0, -16694.83085809122, -30452.26251509935, 0.732, -0.532, 0.492, 192.0, 0.0, 0.0, 0.0, 0.0, 0.0, 0.0, 0.0, 0.0, 0.0, 1.6635876986505127E9, 0.0, 2022-09-19 16:41:38.650
107.0, -17239.542870467052, -17778.28696707332, -29978.85256753595, -16142.09456945593, 187500.0, 187500.0, -16741.389541791625, -30447.546297019282, 0.732, -0.532, 0.492, 192.0, 0.0, 0.0, 0.0, 0.0, 0.0, 0.0, 0.0, 0.0, 0.0, 1.6635876986534586E9, 0.0, 2022-09-19 16:41:38.653
108.0, -17227.18235578327, -17769.078048357733, -29973.64461107786, -16142.541604345037, 187500.0, 187500.0, -16764.83652172524, -30452.26251509935, 0.732, -0.532, 0.492, 192.0, 0.0, 0.0, 0.0, 0.0, 0.0, 0.0, 0.0, 0.0, 0.0, 1.6635876986574485E9, 0.0, 2022-09-19 16:41:38.657
109.0, -17223.87429760388, -17791.787420724326, -29978.2267186912, -16146.00612473561, 187500.0, 187500.0, -16755.761713476386, -30458.02926516882, 0.734, -0.532, 0.494, 192.0, 22.0, 240.0, 239.0, 96.0, 15.0, 112.0, 0.0, 0.0, 0.0, 1.6635876986614137E9, 0.0, 2022-09-19 16:41:38.661
110.0, -17223.44961445923, -17804.304397619297, -29985.535739128085, -16156.377334162873, 187500.0, 187500.0, -16717.383768246626, -30466.07589317273, 0.734, -0.532, 0.494, 192.0, 0.0, 0.0, 0.0, 0.0, 0.0, 0.0, 0.0, 0.0, 0.0, 1.6635876986675236E9, 0.0, 2022-09-19 16:41:38.667
111.0, -17234.714893664706, -17803.745604007912, -29990.36371593043, -16158.120770230385, 187500.0, 187500.0, -16716.802622890787, -30466.701742017478, 0.734, -0.532, 0.494, 192.0, 0.0, 0.0, 0.0, 0.0, 0.0, 0.0, 0.0, 0.0, 0.0, 1.663587698670477E9, 0.0, 2022-09-19 16:41:38.670
112.0, -17259.257109076632, -17839.53074688086, -29987.145064728866, -16155.14798821783, 187500.0, 187500.0, -16765.529425803357, -30467.349942606685, 0.734, -0.532, 0.494, 192.0, 0.0, 0.0, 0.0, 0.0, 0.0, 0.0, 0.0, 0.0, 0.0, 1.6635876986734693E9, 0.0, 2022-09-19 16:41:38.673
113.0, -17250.60698397243, -17860.764904113403, -29979.478416380694, -16149.224775937175, 187500.0, 187500.0, -16780.03570795485, -30464.667733272046, 0.734, -0.532, 0.494, 192.0, 0.0, 0.0, 0.0, 0.0, 0.0, 0.0, 0.0, 0.0, 0.0, 1.6635876986764994E9, 0.0, 2022-09-19 16:41:38.676
114.0, -17237.68767567726, -17829.964200253988, -29980.64070709237, -16153.404552150316, 187500.0, 187500.0, -16764.791818236332, -30466.455872828472, 0.734, -0.532, 0.494, 192.0, 0.0, 0.0, 0.0, 0.0, 0.0, 0.0, 0.0, 0.0, 0.0, 1.66358769868158E9, 0.0, 2022-09-19 16:41:38.681
115.0, -17226.64591391634, -17805.019653441865, -29979.970154758714, -16159.283060942062, 187500.0, 187500.0, -16721.183564804025, -30469.763931007856, 0.734, -0.532, 0.494, 192.0, 0.0, 0.0, 0.0, 0.0, 0.0, 0.0, 0.0, 0.0, 0.0, 1.6635876986854951E9, 0.0, 2022-09-19 16:41:38.685
116.0, -17234.044341331046, -17798.783516738837, -29981.959460015234, -16161.026497009576, 187500.0, 187500.0, -16712.444032722, -30470.099207174684, 0.734, -0.532, 0.494, 192.0, 0.0, 0.0, 0.0, 0.0, 0.0, 0.0, 0.0, 0.0, 0.0, 1.6635876986895385E9, 0.0, 2022-09-19 16:41:38.689
117.0, -17246.203690314735, -17801.801002240303, -29985.73690482818, -16159.640688853347, 187500.0, 187500.0, -16753.995925664418, -30468.64634378509, 0.734, -0.532, 0.494, 192.0, 0.0, 0.0, 0.0, 0.0, 0.0, 0.0, 0.0, 0.0, 0.0, 1.6635876986936843E9, 0.0, 2022-09-19 16:41:38.693
118.0, -17247.70125719324, -17826.611438585693, -29984.082875738488, -16161.227662709674, 187500.0, 187500.0, -16769.776257249865, -30467.148776906586, 0.734, -0.532, 0.494, 192.0, 0.0, 0.0, 0.0, 0.0, 0.0, 0.0, 0.0, 0.0, 0.0, 1.6635876986965609E9, 0.0, 2022-09-19 16:41:38.696
119.0, -17235.69837042074, -17802.806830740792, -29984.485207138685, -16160.758276076112, 187500.0, 187500.0, -16754.17473962006, -30463.55014604928, 0.736, -0.53, 0.49, 192.0, 23.0, 0.0, 239.0, 112.0, 15.0, 80.0, 0.0, 0.0, 0.0, 1.6635876987005997E9, 0.0, 2022-09-19 16:41:38.700
120.0, -17216.520573678084, -17776.342365305707, -29988.17324497381, -16162.926395288277, 187500.0, 187500.0, -16711.192335032505, -30467.193480395497, 0.736, -0.53, 0.49, 192.0, 0.0, 0.0, 0.0, 0.0, 0.0, 0.0, 0.0, 0.0, 0.0, 1.6635876987045634E9, 0.0, 2022-09-19 16:41:38.704
121.0, -17219.873335346383, -17796.883618460135, -29987.21211996223, -16164.58042437797, 187500.0, 187500.0, -16701.715195383455, -30471.440311842005, 0.736, -0.53, 0.49, 192.0, 0.0, 0.0, 0.0, 0.0, 0.0, 0.0, 0.0, 0.0, 0.0, 1.6635876987085867E9, 0.0, 2022-09-19 16:41:38.708
122.0, -17238.2688210331, -17828.064301975286, -29988.575576374005, -16169.654270369325, 187500.0, 187500.0, -16748.989134906427, -30476.715323533455, 0.736, -0.53, 0.49, 192.0, 0.0, 0.0, 0.0, 0.0, 0.0, 0.0, 0.0, 0.0, 0.0, 1.6635876987135403E9, 0.0, 2022-09-19 16:41:38.713
123.0, -17236.815957643506, -17823.973932739966, -29988.486169396183, -16170.615395380903, 187500.0, 187500.0, -16769.530388060855, -30477.296468889293, 0.736, -0.53, 0.49, 192.0, 0.0, 0.0, 0.0, 0.0, 0.0, 0.0, 0.0, 0.0, 0.0, 1.6635876987175715E9, 0.0, 2022-09-19 16:41:38.717
124.0, -17244.41555075831, -17831.126490965664, -29989.55905313004, -16174.102267515931, 187500.0, 187500.0, -16755.381733820646, -30479.97867822393, 0.736, -0.53, 0.49, 192.0, 0.0, 0.0, 0.0, 0.0, 0.0, 0.0, 0.0, 0.0, 0.0, 1.6635876987205763E9, 0.0, 2022-09-19 16:41:38.720
125.0, -17243.342667024455, -17852.137130753654, -29986.36275367293, -16174.705764616225, 187500.0, 187500.0, -16707.54900068629, -30479.352829379182, 0.736, -0.53, 0.49, 192.0, 0.0, 0.0, 0.0, 0.0, 0.0, 0.0, 0.0, 0.0, 0.0, 1.6635876987246137E9, 0.0, 2022-09-19 16:41:38.724
126.0, -17234.200803542233, -17822.8563455172, -29983.434675149285, -16170.637747125358, 187500.0, 187500.0, -16688.773535343833, -30480.023381712843, 0.736, -0.53, 0.49, 192.0, 0.0, 0.0, 0.0, 0.0, 0.0, 0.0, 0.0, 0.0, 0.0, 1.6635876987285995E9, 0.0, 2022-09-19 16:41:38.728
127.0, -17238.2688210331, -17809.869981988668, -29982.94293677127, -16166.43561916776, 187500.0, 187500.0, -16729.45371025249, -30475.530681077325, 0.736, -0.53, 0.49, 192.0, 0.0, 0.0, 0.0, 0.0, 0.0, 0.0, 0.0, 0.0, 0.0, 1.6635876987326458E9, 0.0, 2022-09-19 16:41:38.732
128.0, -17244.572012969496, -17849.924308052578, -29984.88753853888, -16166.614433123403, 187500.0, 187500.0, -16752.274841341357, -30473.049637442786, 0.736, -0.53, 0.49, 192.0, 0.0, 0.0, 0.0, 0.0, 0.0, 0.0, 0.0, 0.0, 0.0, 1.6635876987366488E9, 0.0, 2022-09-19 16:41:38.736
129.0, -17219.60511441292, -17825.829127529756, -29981.043038492568, -16161.62999410987, 187500.0, 187500.0, -16736.31569580027, -30467.752274006878, 0.738, -0.53, 0.488, 192.0, 23.0, 16.0, 239.0, 112.0, 15.0, 64.0, 0.0, 0.0, 0.0, 1.6635876987426264E9, 0.0, 2022-09-19 16:41:38.742
130.0, -17209.725643363672, -17798.04590917181, -29991.615413619926, -16170.168360491796, 187500.0, 187500.0, -16694.58498890221, -30480.13514043512, 0.738, -0.53, 0.488, 192.0, 0.0, 0.0, 0.0, 0.0, 0.0, 0.0, 0.0, 0.0, 0.0, 1.6635876987455757E9, 0.0, 2022-09-19 16:41:38.745
131.0, -17231.89857386334, -17860.87666283568, -29990.542529886072, -16173.990508793655, 187500.0, 187500.0, -16682.984433529906, -30483.66671605906, 0.738, -0.53, 0.488, 192.0, 0.0, 0.0, 0.0, 0.0, 0.0, 0.0, 0.0, 0.0, 0.0, 1.6635876987496748E9, 0.0, 2022-09-19 16:41:38.749
132.0, -17227.584687183462, -17821.224668171963, -29979.16549195832, -16168.29081395755, 187500.0, 187500.0, -16720.73652991492, -30480.13514043512, 0.738, -0.53, 0.488, 192.0, 0.0, 0.0, 0.0, 0.0, 0.0, 0.0, 0.0, 0.0, 0.0, 1.6635876987526565E9, 0.0, 2022-09-19 16:41:38.752
133.0, -17215.02300679958, -17769.86035941367, -29971.476491865695, -16161.562938876503, 187500.0, 187500.0, -16739.243774323913, -30474.54720432129, 0.738, -0.53, 0.488, 192.0, 0.0, 0.0, 0.0, 0.0, 0.0, 0.0, 0.0, 0.0, 0.0, 1.663587698756652E9, 0.0, 2022-09-19 16:41:38.756
134.0, -17221.527364436075, -17800.459897572982, -29975.678619823295, -16162.00997376561, 187500.0, 187500.0, -16723.441090994012, -30475.620088055148, 0.738, -0.53, 0.488, 192.0, 0.0, 0.0, 0.0, 0.0, 0.0, 0.0, 0.0, 0.0, 0.0, 1.6635876987605965E9, 0.0, 2022-09-19 16:41:38.760
135.0, -17225.461271460208, -17815.61438031368, -29984.75342807215, -16170.794209336545, 187500.0, 187500.0, -16677.888235794097, -30478.50346308988, 0.738, -0.53, 0.488, 192.0, 0.0, 0.0, 0.0, 0.0, 0.0, 0.0, 0.0, 0.0, 0.0, 1.663587698764652E9, 0.0, 2022-09-19 16:41:38.764
136.0, -17246.158986825823, -17845.43160741706, -29994.990527032678, -16179.556093163026, 187500.0, 187500.0, -16659.29158440728, -30482.66088755857, 0.738, -0.53, 0.488, 192.0, 0.0, 0.0, 0.0, 0.0, 0.0, 0.0, 0.0, 0.0, 0.0, 1.6635876987686608E9, 0.0, 2022-09-19 16:41:38.768
137.0, -17249.668210705306, -17821.24701991642, -29985.73690482818, -16165.988584278653, 187500.0, 187500.0, -16691.92513131203, -30473.340210120707, 0.738, -0.53, 0.488, 192.0, 0.0, 0.0, 0.0, 0.0, 0.0, 0.0, 0.0, 0.0, 0.0, 1.66358769877365E9, 0.0, 2022-09-19 16:41:38.773
138.0, -17237.777082655084, -17794.357871336684, -29975.522157612108, -16153.963345761698, 187500.0, 187500.0, -16710.678244910032, -30467.819329240243, 0.738, -0.53, 0.488, 192.0, 0.0, 0.0, 0.0, 0.0, 0.0, 0.0, 0.0, 0.0, 0.0, 1.663587698776672E9, 0.0, 2022-09-19 16:41:38.776
139.0, -17233.284382019567, -17825.71736880748, -29988.70968684074, -16162.077028998976, 187500.0, 187500.0, -16695.546113913788, -30468.333419362716, 0.734, -0.528, 0.5, 192.0, 22.0, 240.0, 239.0, 128.0, 15.0, 160.0, 0.0, 0.0, 0.0, 1.6635876987806854E9, 0.0, 2022-09-19 16:41:38.780
140.0, -17228.098777305935, -17832.758168310902, -29994.521140399116, -16168.603738379925, 187500.0, 187500.0, -16652.586061070688, -30473.854300243176, 0.734, -0.528, 0.5, 192.0, 0.0, 0.0, 0.0, 0.0, 0.0, 0.0, 0.0, 0.0, 0.0, 1.6635876987846656E9, 0.0, 2022-09-19 16:41:38.784
141.0, -17236.79360589905, -17829.539517109337, -29998.678564867805, -16171.464761670204, 187500.0, 187500.0, -16632.178918382993, -30481.342134635706, 0.734, -0.528, 0.5, 192.0, 0.0, 0.0, 0.0, 0.0, 0.0, 0.0, 0.0, 0.0, 0.0, 1.6635876987887125E9, 0.0, 2022-09-19 16:41:38.788
142.0, -17258.966536398715, -17865.123494282187, -29998.052716023056, -16174.996337294144, 187500.0, 187500.0, -16668.276985678316, -30482.9961637254, 0.734, -0.528, 0.5, 192.0, 0.0, 0.0, 0.0, 0.0, 0.0, 0.0, 0.0, 0.0, 0.0, 1.6635876987927303E9, 0.0, 2022-09-19 16:41:38.792
143.0, -17229.26106801761, -17812.976874467957, -29989.916681041323, -16167.553206390527, 187500.0, 187500.0, -16688.505314410366, -30477.296468889293, 0.734, -0.528, 0.5, 192.0, 0.0, 0.0, 0.0, 0.0, 0.0, 0.0, 0.0, 0.0, 0.0, 1.6635876987966435E9, 0.0, 2022-09-19 16:41:38.796
144.0, -17206.97637879567, -17777.929339162034, -29991.146026986367, -16169.34134594695, 187500.0, 187500.0, -16674.803695059265, -30481.520948591347, 0.734, -0.528, 0.5, 192.0, 0.0, 0.0, 0.0, 0.0, 0.0, 0.0, 0.0, 0.0, 0.0, 1.6635876988017793E9, 0.0, 2022-09-19 16:41:38.801
145.0, -17218.17460276778, -17835.95446776801, -30004.154742259354, -16184.942863576754, 187500.0, 187500.0, -16636.090473662673, -30494.484960375426, 0.734, -0.528, 0.5, 192.0, 0.0, 0.0, 0.0, 0.0, 0.0, 0.0, 0.0, 0.0, 0.0, 1.663587698804728E9, 0.0, 2022-09-19 16:41:38.804
146.0, -17226.511803449608, -17814.116813435176, -30011.88844584089, -16187.178038022286, 187500.0, 187500.0, -16615.61627574161, -30500.005841255886, 0.734, -0.528, 0.5, 192.0, 0.0, 0.0, 0.0, 0.0, 0.0, 0.0, 0.0, 0.0, 0.0, 1.6635876988096907E9, 0.0, 2022-09-19 16:41:38.809
147.0, -17224.231925515167, -17788.65817650058, -30001.04784978007, -16177.835008839967, 187500.0, 187500.0, -16649.702686035955, -30491.04279172931, 0.734, -0.528, 0.5, 192.0, 0.0, 0.0, 0.0, 0.0, 0.0, 0.0, 0.0, 0.0, 0.0, 1.6635876988137E9, 0.0, 2022-09-19 16:41:38.813
148.0, -17218.711044634707, -17796.391880082116, -29992.442428164773, -16175.443372183248, 187500.0, 187500.0, -16673.976680514417, -30489.098189961696, 0.734, -0.528, 0.5, 192.0, 0.0, 0.0, 0.0, 0.0, 0.0, 0.0, 0.0, 0.0, 0.0, 1.663587698817764E9, 0.0, 2022-09-19 16:41:38.817
149.0, -17209.25625673011, -17802.806830740792, -29990.207253719243, -16172.761162848612, 187500.0, 187500.0, -16658.218700673428, -30487.60062308319, 0.73, -0.532, 0.502, 192.0, 22.0, 208.0, 239.0, 96.0, 15.0, 176.0, 0.0, 0.0, 0.0, 1.6635876988216467E9, 0.0, 2022-09-19 16:41:38.821
150.0, -17202.08134675996, -17809.378243610652, -29990.609585119437, -16174.661061127314, 187500.0, 187500.0, -16608.553124493734, -30490.282832417826, 0.73, -0.532, 0.502, 192.0, 0.0, 0.0, 0.0, 0.0, 0.0, 0.0, 0.0, 0.0, 0.0, 1.6635876988267581E9, 0.0, 2022-09-19 16:41:38.826
151.0, -17216.92290507828, -17830.143014209632, -30001.338422457986, -16183.646462398347, 187500.0, 187500.0, -16582.736859647855, -30501.481056389937, 0.73, -0.532, 0.502, 192.0, 0.0, 0.0, 0.0, 0.0, 0.0, 0.0, 0.0, 0.0, 0.0, 1.66358769883085E9, 0.0, 2022-09-19 16:41:38.830
152.0, -17232.010332585614, -17847.085636506752, -30001.830160836, -16181.076011785986, 187500.0, 187500.0, -16620.01956939931, -30500.005841255886, 0.73, -0.532, 0.502, 192.0, 0.0, 0.0, 0.0, 0.0, 0.0, 0.0, 0.0, 0.0, 0.0, 1.6635876988337717E9, 0.0, 2022-09-19 16:41:38.833
153.0, -17236.65949543232, -17883.764849157913, -29997.806846834046, -16176.315090217005, 187500.0, 187500.0, -16639.95732545344, -30493.9485185085, 0.73, -0.532, 0.502, 192.0, 0.0, 0.0, 0.0, 0.0, 0.0, 0.0, 0.0, 0.0, 0.0, 1.6635876988377795E9, 0.0, 2022-09-19 16:41:38.837
154.0, -17235.519556465097, -17878.936872355567, -30003.953576559255, -16178.796133851545, 187500.0, 187500.0, -16624.981656668384, -30496.049582487296, 0.73, -0.532, 0.502, 192.0, 0.0, 0.0, 0.0, 0.0, 0.0, 0.0, 0.0, 0.0, 0.0, 1.6635876988408203E9, 0.0, 2022-09-19 16:41:38.840
155.0, -17235.74307390965, -17836.82618580177, -30008.535684172595, -16183.311186231518, 187500.0, 187500.0, -16582.580397436668, -30501.793980812312, 0.73, -0.532, 0.502, 192.0, 0.0, 0.0, 0.0, 0.0, 0.0, 0.0, 0.0, 0.0, 0.0, 1.663587698844805E9, 0.0, 2022-09-19 16:41:38.844
156.0, -17244.03557110257, -17867.29161349435, -30002.187788747287, -16188.697956645246, 187500.0, 187500.0, -16558.284051213748, -30501.50340813439, 0.73, -0.532, 0.502, 192.0, 0.0, 0.0, 0.0, 0.0, 0.0, 0.0, 0.0, 0.0, 0.0, 1.6635876988487473E9, 0.0, 2022-09-19 16:41:38.848
157.0, -17212.54196316504, -17779.8962926741, -29989.02261126311, -16172.515293659604, 187500.0, 187500.0, -16587.38602249456, -30491.713344062966, 0.73, -0.532, 0.502, 192.0, 0.0, 0.0, 0.0, 0.0, 0.0, 0.0, 0.0, 0.0, 0.0, 1.6635876988528879E9, 0.0, 2022-09-19 16:41:38.852
158.0, -17201.92488454877, -17760.31616453125, -29984.73107632769, -16161.741752832146, 187500.0, 187500.0, -16609.938932649962, -30478.12348343414, 0.73, -0.532, 0.502, 192.0, 0.0, 0.0, 0.0, 0.0, 0.0, 0.0, 0.0, 0.0, 0.0, 1.6635876988577785E9, 0.0, 2022-09-19 16:41:38.857
159.0, -17206.730509606663, -17789.842818956713, -29991.771875831113, -16171.263595970107, 187500.0, 187500.0, -16598.00310111083, -30485.298393404293, 0.726, -0.538, 0.502, 192.0, 22.0, 176.0, 239.0, 48.0, 15.0, 176.0, 0.0, 0.0, 0.0, 1.6635876988607547E9, 0.0, 2022-09-19 16:41:38.860
160.0, -17195.085250745447, -17807.947731965513, -29995.571672388516, -16176.762125106112, 187500.0, 187500.0, -16562.396772193526, -30486.55009109379, 0.726, -0.538, 0.502, 192.0, 0.0, 0.0, 0.0, 0.0, 0.0, 0.0, 0.0, 0.0, 0.0, 1.6635876988638222E9, 0.0, 2022-09-19 16:41:38.863
161.0, -17198.080384502457, -17814.63090355765, -29997.583329389494, -16176.225683239185, 187500.0, 187500.0, -16535.7534928028, -30488.159416694572, 0.726, -0.538, 0.502, 192.0, 0.0, 0.0, 0.0, 0.0, 0.0, 0.0, 0.0, 0.0, 0.0, 1.6635876988687932E9, 0.0, 2022-09-19 16:41:38.868
162.0, -17213.39132945434, -17803.96912145247, -29991.45895140874, -16166.033287767565, 187500.0, 187500.0, -16569.28110948576, -30484.292564903804, 0.726, -0.538, 0.502, 192.0, 0.0, 0.0, 0.0, 0.0, 0.0, 0.0, 0.0, 0.0, 0.0, 1.6635876988728173E9, 0.0, 2022-09-19 16:41:38.872
163.0, -17235.40779774282, -17833.71929332248, -29987.79326531807, -16166.43561916776, 187500.0, 187500.0, -16602.29463604625, -30483.242032914408, 0.726, -0.538, 0.502, 192.0, 0.0, 0.0, 0.0, 0.0, 0.0, 0.0, 0.0, 0.0, 0.0, 1.663587698876829E9, 0.0, 2022-09-19 16:41:38.876
164.0, -17233.239678530656, -17831.23824968794, -29985.334573427986, -16167.419095923793, 187500.0, 187500.0, -16593.398641753036, -30486.013649226865, 0.726, -0.538, 0.502, 192.0, 0.0, 0.0, 0.0, 0.0, 0.0, 0.0, 0.0, 0.0, 0.0, 1.6635876988807971E9, 0.0, 2022-09-19 16:41:38.880
165.0, -17221.54971618053, -17820.53176409385, -29989.536701385583, -16173.409363437817, 187500.0, 187500.0, -16556.205338979405, -30489.098189961696, 0.726, -0.538, 0.502, 192.0, 0.0, 0.0, 0.0, 0.0, 0.0, 0.0, 0.0, 0.0, 0.0, 1.6635876988837633E9, 0.0, 2022-09-19 16:41:38.883
166.0, -17225.08129180447, -17824.443319373528, -29987.0780094955, -16173.051735526531, 187500.0, 187500.0, -16535.12764395805, -30490.03696322882, 0.726, -0.538, 0.502, 192.0, 0.0, 0.0, 0.0, 0.0, 0.0, 0.0, 0.0, 0.0, 0.0, 1.663587698889848E9, 0.0, 2022-09-19 16:41:38.889
167.0, -17251.41164677282, -17838.81549105829, -29986.36275367293, -16168.424924424282, 187500.0, 187500.0, -16573.28207174326, -30492.22743418544, 0.726, -0.538, 0.502, 192.0, 0.0, 0.0, 0.0, 0.0, 0.0, 0.0, 0.0, 0.0, 0.0, 1.663587698892972E9, 0.0, 2022-09-19 16:41:38.892
168.0, -17249.265879305112, -17845.900994050622, -29983.54643387156, -16164.62512786688, 187500.0, 187500.0, -16600.95353137893, -30490.483998117925, 0.726, -0.538, 0.502, 192.0, 0.0, 0.0, 0.0, 0.0, 0.0, 0.0, 0.0, 0.0, 0.0, 1.6635876988968177E9, 0.0, 2022-09-19 16:41:38.896
169.0, -17240.74986466764, -17847.15269174012, -29983.97111701621, -16168.559034891015, 187500.0, 187500.0, -16594.918560375998, -30492.22743418544, 0.726, -0.534, 0.504, 192.0, 22.0, 176.0, 239.0, 80.0, 15.0, 192.0, 0.0, 0.0, 0.0, 1.6635876989008107E9, 0.0, 2022-09-19 16:41:38.900
170.0, -17230.22219302919, -17833.29461017783, -29984.55226237205, -16170.324822702984, 187500.0, 187500.0, -16555.08775175664, -30493.50148361939, 0.726, -0.534, 0.504, 192.0, 0.0, 0.0, 0.0, 0.0, 0.0, 0.0, 0.0, 0.0, 0.0, 1.6635876989048924E9, 0.0, 2022-09-19 16:41:38.904
171.0, -17245.51078623662, -17829.584220598248, -29990.49782639716, -16173.63288088237, 187500.0, 187500.0, -16533.40655963499, -30497.211873198972, 0.726, -0.534, 0.504, 192.0, 0.0, 0.0, 0.0, 0.0, 0.0, 0.0, 0.0, 0.0, 0.0, 1.663587698910908E9, 0.0, 2022-09-19 16:41:38.910
172.0, -17247.70125719324, -17805.891371475624, -29985.22281470571, -16162.077028998976, 187500.0, 187500.0, -16566.665955384487, -30490.774570795846, 0.726, -0.534, 0.504, 192.0, 0.0, 0.0, 0.0, 0.0, 0.0, 0.0, 0.0, 0.0, 0.0, 1.6635876989138567E9, 0.0, 2022-09-19 16:41:38.913
173.0, -17233.574954697484, -17794.022595169856, -29975.857433778936, -16152.66694458329, 187500.0, 187500.0, -16593.75626966432, -30482.862053258665, 0.726, -0.534, 0.504, 192.0, 0.0, 0.0, 0.0, 0.0, 0.0, 0.0, 0.0, 0.0, 0.0, 1.66358769891691E9, 0.0, 2022-09-19 16:41:38.916
174.0, -17239.49816697814, -17809.825278499757, -29985.893367039367, -16159.8642062979, 187500.0, 187500.0, -16588.391850995045, -30489.433466128525, 0.726, -0.534, 0.504, 192.0, 0.0, 0.0, 0.0, 0.0, 0.0, 0.0, 0.0, 0.0, 0.0, 1.6635876989199345E9, 0.0, 2022-09-19 16:41:38.919
175.0, -17248.215347315712, -17836.557964868305, -29996.17516948881, -16172.403534937328, 187500.0, 187500.0, -16552.249080210815, -30501.14578022311, 0.726, -0.534, 0.504, 192.0, 0.0, 0.0, 0.0, 0.0, 0.0, 0.0, 0.0, 0.0, 0.0, 1.663587698924894E9, 0.0, 2022-09-19 16:41:38.924
176.0, -17249.489396749665, -17859.177930257076, -29995.63872762188, -16173.364659948906, 187500.0, 187500.0, -16520.88958274002, -30494.32849816424, 0.726, -0.534, 0.504, 192.0, 0.0, 0.0, 0.0, 0.0, 0.0, 0.0, 0.0, 0.0, 0.0, 1.6635876989289591E9, 0.0, 2022-09-19 16:41:38.928
177.0, -17255.233795074677, -17850.81837783079, -29990.006088019145, -16162.34524993244, 187500.0, 187500.0, -16546.012943507783, -30486.93007074953, 0.726, -0.534, 0.504, 192.0, 0.0, 0.0, 0.0, 0.0, 0.0, 0.0, 0.0, 0.0, 0.0, 1.6635876989329612E9, 0.0, 2022-09-19 16:41:38.932
178.0, -17248.729437438185, -17825.270333918375, -29988.776742074104, -16158.321935930484, 187500.0, 187500.0, -16579.428801468468, -30484.247861414897, 0.726, -0.534, 0.504, 192.0, 0.0, 0.0, 0.0, 0.0, 0.0, 0.0, 0.0, 0.0, 0.0, 1.6635876989369178E9, 0.0, 2022-09-19 16:41:38.936
179.0, -17237.754730910627, -17820.62117107167, -29988.46381765173, -16167.329688945973, 187500.0, 187500.0, -16571.985670564853, -30490.282832417826, 0.728, -0.534, 0.504, 192.0, 22.0, 192.0, 239.0, 80.0, 15.0, 192.0, 0.0, 0.0, 0.0, 1.663587698939904E9, 0.0, 2022-09-19 16:41:38.939
180.0, -17240.772216412093, -17815.122641935664, -29993.98469853219, -16174.258729727118, 187500.0, 187500.0, -16534.792367791222, -30499.93878602252, 0.728, -0.534, 0.504, 192.0, 0.0, 0.0, 0.0, 0.0, 0.0, 0.0, 0.0, 0.0, 0.0, 1.6635876989439473E9, 0.0, 2022-09-19 16:41:38.943
181.0, -17245.354324025433, -17813.021577956864, -29996.17516948881, -16175.421020438795, 187500.0, 187500.0, -16503.65638776498, -30499.581158111236, 0.728, -0.534, 0.504, 192.0, 0.0, 0.0, 0.0, 0.0, 0.0, 0.0, 0.0, 0.0, 0.0, 1.6635876989479487E9, 0.0, 2022-09-19 16:41:38.947
182.0, -17236.63714368786, -17806.04783368681, -29988.59792811846, -16169.162531991307, 187500.0, 187500.0, -16535.217050935873, -30491.51217836287, 0.728, -0.534, 0.504, 192.0, 0.0, 0.0, 0.0, 0.0, 0.0, 0.0, 0.0, 0.0, 0.0, 1.6635876989529588E9, 0.0, 2022-09-19 16:41:38.952
183.0, -17238.4699867332, -17827.349046152718, -29991.034268264088, -16169.386049435861, 187500.0, 187500.0, -16572.388001965046, -30491.378067896138, 0.728, -0.534, 0.504, 192.0, 0.0, 0.0, 0.0, 0.0, 0.0, 0.0, 0.0, 0.0, 0.0, 1.6635876989570498E9, 0.0, 2022-09-19 16:41:38.957
184.0, -17246.74013218166, -17863.33535472576, -29992.241262464675, -16167.39674417934, 187500.0, 187500.0, -16572.790333365243, -30489.880501017633, 0.728, -0.534, 0.504, 192.0, 0.0, 0.0, 0.0, 0.0, 0.0, 0.0, 0.0, 0.0, 0.0, 1.6635876989609694E9, 0.0, 2022-09-19 16:41:38.960
185.0, -17231.719759907694, -17825.739720551937, -29986.295698439564, -16166.14504648984, 187500.0, 187500.0, -16540.84969053861, -30491.60158534069, 0.728, -0.534, 0.504, 192.0, 0.0, 0.0, 0.0, 0.0, 0.0, 0.0, 0.0, 0.0, 0.0, 1.6635876989649932E9, 0.0, 2022-09-19 16:41:38.964
186.0, -17209.74799510813, -17782.913778175567, -29985.468683894716, -16168.402572679828, 187500.0, 187500.0, -16513.535858814223, -30494.08262897523, 0.728, -0.534, 0.504, 192.0, 0.0, 0.0, 0.0, 0.0, 0.0, 0.0, 0.0, 0.0, 0.0, 1.6635876989679632E9, 0.0, 2022-09-19 16:41:38.967
187.0, -17215.40298645532, -17799.61053128368, -29984.35109667195, -16165.608604622914, 187500.0, 187500.0, -16548.27046969777, -30491.8474545297, 0.728, -0.534, 0.504, 192.0, 0.0, 0.0, 0.0, 0.0, 0.0, 0.0, 0.0, 0.0, 0.0, 1.663587698972004E9, 0.0, 2022-09-19 16:41:38.972
188.0, -17223.226097014678, -17812.462784345484, -29980.975983259203, -16160.28888944255, 187500.0, 187500.0, -16587.989519594852, -30489.098189961696, 0.728, -0.534, 0.504, 192.0, 0.0, 0.0, 0.0, 0.0, 0.0, 0.0, 0.0, 0.0, 0.0, 1.6635876989779391E9, 0.0, 2022-09-19 16:41:38.977
189.0, -17219.15807952381, -17811.34519712272, -29978.45023613575, -16163.529892388571, 187500.0, 187500.0, -16595.633816198566, -30490.84162602921, 0.728, -0.534, 0.504, 192.0, 0.0, 0.0, 0.0, 0.0, 0.0, 0.0, 0.0, 0.0, 0.0, 1.663587698981059E9, 0.0, 2022-09-19 16:41:38.981
190.0, -17202.215457226688, -17801.733947006935, -29976.952669257247, -16167.19557847924, 187500.0, 187500.0, -16564.408429194504, -30492.115675463163, 0.726, -0.536, 0.502, 192.0, 22.0, 176.0, 239.0, 64.0, 15.0, 176.0, 0.0, 0.0, 0.0, 1.6635876989849672E9, 0.0, 2022-09-19 16:41:38.984
191.0, -17189.854942542905, -17789.507542789885, -29979.299602425053, -16165.094514500443, 187500.0, 187500.0, -16535.30645791369, -30489.545224850805, 0.726, -0.536, 0.502, 192.0, 0.0, 0.0, 0.0, 0.0, 0.0, 0.0, 0.0, 0.0, 0.0, 1.6635876989889233E9, 0.0, 2022-09-19 16:41:38.988
192.0, -17208.630407885365, -17804.19263889702, -29982.182977459786, -16165.854473811922, 187500.0, 187500.0, -16569.392868208037, -30488.18176843903, 0.726, -0.536, 0.502, 192.0, 0.0, 0.0, 0.0, 0.0, 0.0, 0.0, 0.0, 0.0, 0.0, 1.663587698992993E9, 0.0, 2022-09-19 16:41:38.992
193.0, -17220.3650737244, -17831.48411887695, -29974.06929422251, -16163.284023199561, 187500.0, 187500.0, -16611.90588616203, -30484.069047459252, 0.726, -0.536, 0.502, 192.0, 0.0, 0.0, 0.0, 0.0, 0.0, 0.0, 0.0, 0.0, 0.0, 1.6635876989961195E9, 0.0, 2022-09-19 16:41:38.996
194.0, -17198.370957180377, -17794.067298658767, -29965.329762140485, -16155.505616129116, 187500.0, 187500.0, -16614.565743752213, -30483.957288736976, 0.726, -0.536, 0.502, 192.0, 0.0, 0.0, 0.0, 0.0, 0.0, 0.0, 0.0, 0.0, 0.0, 1.6635876990000203E9, 0.0, 2022-09-19 16:41:39.000
195.0, -17184.78109655155, -17787.182961366532, -29970.582422087482, -16156.846720796433, 187500.0, 187500.0, -16583.80974338171, -30478.07877994523, 0.726, -0.536, 0.502, 192.0, 0.0, 0.0, 0.0, 0.0, 0.0, 0.0, 0.0, 0.0, 0.0, 1.6635876990040119E9, 0.0, 2022-09-19 16:41:39.004
196.0, -17188.849114042416, -17781.684432230526, -29976.9750210017, -16156.958479518711, 187500.0, 187500.0, -16556.160635490494, -30478.101131689684, 0.726, -0.536, 0.502, 192.0, 0.0, 0.0, 0.0, 0.0, 0.0, 0.0, 0.0, 0.0, 0.0, 1.6635876990080433E9, 0.0, 2022-09-19 16:41:39.008
197.0, -17204.98707353915, -17795.833086470735, -29975.41039888983, -16154.835063795455, 187500.0, 187500.0, -16592.079888830172, -30475.776550266335, 0.726, -0.536, 0.502, 192.0, 0.0, 0.0, 0.0, 0.0, 0.0, 0.0, 0.0, 0.0, 0.0, 1.6635876990130153E9, 0.0, 2022-09-19 16:41:39.013
198.0, -17201.45549791521, -17770.352097791685, -29966.559108085527, -16147.43663638075, 187500.0, 187500.0, -16631.53071779379, -30470.166262408053, 0.726, -0.536, 0.502, 192.0, 0.0, 0.0, 0.0, 0.0, 0.0, 0.0, 0.0, 0.0, 0.0, 1.6635876990170667E9, 0.0, 2022-09-19 16:41:39.017
199.0, -17200.472021159178, -17773.347231548694, -29970.18009068729, -16150.00708699311, 187500.0, 187500.0, -16634.168223639517, -30474.860128743665, 0.726, -0.536, 0.502, 192.0, 0.0, 0.0, 0.0, 0.0, 0.0, 0.0, 0.0, 0.0, 0.0, 1.6635876990210516E9, 0.0, 2022-09-19 16:41:39.021
200.0, -17202.438974671244, -17810.249961644407, -29981.73594257068, -16162.099380743432, 187500.0, 187500.0, -16607.61435122661, -30484.359620137173, 0.728, -0.532, 0.5, 192.0, 22.0, 192.0, 239.0, 96.0, 15.0, 160.0, 0.0, 0.0, 0.0, 1.6635876990241137E9, 0.0, 2022-09-19 16:41:39.024
201.0, -17201.12022174838, -17823.52689785086, -29993.22473922071, -16171.129485503376, 187500.0, 187500.0, -16576.254853755814, -30491.735695807423, 0.728, -0.532, 0.5, 192.0, 0.0, 0.0, 0.0, 0.0, 0.0, 0.0, 0.0, 0.0, 0.0, 1.6635876990280724E9, 0.0, 2022-09-19 16:41:39.028
202.0, -17208.518649163085, -17798.42588882755, -29988.754390329646, -16158.34428767494, 187500.0, 187500.0, -16605.692101203455, -30482.102093947185, 0.728, -0.532, 0.5, 192.0, 0.0, 0.0, 0.0, 0.0, 0.0, 0.0, 0.0, 0.0, 0.0, 1.6635876990321143E9, 0.0, 2022-09-19 16:41:39.032
203.0, -17223.181393525767, -17812.731005278947, -29985.066352494523, -16157.137293474352, 187500.0, 187500.0, -16643.533604566288, -30479.844567757198, 0.728, -0.532, 0.5, 192.0, 0.0, 0.0, 0.0, 0.0, 0.0, 0.0, 0.0, 0.0, 0.0, 1.6635876990361524E9, 0.0, 2022-09-19 16:41:39.036
204.0, -17204.58474213895, -17773.794266437802, -29978.561994858028, -16152.979869005665, 187500.0, 187500.0, -16636.604563785146, -30476.22358515544, 0.728, -0.532, 0.5, 192.0, 0.0, 0.0, 0.0, 0.0, 0.0, 0.0, 0.0, 0.0, 0.0, 1.6635876990410671E9, 0.0, 2022-09-19 16:41:39.041
205.0, -17200.606131625907, -17790.356909079186, -29984.88753853888, -16156.712610329701, 187500.0, 187500.0, -16602.361691279613, -30476.98354446692, 0.728, -0.532, 0.5, 192.0, 0.0, 0.0, 0.0, 0.0, 0.0, 0.0, 0.0, 0.0, 0.0, 1.663587699045091E9, 0.0, 2022-09-19 16:41:39.045
206.0, -17219.1133760349, -17827.304342663807, -29994.007050276647, -16164.401610422328, 187500.0, 187500.0, -16563.581414649656, -30479.531643334823, 0.728, -0.532, 0.5, 192.0, 0.0, 0.0, 0.0, 0.0, 0.0, 0.0, 0.0, 0.0, 0.0, 1.6635876990491047E9, 0.0, 2022-09-19 16:41:39.049
207.0, -17240.816919901004, -17876.67934616558, -29996.353983444453, -16165.921529045288, 187500.0, 187500.0, -16584.502647459823, -30478.637573556614, 0.728, -0.532, 0.5, 192.0, 0.0, 0.0, 0.0, 0.0, 0.0, 0.0, 0.0, 0.0, 0.0, 1.6635876990522048E9, 0.0, 2022-09-19 16:41:39.052
208.0, -17211.647893386827, -17807.947731965513, -29976.684448323784, -16149.045961981532, 187500.0, 187500.0, -16609.737766949864, -30465.204175138973, 0.728, -0.532, 0.5, 192.0, 0.0, 0.0, 0.0, 0.0, 0.0, 0.0, 0.0, 0.0, 0.0, 1.6635876990571823E9, 0.0, 2022-09-19 16:41:39.057
209.0, -17195.73345133465, -17751.95661210497, -29964.770968529105, -16136.9089647423, 187500.0, 187500.0, -16599.05363310023, -30456.755215734865, 0.728, -0.532, 0.5, 192.0, 0.0, 0.0, 0.0, 0.0, 0.0, 0.0, 0.0, 0.0, 0.0, 1.6635876990611863E9, 0.0, 2022-09-19 16:41:39.061
210.0, -17201.32138744848, -17782.109115375177, -29973.108169210933, -16147.816616036489, 187500.0, 187500.0, -16561.99444079333, -30468.869861229643, 0.728, -0.536, 0.5, 192.0, 22.0, 192.0, 239.0, 64.0, 15.0, 160.0, 0.0, 0.0, 0.0, 1.663587699064192E9, 0.0, 2022-09-19 16:41:39.064
211.0, -17214.419509699288, -17793.150877136097, -29985.289869939075, -16158.67956384177, 187500.0, 187500.0, -16519.593181561613, -30478.861091001167, 0.728, -0.536, 0.5, 192.0, 0.0, 0.0, 0.0, 0.0, 0.0, 0.0, 0.0, 0.0, 0.0, 1.663587699068232E9, 0.0, 2022-09-19 16:41:39.068
212.0, -17216.87820158937, -17794.156705636586, -29984.194634460764, -16159.238357453152, 187500.0, 187500.0, -16534.41238813548, -30482.146797436097, 0.728, -0.536, 0.5, 192.0, 0.0, 0.0, 0.0, 0.0, 0.0, 0.0, 0.0, 0.0, 0.0, 1.663587699073166E9, 0.0, 2022-09-19 16:41:39.073
213.0, -17188.78205880905, -17778.979871151434, -29974.851605278447, -16149.783569548557, 187500.0, 187500.0, -16560.899205315018, -30470.769759508345, 0.728, -0.536, 0.5, 192.0, 0.0, 0.0, 0.0, 0.0, 0.0, 0.0, 0.0, 0.0, 0.0, 1.6635876990761874E9, 0.0, 2022-09-19 16:41:39.076
214.0, -17166.005631209093, -17766.12761808963, -29971.700009310247, -16143.078046211964, 187500.0, 187500.0, -16551.355010432602, -30468.780454251824, 0.728, -0.536, 0.5, 192.0, 0.0, 0.0, 0.0, 0.0, 0.0, 0.0, 0.0, 0.0, 0.0, 1.6635876990801308E9, 0.0, 2022-09-19 16:41:39.080
215.0, -17167.72671553215, -17794.447278314507, -29976.75150355715, -16150.074142226476, 187500.0, 187500.0, -16513.446451836404, -30475.575384566237, 0.728, -0.536, 0.5, 192.0, 0.0, 0.0, 0.0, 0.0, 0.0, 0.0, 0.0, 0.0, 0.0, 1.6635876990841973E9, 0.0, 2022-09-19 16:41:39.084
216.0, -17175.21454992468, -17824.376264140163, -29985.915718783825, -16161.138255731852, 187500.0, 187500.0, -16468.653555947967, -30486.28187016033, 0.728, -0.536, 0.5, 192.0, 0.0, 0.0, 0.0, 0.0, 0.0, 0.0, 0.0, 0.0, 0.0, 1.663587699088194E9, 0.0, 2022-09-19 16:41:39.088
217.0, -17192.31363443299, -17816.06141520279, -29985.826311806002, -16158.657212097314, 187500.0, 187500.0, -16479.516503753246, -30484.44902711499, 0.728, -0.536, 0.5, 192.0, 0.0, 0.0, 0.0, 0.0, 0.0, 0.0, 0.0, 0.0, 0.0, 1.6635876990921657E9, 0.0, 2022-09-19 16:41:39.092
218.0, -17194.794678067527, -17819.548287337817, -29989.536701385583, -16163.306374944017, 187500.0, 187500.0, -16509.713710512366, -30487.55591959428, 0.728, -0.536, 0.5, 192.0, 0.0, 0.0, 0.0, 0.0, 0.0, 0.0, 0.0, 0.0, 0.0, 1.6635876990962112E9, 0.0, 2022-09-19 16:41:39.096
219.0, -17195.442878656733, -17835.95446776801, -29997.225701478208, -16174.43754368276, 187500.0, 187500.0, -16509.110213412074, -30495.691954576014, 0.728, -0.536, 0.5, 192.0, 0.0, 0.0, 0.0, 0.0, 0.0, 0.0, 0.0, 0.0, 0.0, 1.66358769910119E9, 0.0, 2022-09-19 16:41:39.101
220.0, -17173.53816909053, -17795.56486553727, -29986.69802983976, -16165.183921478263, 187500.0, 187500.0, -16467.535968725202, -30489.098189961696, 0.728, -0.536, 0.496, 192.0, 22.0, 192.0, 239.0, 64.0, 15.0, 128.0, 0.0, 0.0, 0.0, 1.6635876991041987E9, 0.0, 2022-09-19 16:41:39.104
221.0, -17182.680032572753, -17801.756298751392, -29994.297622954564, -16171.800037837034, 187500.0, 187500.0, -16419.233848957283, -30496.474265631947, 0.728, -0.536, 0.496, 192.0, 0.0, 0.0, 0.0, 0.0, 0.0, 0.0, 0.0, 0.0, 0.0, 1.6635876991081805E9, 0.0, 2022-09-19 16:41:39.108
222.0, -17178.50025635961, -17772.85549317068, -29986.27334669511, -16164.9157005448, 187500.0, 187500.0, -16430.186203740384, -30494.976698753442, 0.728, -0.536, 0.496, 192.0, 0.0, 0.0, 0.0, 0.0, 0.0, 0.0, 0.0, 0.0, 0.0, 1.6635876991122272E9, 0.0, 2022-09-19 16:41:39.112
223.0, -17167.54790157651, -17755.711705173457, -29973.555204100037, -16152.108150971908, 187500.0, 187500.0, -16456.628317431012, -30486.08070446023, 0.728, -0.536, 0.496, 192.0, 0.0, 0.0, 0.0, 0.0, 0.0, 0.0, 0.0, 0.0, 0.0, 1.663587699116244E9, 0.0, 2022-09-19 16:41:39.116
224.0, -17185.518704118575, -17809.355891866195, -29981.333611170485, -16160.691220842746, 187500.0, 187500.0, -16454.326087752117, -30489.768742295357, 0.728, -0.536, 0.496, 192.0, 0.0, 0.0, 0.0, 0.0, 0.0, 0.0, 0.0, 0.0, 0.0, 1.6635876991201894E9, 0.0, 2022-09-19 16:41:39.120
225.0, -17180.98129999415, -17806.718386020468, -29986.27334669511, -16162.76993307709, 187500.0, 187500.0, -16417.624523356502, -30488.047657972296, 0.728, -0.536, 0.496, 192.0, 0.0, 0.0, 0.0, 0.0, 0.0, 0.0, 0.0, 0.0, 0.0, 1.6635876991242485E9, 0.0, 2022-09-19 16:41:39.124
226.0, -17179.5060848601, -17797.62122602716, -29995.348154943964, -16168.804904080023, 187500.0, 187500.0, -16374.865636213499, -30492.339192907715, 0.728, -0.536, 0.496, 192.0, 0.0, 0.0, 0.0, 0.0, 0.0, 0.0, 0.0, 0.0, 0.0, 1.663587699129268E9, 0.0, 2022-09-19 16:41:39.129
227.0, -17197.4098321688, -17827.930191508556, -29990.609585119437, -16168.29081395755, 187500.0, 187500.0, -16387.024985197186, -30489.053486472785, 0.728, -0.536, 0.496, 192.0, 0.0, 0.0, 0.0, 0.0, 0.0, 0.0, 0.0, 0.0, 0.0, 1.66358769913221E9, 0.0, 2022-09-19 16:41:39.132
228.0, -17204.897666561326, -17830.67945607656, -29985.334573427986, -16160.557110376014, 187500.0, 187500.0, -16418.78681406818, -30484.001992225887, 0.728, -0.536, 0.496, 192.0, 0.0, 0.0, 0.0, 0.0, 0.0, 0.0, 0.0, 0.0, 0.0, 1.6635876991372547E9, 0.0, 2022-09-19 16:41:39.137
229.0, -17212.385500953853, -17838.30140093582, -29986.675678095304, -16164.133389488863, 187500.0, 187500.0, -16420.373787924505, -30488.18176843903, 0.728, -0.536, 0.496, 192.0, 0.0, 0.0, 0.0, 0.0, 0.0, 0.0, 0.0, 0.0, 0.0, 1.6635876991402085E9, 0.0, 2022-09-19 16:41:39.140
230.0, -17199.868524058882, -17826.991418241432, -29988.59792811846, -16169.698973858236, 187500.0, 187500.0, -16386.197970652338, -30495.021402242353, 0.724, -0.534, 0.492, 192.0, 22.0, 160.0, 239.0, 80.0, 15.0, 96.0, 0.0, 0.0, 0.0, 1.6635876991452806E9, 0.0, 2022-09-19 16:41:39.145
231.0, -17194.615864111885, -17811.009920955887, -29996.286928211088, -16174.124619260387, 187500.0, 187500.0, -16342.254441053206, -30500.251710444896, 0.724, -0.534, 0.492, 192.0, 0.0, 0.0, 0.0, 0.0, 0.0, 0.0, 0.0, 0.0, 0.0, 1.6635876991492417E9, 0.0, 2022-09-19 16:41:39.149
232.0, -17194.705271089708, -17798.783516738837, -29994.744657843672, -16165.608604622914, 187500.0, 187500.0, -16350.837510924044, -30493.233262685928, 0.724, -0.534, 0.492, 192.0, 0.0, 0.0, 0.0, 0.0, 0.0, 0.0, 0.0, 0.0, 0.0, 1.6635876991542387E9, 0.0, 2022-09-19 16:41:39.154
233.0, -17194.16882922278, -17802.53860980733, -29989.670811852317, -16158.992488264143, 187500.0, 187500.0, -16385.86269448551, -30486.70655330498, 0.724, -0.534, 0.492, 192.0, 0.0, 0.0, 0.0, 0.0, 0.0, 0.0, 0.0, 0.0, 0.0, 1.6635876991582775E9, 0.0, 2022-09-19 16:41:39.158
234.0, -17213.614846898898, -17850.0137150304, -29997.806846834046, -16170.280119214074, 187500.0, 187500.0, -16392.612921311014, -30497.122466221153, 0.724, -0.534, 0.492, 192.0, 0.0, 0.0, 0.0, 0.0, 0.0, 0.0, 0.0, 0.0, 0.0, 1.6635876991613336E9, 0.0, 2022-09-19 16:41:39.161
235.0, -17178.92493950426, -17797.33065334924, -29986.809788562037, -16161.29471794304, 187500.0, 187500.0, -16355.777246448666, -30491.288660918315, 0.724, -0.534, 0.492, 192.0, 0.0, 0.0, 0.0, 0.0, 0.0, 0.0, 0.0, 0.0, 0.0, 1.6635876991643803E9, 0.0, 2022-09-19 16:41:39.164
236.0, -17159.411866594775, -17770.910891403066, -29987.301526940053, -16160.065371997998, 187500.0, 187500.0, -16310.313798226573, -30489.32170740625, 0.724, -0.534, 0.492, 192.0, 0.0, 0.0, 0.0, 0.0, 0.0, 0.0, 0.0, 0.0, 0.0, 1.6635876991682925E9, 0.0, 2022-09-19 16:41:39.168
237.0, -17186.166904707778, -17804.013824941376, -29997.98566078969, -16166.033287767565, 187500.0, 187500.0, -16321.646132665413, -30496.40721039858, 0.724, -0.534, 0.492, 192.0, 0.0, 0.0, 0.0, 0.0, 0.0, 0.0, 0.0, 0.0, 0.0, 1.6635876991723127E9, 0.0, 2022-09-19 16:41:39.172
238.0, -17205.009425283602, -17837.47438639097, -29999.483227668195, -16165.809770323012, 187500.0, 187500.0, -16359.264118583695, -30496.31780342076, 0.724, -0.534, 0.492, 192.0, 0.0, 0.0, 0.0, 0.0, 0.0, 0.0, 0.0, 0.0, 0.0, 1.6635876991763003E9, 0.0, 2022-09-19 16:41:39.176
239.0, -17189.58672160944, -17834.456900889505, -29993.090628753976, -16163.57459587748, 187500.0, 187500.0, -16358.995897650231, -30493.27796617484, 0.724, -0.534, 0.492, 192.0, 0.0, 0.0, 0.0, 0.0, 0.0, 0.0, 0.0, 0.0, 0.0, 1.6635876991803133E9, 0.0, 2022-09-19 16:41:39.180
240.0, -17164.888043986328, -17791.42979281304, -29993.26944270962, -16164.446313911238, 187500.0, 187500.0, -16326.429405978848, -30497.27892843234, 0.724, -0.536, 0.49, 192.0, 22.0, 160.0, 239.0, 64.0, 15.0, 80.0, 0.0, 0.0, 0.0, 1.663587699185317E9, 0.0, 2022-09-19 16:41:39.185
241.0, -17153.77922699204, -17764.920623889044, -29992.21891072022, -16165.027459267076, 187500.0, 187500.0, -16276.294443165594, -30496.98835575442, 0.724, -0.536, 0.49, 192.0, 0.0, 0.0, 0.0, 0.0, 0.0, 0.0, 0.0, 0.0, 0.0, 1.6635876991883452E9, 0.0, 2022-09-19 16:41:39.188
242.0, -17160.708267773185, -17792.122696891154, -29997.203349733754, -16167.732020346168, 187500.0, 187500.0, -16280.675385078835, -30496.921300521055, 0.724, -0.536, 0.49, 192.0, 0.0, 0.0, 0.0, 0.0, 0.0, 0.0, 0.0, 0.0, 0.0, 1.6635876991914084E9, 0.0, 2022-09-19 16:41:39.191
243.0, -17167.79377076552, -17793.352042836195, -29995.146989243865, -16162.14408423234, 187500.0, 187500.0, -16313.934780828331, -30491.26630917386, 0.724, -0.536, 0.49, 192.0, 0.0, 0.0, 0.0, 0.0, 0.0, 0.0, 0.0, 0.0, 0.0, 1.6635876991963365E9, 0.0, 2022-09-19 16:41:39.196
244.0, -17161.57998580694, -17789.75341197889, -29996.823370078015, -16162.792284821546, 187500.0, 187500.0, -16319.36625473097, -30496.518969120858, 0.724, -0.536, 0.49, 192.0, 0.0, 0.0, 0.0, 0.0, 0.0, 0.0, 0.0, 0.0, 0.0, 1.663587699200333E9, 0.0, 2022-09-19 16:41:39.200
245.0, -17168.687840543727, -17850.8630813197, -30003.774762603614, -16177.387973950861, 187500.0, 187500.0, -16293.41587941836, -30509.550036138302, 0.724, -0.536, 0.49, 192.0, 0.0, 0.0, 0.0, 0.0, 0.0, 0.0, 0.0, 0.0, 0.0, 1.6635876992043345E9, 0.0, 2022-09-19 16:41:39.204
246.0, -17177.963814492683, -17881.21675029001, -30008.535684172595, -16187.423907211294, 187500.0, 187500.0, -16242.319791593527, -30514.914454807575, 0.724, -0.536, 0.49, 192.0, 0.0, 0.0, 0.0, 0.0, 0.0, 0.0, 0.0, 0.0, 0.0, 1.6635876992083788E9, 0.0, 2022-09-19 16:41:39.208
247.0, -17185.183427951746, -17830.522993865372, -30010.390878962386, -16178.818485596, 187500.0, 187500.0, -16241.962163682243, -30507.69484134851, 0.724, -0.536, 0.49, 192.0, 0.0, 0.0, 0.0, 0.0, 0.0, 0.0, 0.0, 0.0, 0.0, 1.663587699212372E9, 0.0, 2022-09-19 16:41:39.212
248.0, -17166.58677656493, -17785.886560188123, -30001.85251258046, -16163.708706344212, 187500.0, 187500.0, -16273.768696042145, -30496.697783076503, 0.724, -0.536, 0.49, 192.0, 0.0, 0.0, 0.0, 0.0, 0.0, 0.0, 0.0, 0.0, 0.0, 1.6635876992163556E9, 0.0, 2022-09-19 16:41:39.216
249.0, -17131.20396509218, -17760.919661631546, -29996.71161135574, -16161.585290620958, 187500.0, 187500.0, -16269.7900855291, -30492.45095162999, 0.724, -0.536, 0.49, 192.0, 0.0, 0.0, 0.0, 0.0, 0.0, 0.0, 0.0, 0.0, 0.0, 1.66358769921939E9, 0.0, 2022-09-19 16:41:39.219
250.0, -17132.142738359304, -17784.388993309618, -29996.89042531138, -16167.508502901615, 187500.0, 187500.0, -16241.984515426699, -30494.75318130889, 0.728, -0.532, 0.492, 192.0, 22.0, 192.0, 239.0, 96.0, 15.0, 96.0, 0.0, 0.0, 0.0, 1.6635876992244003E9, 0.0, 2022-09-19 16:41:39.224
251.0, -17132.410959292767, -17812.798060512312, -30003.618300392427, -16173.811694838012, 187500.0, 187500.0, -16195.15761079283, -30498.955309266486, 0.728, -0.532, 0.492, 192.0, 0.0, 0.0, 0.0, 0.0, 0.0, 0.0, 0.0, 0.0, 0.0, 1.663587699229448E9, 0.0, 2022-09-19 16:41:39.229
252.0, -17142.268078597557, -17829.517165364883, -30009.765030117636, -16177.276215228585, 187500.0, 187500.0, -16197.661006171824, -30502.88921629062, 0.728, -0.532, 0.492, 192.0, 0.0, 0.0, 0.0, 0.0, 0.0, 0.0, 0.0, 0.0, 0.0, 1.6635876992323823E9, 0.0, 2022-09-19 16:41:39.232
253.0, -17137.216584350655, -17796.391880082116, -29998.455047423253, -16168.894311057844, 187500.0, 187500.0, -16231.970933910721, -30494.239091186417, 0.728, -0.532, 0.492, 192.0, 0.0, 0.0, 0.0, 0.0, 0.0, 0.0, 0.0, 0.0, 0.0, 1.6635876992364385E9, 0.0, 2022-09-19 16:41:39.236
254.0, -17129.237011580113, -17818.855383259703, -29995.348154943964, -16169.274290713585, 187500.0, 187500.0, -16235.614268256935, -30493.188559197017, 0.728, -0.532, 0.492, 192.0, 0.0, 0.0, 0.0, 0.0, 0.0, 0.0, 0.0, 0.0, 0.0, 1.6635876992393904E9, 0.0, 2022-09-19 16:41:39.239
255.0, -17114.90954338426, -17818.229534414953, -29996.801018333557, -16169.654270369325, 187500.0, 187500.0, -16206.959331865231, -30495.200216197994, 0.728, -0.532, 0.492, 192.0, 0.0, 0.0, 0.0, 0.0, 0.0, 0.0, 0.0, 0.0, 0.0, 1.663587699243409E9, 0.0, 2022-09-19 16:41:39.243
0.0, -17114.082528839415, -17775.649461227593, -30008.021594050122, -16175.15279950533, 187500.0, 187500.0, -16163.14991273283, -30503.783286068832, 0.728, -0.532, 0.492, 192.0, 0.0, 0.0, 0.0, 0.0, 0.0, 0.0, 0.0, 0.0, 0.0, 1.6635876992474408E9, 0.0, 2022-09-19 16:41:39.247
1.0, -17130.511061014065, -17791.452144557494, -30004.422963192817, -16164.714534844701, 187500.0, 187500.0, -16168.000241279631, -30490.104018462185, 0.728, -0.532, 0.492, 192.0, 0.0, 0.0, 0.0, 0.0, 0.0, 0.0, 0.0, 0.0, 0.0, 1.663587699252418E9, 0.0, 2022-09-19 16:41:39.252
2.0, -17136.09899712789, -17818.34129313723, -30002.433657936297, -16163.216967966197, 187500.0, 187500.0, -16207.294608032062, -30485.968945737954, 0.728, -0.532, 0.492, 192.0, 0.0, 0.0, 0.0, 0.0, 0.0, 0.0, 0.0, 0.0, 0.0, 1.6635876992564769E9, 0.0, 2022-09-19 16:41:39.256
3.0, -17148.034828667027, -17841.832976559755, -30005.98758530469, -16168.447276168738, 187500.0, 187500.0, -16216.771747681112, -30487.98060273893, 0.728, -0.532, 0.492, 192.0, 0.0, 0.0, 0.0, 0.0, 0.0, 0.0, 0.0, 0.0, 0.0, 1.663587699260536E9, 0.0, 2022-09-19 16:41:39.260
4.0, -17145.933764688227, -17849.700790608025, -30010.346175473474, -16175.53277916107, 187500.0, 187500.0, -16190.575503179492, -30491.825102785246, 0.73, -0.532, 0.492, 192.0, 22.0, 208.0, 239.0, 96.0, 15.0, 96.0, 0.0, 0.0, 0.0, 1.663587699264685E9, 0.0, 2022-09-19 16:41:39.264
5.0, -17141.575174519443, -17835.283915434353, -30013.1848470193, -16179.846665840945, 187500.0, 187500.0, -16146.028476480065, -30496.18369295403, 0.73, -0.532, 0.492, 192.0, 0.0, 0.0, 0.0, 0.0, 0.0, 0.0, 0.0, 0.0, 0.0, 1.6635876992676146E9, 0.0, 2022-09-19 16:41:39.267
6.0, -17151.52170080205, -17820.86704026068, -30007.41809694983, -16173.00703203762, 187500.0, 187500.0, -16147.302525914018, -30493.814408041766, 0.73, -0.532, 0.492, 192.0, 0.0, 0.0, 0.0, 0.0, 0.0, 0.0, 0.0, 0.0, 0.0, 1.6635876992715893E9, 0.0, 2022-09-19 16:41:39.271
7.0, -17145.53143328803, -17818.184830926042, -30003.528893414605, -16168.380220935373, 187500.0, 187500.0, -16187.669776400302, -30495.73665806492, 0.73, -0.532, 0.492, 192.0, 0.0, 0.0, 0.0, 0.0, 0.0, 0.0, 0.0, 0.0, 0.0, 1.6635876992755613E9, 0.0, 2022-09-19 16:41:39.275
8.0, -17142.49159604211, -17802.248037129408, -30008.46862893923, -16172.180017492774, 187500.0, 187500.0, -16200.477325973194, -30496.854245287686, 0.73, -0.532, 0.492, 192.0, 0.0, 0.0, 0.0, 0.0, 0.0, 0.0, 0.0, 0.0, 0.0, 1.6635876992795644E9, 0.0, 2022-09-19 16:41:39.279
9.0, -17132.947401159694, -17801.66689177357, -30001.561939902538, -16171.800037837034, 187500.0, 187500.0, -16183.0206135536, -30496.94365226551, 0.73, -0.532, 0.492, 192.0, 0.0, 0.0, 0.0, 0.0, 0.0, 0.0, 0.0, 0.0, 0.0, 1.6635876992846143E9, 0.0, 2022-09-19 16:41:39.284
10.0, -17112.584961960907, -17784.746621220904, -30004.89234982638, -16177.455029184226, 187500.0, 187500.0, -16143.346267145429, -30505.86199830318, 0.73, -0.532, 0.492, 192.0, 0.0, 0.0, 0.0, 0.0, 0.0, 0.0, 0.0, 0.0, 0.0, 1.6635876992885401E9, 0.0, 2022-09-19 16:41:39.288
11.0, -17126.018360378548, -17801.644540029116, -30006.524027171617, -16179.623148396391, 187500.0, 187500.0, -16151.348191660429, -30505.79494306981, 0.73, -0.532, 0.492, 192.0, 0.0, 0.0, 0.0, 0.0, 0.0, 0.0, 0.0, 0.0, 0.0, 1.6635876992925596E9, 0.0, 2022-09-19 16:41:39.292
12.0, -17122.687950454707, -17808.573580810258, -29996.286928211088, -16170.883616314366, 187500.0, 187500.0, -16195.001148581643, -30498.754143566388, 0.73, -0.532, 0.492, 192.0, 0.0, 0.0, 0.0, 0.0, 0.0, 0.0, 0.0, 0.0, 0.0, 1.6635876992956283E9, 0.0, 2022-09-19 16:41:39.295
13.0, -17117.167069574247, -17805.869019731166, -29997.963309045233, -16172.850569826434, 187500.0, 187500.0, -16217.107023847942, -30499.8493790447, 0.73, -0.532, 0.492, 192.0, 0.0, 0.0, 0.0, 0.0, 0.0, 0.0, 0.0, 0.0, 0.0, 1.663587699299582E9, 0.0, 2022-09-19 16:41:39.299
14.0, -17114.57426721743, -17806.405461598097, -30001.919567813824, -16176.20333149473, 187500.0, 187500.0, -16202.243113785162, -30502.151608723594, 0.728, -0.53, 0.494, 192.0, 22.0, 192.0, 239.0, 112.0, 15.0, 112.0, 0.0, 0.0, 0.0, 1.6635876993035474E9, 0.0, 2022-09-19 16:41:39.303
15.0, -17112.361444516355, -17807.835973243236, -30010.83791385149, -16182.372412964394, 187500.0, 187500.0, -16163.82046506649, -30509.93001579404, 0.728, -0.53, 0.494, 192.0, 0.0, 0.0, 0.0, 0.0, 0.0, 0.0, 0.0, 0.0, 0.0, 1.6635876993095715E9, 0.0, 2022-09-19 16:41:39.309
16.0, -17112.96494161665, -17803.34327260772, -30004.534721915094, -16176.672718128291, 187500.0, 187500.0, -16165.29568020054, -30501.65987034558, 0.728, -0.53, 0.494, 192.0, 0.0, 0.0, 0.0, 0.0, 0.0, 0.0, 0.0, 0.0, 0.0, 1.6635876993126435E9, 0.0, 2022-09-19 16:41:39.312
17.0, -17118.508174241564, -17819.972970482468, -29995.012878777135, -16163.529892388571, 187500.0, 187500.0, -16205.774689409101, -30490.193425440008, 0.728, -0.53, 0.494, 192.0, 0.0, 0.0, 0.0, 0.0, 0.0, 0.0, 0.0, 0.0, 0.0, 1.6635876993165703E9, 0.0, 2022-09-19 16:41:39.316
18.0, -17139.921145429747, -17871.33727924076, -30003.014803292135, -16171.665927370303, 187500.0, 187500.0, -16223.16434659533, -30495.80371329829, 0.728, -0.53, 0.494, 192.0, 0.0, 0.0, 0.0, 0.0, 0.0, 0.0, 0.0, 0.0, 0.0, 1.663587699320544E9, 0.0, 2022-09-19 16:41:39.320
19.0, -17138.78120646253, -17875.002965331434, -30007.909835327846, -16177.432677439772, 187500.0, 187500.0, -16206.266427787117, -30498.41886739956, 0.728, -0.53, 0.494, 192.0, 0.0, 0.0, 0.0, 0.0, 0.0, 0.0, 0.0, 0.0, 0.0, 1.663587699323568E9, 0.0, 2022-09-19 16:41:39.323
20.0, -17126.711264456662, -17808.99826395491, -30011.88844584089, -16173.923453560288, 187500.0, 187500.0, -16159.886558042355, -30501.548111623302, 0.728, -0.53, 0.494, 192.0, 0.0, 0.0, 0.0, 0.0, 0.0, 0.0, 0.0, 0.0, 0.0, 1.6635876993276248E9, 0.0, 2022-09-19 16:41:39.327
21.0, -17104.04659557898, -17772.65432747058, -30007.03811729409, -16164.088685999954, 187500.0, 187500.0, -16161.227662709674, -30486.639498071614, 0.728, -0.53, 0.494, 192.0, 0.0, 0.0, 0.0, 0.0, 0.0, 0.0, 0.0, 0.0, 0.0, 1.6635876993316276E9, 0.0, 2022-09-19 16:41:39.331
22.0, -17099.10686005436, -17781.863246186167, -30000.824332335513, -16159.90890978681, 187500.0, 187500.0, -16204.478288230694, -30481.5433003358, 0.728, -0.53, 0.494, 192.0, 0.0, 0.0, 0.0, 0.0, 0.0, 0.0, 0.0, 0.0, 0.0, 1.6635876993355691E9, 0.0, 2022-09-19 16:41:39.335
23.0, -17100.559723443952, -17795.654272515094, -30001.718402113725, -16164.826293566979, 187500.0, 187500.0, -16222.985532639686, -30483.353791636684, 0.728, -0.53, 0.494, 192.0, 0.0, 0.0, 0.0, 0.0, 0.0, 0.0, 0.0, 0.0, 0.0, 1.6635876993406456E9, 0.0, 2022-09-19 16:41:39.340
24.0, -17116.20594456267, -17838.748435824924, -30010.27912024011, -16179.265520485107, 187500.0, 187500.0, -16213.039006357076, -30493.32266966375, 0.734, -0.532, 0.484, 192.0, 22.0, 240.0, 239.0, 96.0, 15.0, 32.0, 0.0, 0.0, 0.0, 1.6635876993446438E9, 0.0, 2022-09-19 16:41:39.344
25.0, -17114.19428756169, -17814.586200068738, -30009.69797488427, -16177.723250117691, 187500.0, 187500.0, -16167.732020346168, -30495.468437131458, 0.734, -0.532, 0.484, 192.0, 0.0, 0.0, 0.0, 0.0, 0.0, 0.0, 0.0, 0.0, 0.0, 1.6635876993476543E9, 0.0, 2022-09-19 16:41:39.347
26.0, -17105.745328157584, -17772.47551351494, -30006.054640538056, -16173.565825649004, 187500.0, 187500.0, -16164.982755778165, -30494.775533053344, 0.734, -0.532, 0.484, 192.0, 0.0, 0.0, 0.0, 0.0, 0.0, 0.0, 0.0, 0.0, 0.0, 1.663587699351606E9, 0.0, 2022-09-19 16:41:39.351
27.0, -17103.57720894542, -17769.681545458025, -29999.818503835024, -16166.077991256476, 187500.0, 187500.0, -16208.568657466014, -30489.478169617436, 0.734, -0.532, 0.484, 192.0, 0.0, 0.0, 0.0, 0.0, 0.0, 0.0, 0.0, 0.0, 0.0, 1.663587699355704E9, 0.0, 2022-09-19 16:41:39.355
28.0, -17094.256531507555, -17776.767048450358, -29995.526968899605, -16164.468665655693, 187500.0, 187500.0, -16226.964143152733, -30488.159416694572, 0.734, -0.532, 0.484, 192.0, 0.0, 0.0, 0.0, 0.0, 0.0, 0.0, 0.0, 0.0, 0.0, 1.663587699359696E9, 0.0, 2022-09-19 16:41:39.359
29.0, -17095.99996757507, -17804.70672901949, -30000.04202127958, -16174.035212282564, 187500.0, 187500.0, -16213.910724390833, -30496.74248656541, 0.734, -0.532, 0.484, 192.0, 0.0, 0.0, 0.0, 0.0, 0.0, 0.0, 0.0, 0.0, 0.0, 1.6635876993636441E9, 0.0, 2022-09-19 16:41:39.363
30.0, -17103.19722928968, -17817.737796036934, -30008.535684172595, -16180.673680385791, 187500.0, 187500.0, -16173.789343093556, -30497.524797621347, 0.734, -0.532, 0.484, 192.0, 0.0, 0.0, 0.0, 0.0, 0.0, 0.0, 0.0, 0.0, 0.0, 1.663587699367736E9, 0.0, 2022-09-19 16:41:39.367
31.0, -17111.221505549136, -17819.95061873801, -30014.838876108992, -16184.920511832299, 187500.0, 187500.0, -16174.705764616225, -30499.156474966585, 0.734, -0.532, 0.484, 192.0, 0.0, 0.0, 0.0, 0.0, 0.0, 0.0, 0.0, 0.0, 0.0, 1.6635876993726645E9, 0.0, 2022-09-19 16:41:39.372
32.0, -17118.4411190082, -17812.216915156474, -30011.620224907427, -16184.674642643291, 187500.0, 187500.0, -16217.576410481503, -30500.922262778553, 0.734, -0.532, 0.484, 192.0, 0.0, 0.0, 0.0, 0.0, 0.0, 0.0, 0.0, 0.0, 0.0, 1.6635876993757317E9, 0.0, 2022-09-19 16:41:39.375
33.0, -17103.085470567403, -17826.410272885594, -30007.641614394382, -16181.008956552621, 187500.0, 187500.0, -16237.313000835538, -30503.17978896854, 0.734, -0.532, 0.484, 192.0, 0.0, 0.0, 0.0, 0.0, 0.0, 0.0, 0.0, 0.0, 0.0, 1.6635876993807545E9, 0.0, 2022-09-19 16:41:39.380
34.0, -17090.456734950156, -17835.932116023556, -30008.736849872694, -16180.003128052133, 187500.0, 187500.0, -16221.376207038906, -30504.85616980269, 0.734, -0.532, 0.484, 192.0, 0.0, 0.0, 0.0, 0.0, 0.0, 0.0, 0.0, 0.0, 0.0, 1.6635876993837335E9, 0.0, 2022-09-19 16:41:39.383
35.0, -17086.36636571483, -17813.110984934687, -30018.057527310557, -16183.691165887258, 187500.0, 187500.0, -16181.925378075288, -30505.23614945843, 0.734, -0.532, 0.484, 192.0, 22.0, 240.0, 239.0, 96.0, 15.0, 32.0, 0.0, 0.0, 0.0, 1.6635876993877497E9, 0.0, 2022-09-19 16:41:39.387
36.0, -17096.514057697543, -17787.13825787762, -30019.599797677973, -16183.19942750924, 187500.0, 187500.0, -16180.785439108067, -30502.33042267924, 0.734, -0.532, 0.484, 192.0, 0.0, 0.0, 0.0, 0.0, 0.0, 0.0, 0.0, 0.0, 0.0, 1.6635876993917203E9, 0.0, 2022-09-19 16:41:39.391
37.0, -17121.235087065113, -17797.1518393936, -30013.006033063655, -16177.790305351056, 187500.0, 187500.0, -16226.964143152733, -30494.88729177562, 0.734, -0.532, 0.484, 192.0, 0.0, 0.0, 0.0, 0.0, 0.0, 0.0, 0.0, 0.0, 0.0, 1.6635876993957047E9, 0.0, 2022-09-19 16:41:39.395
38.0, -17110.260380537555, -17799.789345239325, -30007.485152183195, -16174.571654149493, 187500.0, 187500.0, -16251.081675420008, -30491.780399296335, 0.734, -0.532, 0.484, 192.0, 0.0, 0.0, 0.0, 0.0, 0.0, 0.0, 0.0, 0.0, 0.0, 1.663587699400814E9, 0.0, 2022-09-19 16:41:39.400
39.0, -17098.883342609806, -17808.05949068779, -30005.69701262677, -16179.10905827392, 187500.0, 187500.0, -16246.007829428654, -30498.70944007748, 0.734, -0.532, 0.484, 192.0, 0.0, 0.0, 0.0, 0.0, 0.0, 0.0, 0.0, 0.0, 0.0, 1.6635876994037216E9, 0.0, 2022-09-19 16:41:39.403
40.0, -17104.47127872363, -17833.51812762238, -30008.870960339424, -16189.189695023262, 187500.0, 187500.0, -16217.174079081307, -30512.455762917492, 0.734, -0.532, 0.484, 192.0, 0.0, 0.0, 0.0, 0.0, 0.0, 0.0, 0.0, 0.0, 0.0, 1.663587699407718E9, 0.0, 2022-09-19 16:41:39.407
41.0, -17097.832810620406, -17839.418988158584, -30003.2830242256, -16182.841799597956, 187500.0, 187500.0, -16210.133279577885, -30505.884350047632, 0.734, -0.532, 0.484, 192.0, 0.0, 0.0, 0.0, 0.0, 0.0, 0.0, 0.0, 0.0, 0.0, 1.6635876994117105E9, 0.0, 2022-09-19 16:41:39.411
42.0, -17090.30027273897, -17817.491926847928, -29994.521140399116, -16169.9671947917, 187500.0, 187500.0, -16255.753190011168, -30497.725963321445, 0.734, -0.532, 0.484, 192.0, 0.0, 0.0, 0.0, 0.0, 0.0, 0.0, 0.0, 0.0, 0.0, 1.6635876994157677E9, 0.0, 2022-09-19 16:41:39.415
43.0, -17105.72297641313, -17872.745439141447, -29999.282061968097, -16177.499732673137, 187500.0, 187500.0, -16282.843504291, -30503.51506513537, 0.734, -0.532, 0.484, 192.0, 0.0, 0.0, 0.0, 0.0, 0.0, 0.0, 0.0, 0.0, 0.0, 1.6635876994197688E9, 0.0, 2022-09-19 16:41:39.419
44.0, -17082.47716217961, -17777.70582171748, -30002.165437002834, -16174.325784960483, 187500.0, 187500.0, -16265.83382676051, -30505.7502395809, 0.734, -0.532, 0.484, 192.0, 0.0, 0.0, 0.0, 0.0, 0.0, 0.0, 0.0, 0.0, 0.0, 1.6635876994237635E9, 0.0, 2022-09-19 16:41:39.423
45.0, -17078.118572010826, -17759.17622556403, -30004.31120447054, -16179.734907118667, 187500.0, 187500.0, -16227.277067575107, -30510.600568127702, 0.734, -0.536, 0.486, 192.0, 22.0, 240.0, 239.0, 64.0, 15.0, 48.0, 0.0, 0.0, 0.0, 1.6635876994288409E9, 0.0, 2022-09-19 16:41:39.428
46.0, -17096.37994723081, -17784.00901365388, -30007.865131838935, -16178.796133851545, 187500.0, 187500.0, -16220.7280064497, -30517.440201931026, 0.734, -0.536, 0.486, 192.0, 0.0, 0.0, 0.0, 0.0, 0.0, 0.0, 0.0, 0.0, 0.0, 1.6635876994317744E9, 0.0, 2022-09-19 16:41:39.431
47.0, -17102.794897889486, -17796.056603915287, -30004.042983537078, -16174.884578571866, 187500.0, 187500.0, -16264.805646515566, -30513.03690827333, 0.734, -0.536, 0.486, 192.0, 0.0, 0.0, 0.0, 0.0, 0.0, 0.0, 0.0, 0.0, 0.0, 1.6635876994357946E9, 0.0, 2022-09-19 16:41:39.435
48.0, -17090.635548905797, -17795.989548681922, -29994.61054737694, -16170.235415725163, 187500.0, 187500.0, -16282.329414168527, -30502.620995357156, 0.734, -0.536, 0.486, 192.0, 0.0, 0.0, 0.0, 0.0, 0.0, 0.0, 0.0, 0.0, 0.0, 1.663587699439794E9, 0.0, 2022-09-19 16:41:39.439
49.0, -17066.629775360798, -17795.52016204836, -29995.83989332198, -16170.414229680806, 187500.0, 187500.0, -16265.163274426852, -30503.17978896854, 0.734, -0.536, 0.486, 192.0, 0.0, 0.0, 0.0, 0.0, 0.0, 0.0, 0.0, 0.0, 0.0, 1.6635876994437609E9, 0.0, 2022-09-19 16:41:39.443
50.0, -17072.530635896997, -17821.58229608325, -30009.206236506256, -16179.086706529464, 187500.0, 187500.0, -16225.73479720769, -30509.50533264939, 0.734, -0.536, 0.486, 192.0, 0.0, 0.0, 0.0, 0.0, 0.0, 0.0, 0.0, 0.0, 0.0, 1.663587699447824E9, 0.0, 2022-09-19 16:41:39.447
51.0, -17084.041784291483, -17812.798060512312, -30011.84374235198, -16177.566787906504, 187500.0, 187500.0, -16213.374282523906, -30508.723021593458, 0.734, -0.536, 0.486, 192.0, 0.0, 0.0, 0.0, 0.0, 0.0, 0.0, 0.0, 0.0, 0.0, 1.6635876994518387E9, 0.0, 2022-09-19 16:41:39.451
52.0, -17092.177819273213, -17801.353967351195, -30005.808771349046, -16171.621223881391, 187500.0, 187500.0, -16254.434437088305, -30502.12925697914, 0.734, -0.536, 0.486, 192.0, 0.0, 0.0, 0.0, 0.0, 0.0, 0.0, 0.0, 0.0, 0.0, 1.6635876994568565E9, 0.0, 2022-09-19 16:41:39.456
53.0, -17090.613197161343, -17805.220819141963, -30003.171265503323, -16174.124619260387, 187500.0, 187500.0, -16277.74730655519, -30499.08941973322, 0.734, -0.536, 0.486, 192.0, 0.0, 0.0, 0.0, 0.0, 0.0, 0.0, 0.0, 0.0, 0.0, 1.6635876994598088E9, 0.0, 2022-09-19 16:41:39.459
54.0, -17089.22738900511, -17820.464708860483, -30002.970099803224, -16174.303433216028, 187500.0, 187500.0, -16266.593786071991, -30496.854245287686, 0.734, -0.536, 0.486, 192.0, 0.0, 0.0, 0.0, 0.0, 0.0, 0.0, 0.0, 0.0, 0.0, 1.6635876994649215E9, 0.0, 2022-09-19 16:41:39.464
55.0, -17085.80757210345, -17808.752394765903, -30009.563864417538, -16181.59010190846, 187500.0, 187500.0, -16229.579297254002, -30505.079687247242, 0.736, -0.528, 0.494, 192.0, 23.0, 0.0, 239.0, 128.0, 15.0, 112.0, 0.0, 0.0, 0.0, 1.6635876994678147E9, 0.0, 2022-09-19 16:41:39.467
56.0, -17090.009700061048, -17813.781537268347, -30010.927320829313, -16184.384069965372, 187500.0, 187500.0, -16221.35385529445, -30509.32651869375, 0.736, -0.528, 0.494, 192.0, 0.0, 0.0, 0.0, 0.0, 0.0, 0.0, 0.0, 0.0, 0.0, 1.6635876994718716E9, 0.0, 2022-09-19 16:41:39.471
57.0, -17098.72688039862, -17800.86222897318, -30006.0322887936, -16178.550264662537, 187500.0, 187500.0, -16267.957242483764, -30507.672489604058, 0.736, -0.528, 0.494, 192.0, 0.0, 0.0, 0.0, 0.0, 0.0, 0.0, 0.0, 0.0, 0.0, 1.6635876994758754E9, 0.0, 2022-09-19 16:41:39.475
58.0, -17109.3886625038, -17816.597857069715, -30005.36173645994, -16178.282043729074, 187500.0, 187500.0, -16296.589827131014, -30510.55586463879, 0.736, -0.528, 0.494, 192.0, 0.0, 0.0, 0.0, 0.0, 0.0, 0.0, 0.0, 0.0, 0.0, 1.663587699479856E9, 0.0, 2022-09-19 16:41:39.479
59.0, -17085.069964536426, -17797.732984749437, -30002.165437002834, -16176.650366383836, 187500.0, 187500.0, -16288.140867726908, -30508.27598670435, 0.736, -0.528, 0.494, 192.0, 0.0, 0.0, 0.0, 0.0, 0.0, 0.0, 0.0, 0.0, 0.0, 1.6635876994838817E9, 0.0, 2022-09-19 16:41:39.483
60.0, -17077.202150488156, -17824.53272635135, -30004.89234982638, -16179.10905827392, 187500.0, 187500.0, -16254.613251043947, -30506.17492272555, 0.736, -0.528, 0.494, 192.0, 0.0, 0.0, 0.0, 0.0, 0.0, 0.0, 0.0, 0.0, 0.0, 1.6635876994889069E9, 0.0, 2022-09-19 16:41:39.488
61.0, -17093.027185562514, -17828.980723497956, -30015.55413193156, -16185.68047114378, 187500.0, 187500.0, -16246.611326528948, -30513.729812351445, 0.736, -0.528, 0.494, 192.0, 0.0, 0.0, 0.0, 0.0, 0.0, 0.0, 0.0, 0.0, 0.0, 1.6635876994918537E9, 0.0, 2022-09-19 16:41:39.491
62.0, -17090.613197161343, -17780.253920585386, -30002.008974791646, -16169.00606978012, 187500.0, 187500.0, -16287.738536326711, -30498.150646466096, 0.736, -0.528, 0.494, 192.0, 0.0, 0.0, 0.0, 0.0, 0.0, 0.0, 0.0, 0.0, 0.0, 1.6635876994959269E9, 0.0, 2022-09-19 16:41:39.495
63.0, -17088.04274654898, -17781.28210083033, -30000.824332335513, -16165.094514500443, 187500.0, 187500.0, -16318.159260530385, -30494.350849908693, 0.736, -0.528, 0.494, 192.0, 0.0, 0.0, 0.0, 0.0, 0.0, 0.0, 0.0, 0.0, 0.0, 1.6635876994999628E9, 0.0, 2022-09-19 16:41:39.499
64.0, -17090.456734950156, -17796.61539752667, -30005.473495182217, -16165.921529045288, 187500.0, 187500.0, -16318.382777974937, -30494.88729177562, 0.736, -0.528, 0.494, 192.0, 0.0, 0.0, 0.0, 0.0, 0.0, 0.0, 0.0, 0.0, 0.0, 1.6635876995039427E9, 0.0, 2022-09-19 16:41:39.503
65.0, -17062.449999147655, -17779.024574640345, -30005.31703297103, -16166.301508701028, 187500.0, 187500.0, -16282.061193235064, -30494.88729177562, 0.734, -0.532, 0.5, 192.0, 22.0, 240.0, 239.0, 96.0, 15.0, 160.0, 0.0, 0.0, 0.0, 1.6635876995079272E9, 0.0, 2022-09-19 16:41:39.507
66.0, -17067.03210676099, -17790.289853845818, -30006.345213215976, -16171.129485503376, 187500.0, 187500.0, -16272.204073930274, -30500.676393589547, 0.734, -0.532, 0.5, 192.0, 0.0, 0.0, 0.0, 0.0, 0.0, 0.0, 0.0, 0.0, 0.0, 1.6635876995109043E9, 0.0, 2022-09-19 16:41:39.510
67.0, -17078.31973771092, -17803.253865629897, -29997.873902067415, -16161.25001445413, 187500.0, 187500.0, -16316.438176207326, -30490.327535906737, 0.734, -0.532, 0.5, 192.0, 0.0, 0.0, 0.0, 0.0, 0.0, 0.0, 0.0, 0.0, 0.0, 1.6635876995149374E9, 0.0, 2022-09-19 16:41:39.514
68.0, -17081.85131333486, -17817.000188469912, -29994.901120054856, -16155.43856089575, 187500.0, 187500.0, -16347.32828704456, -30484.069047459252, 0.734, -0.532, 0.5, 192.0, 0.0, 0.0, 0.0, 0.0, 0.0, 0.0, 0.0, 0.0, 0.0, 1.663587699518889E9, 0.0, 2022-09-19 16:41:39.518
69.0, -17074.944624298172, -17797.37535683815, -29992.621242120415, -16151.906985271811, 187500.0, 187500.0, -16339.393417762927, -30482.347963136195, 0.734, -0.532, 0.5, 192.0, 0.0, 0.0, 0.0, 0.0, 0.0, 0.0, 0.0, 0.0, 0.0, 1.663587699524016E9, 0.0, 2022-09-19 16:41:39.524
70.0, -17066.629775360798, -17807.2548278874, -29996.421038677818, -16156.802017307524, 187500.0, 187500.0, -16302.758908600677, -30486.93007074953, 0.734, -0.532, 0.5, 192.0, 0.0, 0.0, 0.0, 0.0, 0.0, 0.0, 0.0, 0.0, 0.0, 1.6635876995279632E9, 0.0, 2022-09-19 16:41:39.527
71.0, -17084.041784291483, -17829.38305489815, -30003.618300392427, -16164.222796466685, 187500.0, 187500.0, -16290.89013229491, -30492.830931285735, 0.734, -0.532, 0.5, 192.0, 0.0, 0.0, 0.0, 0.0, 0.0, 0.0, 0.0, 0.0, 0.0, 1.6635876995319383E9, 0.0, 2022-09-19 16:41:39.531
72.0, -17087.103973281857, -17800.23638012843, -29997.717439856227, -16160.668869098292, 187500.0, 187500.0, -16331.972638603764, -30488.762913794868, 0.734, -0.532, 0.5, 192.0, 0.0, 0.0, 0.0, 0.0, 0.0, 0.0, 0.0, 0.0, 0.0, 1.6635876995359452E9, 0.0, 2022-09-19 16:41:39.535
73.0, -17069.423743417712, -17760.092647086698, -29988.910852540834, -16157.33845917445, 187500.0, 187500.0, -16356.559557504603, -30482.5938323252, 0.734, -0.532, 0.5, 192.0, 0.0, 0.0, 0.0, 0.0, 0.0, 0.0, 0.0, 0.0, 0.0, 1.6635876995399454E9, 0.0, 2022-09-19 16:41:39.539
74.0, -17055.163330455223, -17765.725286689438, -29991.101323497456, -16158.523101630582, 187500.0, 187500.0, -16346.300106799616, -30480.068085201754, 0.734, -0.532, 0.5, 192.0, 0.0, 0.0, 0.0, 0.0, 0.0, 0.0, 0.0, 0.0, 0.0, 1.6635876995449853E9, 0.0, 2022-09-19 16:41:39.544
75.0, -17064.126379981804, -17806.941903465024, -29999.41617243483, -16169.520159902593, 187500.0, 187500.0, -16310.671426137857, -30490.17107369555, 0.736, -0.538, 0.494, 192.0, 23.0, 0.0, 239.0, 48.0, 15.0, 112.0, 0.0, 0.0, 0.0, 1.6635876995480046E9, 0.0, 2022-09-19 16:41:39.548
76.0, -17082.90184532426, -17814.787365768836, -30010.435582451297, -16176.896235572844, 187500.0, 187500.0, -16296.075737008541, -30500.050544744798, 0.736, -0.538, 0.494, 192.0, 0.0, 0.0, 0.0, 0.0, 0.0, 0.0, 0.0, 0.0, 0.0, 1.6635876995530276E9, 0.0, 2022-09-19 16:41:39.553
77.0, -17094.681214652206, -17807.277179631852, -30009.496809184173, -16170.637747125358, 187500.0, 187500.0, -16337.359409017494, -30498.284756932826, 0.736, -0.538, 0.494, 192.0, 0.0, 0.0, 0.0, 0.0, 0.0, 0.0, 0.0, 0.0, 0.0, 1.6635876995560253E9, 0.0, 2022-09-19 16:41:39.556
78.0, -17085.852275592362, -17794.804906225792, -29995.21404447723, -16165.29568020054, 187500.0, 187500.0, -16359.219415094783, -30491.445123129502, 0.736, -0.538, 0.494, 192.0, 0.0, 0.0, 0.0, 0.0, 0.0, 0.0, 0.0, 0.0, 0.0, 1.6635876995599947E9, 0.0, 2022-09-19 16:41:39.559
79.0, -17064.57341487091, -17781.37150780815, -29995.79518983307, -16166.882654056866, 187500.0, 187500.0, -16350.278717312662, -30493.814408041766, 0.736, -0.538, 0.494, 192.0, 0.0, 0.0, 0.0, 0.0, 0.0, 0.0, 0.0, 0.0, 0.0, 1.6635876995640588E9, 0.0, 2022-09-19 16:41:39.564
80.0, -17052.972859498605, -17777.772876950847, -30005.51819867113, -16174.504598916126, 187500.0, 187500.0, -16309.576190659547, -30500.207006955985, 0.736, -0.538, 0.494, 192.0, 0.0, 0.0, 0.0, 0.0, 0.0, 0.0, 0.0, 0.0, 0.0, 1.6635876995670443E9, 0.0, 2022-09-19 16:41:39.567
81.0, -17072.150656241258, -17832.28878167734, -30016.872884854423, -16187.043927555553, 187500.0, 187500.0, -16288.632606104924, -30510.600568127702, 0.736, -0.538, 0.494, 192.0, 0.0, 0.0, 0.0, 0.0, 0.0, 0.0, 0.0, 0.0, 0.0, 1.6635876995711224E9, 0.0, 2022-09-19 16:41:39.571
82.0, -17082.030127290505, -17825.09151996273, -30013.31895748603, -16186.507485688626, 187500.0, 187500.0, -16324.976542589253, -30506.264329703372, 0.736, -0.538, 0.494, 192.0, 0.0, 0.0, 0.0, 0.0, 0.0, 0.0, 0.0, 0.0, 0.0, 1.6635876995750175E9, 0.0, 2022-09-19 16:41:39.575
83.0, -17074.60934813134, -17780.0974583742, -30007.97689056121, -16180.405459452328, 187500.0, 187500.0, -16351.016324879685, -30492.51800686336, 0.736, -0.538, 0.494, 192.0, 0.0, 0.0, 0.0, 0.0, 0.0, 0.0, 0.0, 0.0, 0.0, 1.6635876995800407E9, 0.0, 2022-09-19 16:41:39.580
84.0, -17070.273109707014, -17790.51337129037, -30008.088649283487, -16178.818485596, 187500.0, 187500.0, -16343.573193976068, -30492.562710352267, 0.736, -0.538, 0.494, 192.0, 0.0, 0.0, 0.0, 0.0, 0.0, 0.0, 0.0, 0.0, 0.0, 1.6635876995840878E9, 0.0, 2022-09-19 16:41:39.584
85.0, -17060.28187993549, -17798.694109761014, -30011.70963188525, -16178.326747217983, 187500.0, 187500.0, -16300.099051010497, -30494.842588286712, 0.738, -0.538, 0.492, 192.0, 23.0, 16.0, 239.0, 48.0, 15.0, 96.0, 0.0, 0.0, 0.0, 1.6635876995880756E9, 0.0, 2022-09-19 16:41:39.588
86.0, -17068.88730155078, -17806.271351131363, -30012.201370263265, -16182.707689131224, 187500.0, 187500.0, -16274.014565231153, -30497.7483150659, 0.738, -0.538, 0.492, 192.0, 0.0, 0.0, 0.0, 0.0, 0.0, 0.0, 0.0, 0.0, 0.0, 1.6635876995920181E9, 0.0, 2022-09-19 16:41:39.592
87.0, -17076.50924641004, -17805.75726100889, -30001.137256757887, -16180.181942007774, 187500.0, 187500.0, -16312.79484186111, -30492.741524307912, 0.738, -0.538, 0.492, 192.0, 0.0, 0.0, 0.0, 0.0, 0.0, 0.0, 0.0, 0.0, 0.0, 1.6635876995950732E9, 0.0, 2022-09-19 16:41:39.595
88.0, -17075.883397565292, -17800.728118506446, -29994.521140399116, -16176.672718128291, 187500.0, 187500.0, -16340.935688130343, -30486.393628882604, 0.738, -0.538, 0.492, 192.0, 0.0, 0.0, 0.0, 0.0, 0.0, 0.0, 0.0, 0.0, 0.0, 1.6635876995990715E9, 0.0, 2022-09-19 16:41:39.599
89.0, -17076.866874321327, -17809.89233373312, -30008.379221961408, -16189.659081656824, 187500.0, 187500.0, -16338.231127051251, -30500.98931801192, 0.738, -0.538, 0.492, 192.0, 0.0, 0.0, 0.0, 0.0, 0.0, 0.0, 0.0, 0.0, 0.0, 1.6635876996031156E9, 0.0, 2022-09-19 16:41:39.603
90.0, -17058.270222934512, -17813.468612845973, -30003.685355625792, -16186.10515428843, 187500.0, 187500.0, -16293.393527673905, -30501.212835456474, 0.738, -0.538, 0.492, 192.0, 0.0, 0.0, 0.0, 0.0, 0.0, 0.0, 0.0, 0.0, 0.0, 1.6635876996071222E9, 0.0, 2022-09-19 16:41:39.607
91.0, -17050.022429230503, -17804.684377275036, -30000.7796288466, -16182.573578664493, 187500.0, 187500.0, -16260.894091235888, -30496.116637720665, 0.738, -0.538, 0.492, 192.0, 0.0, 0.0, 0.0, 0.0, 0.0, 0.0, 0.0, 0.0, 0.0, 1.6635876996121156E9, 0.0, 2022-09-19 16:41:39.612
92.0, -17048.502510607545, -17796.32482484875, -29992.733000842694, -16174.728116360679, 187500.0, 187500.0, -16294.8463910635, -30492.07097197425, 0.738, -0.538, 0.492, 192.0, 0.0, 0.0, 0.0, 0.0, 0.0, 0.0, 0.0, 0.0, 0.0, 1.6635876996160986E9, 0.0, 2022-09-19 16:41:39.616
93.0, -17039.09242619186, -17798.738813249925, -29990.92250954181, -16170.816561081001, 187500.0, 187500.0, -16322.89783035491, -30490.729867306934, 0.738, -0.538, 0.492, 192.0, 0.0, 0.0, 0.0, 0.0, 0.0, 0.0, 0.0, 0.0, 0.0, 1.663587699620129E9, 0.0, 2022-09-19 16:41:39.620
94.0, -17051.40823738673, -17816.03906345833, -29997.628032878405, -16174.549302405037, 187500.0, 187500.0, -16314.89590583991, -30492.160378952074, 0.738, -0.538, 0.492, 192.0, 0.0, 0.0, 0.0, 0.0, 0.0, 0.0, 0.0, 0.0, 0.0, 1.6635876996231203E9, 0.0, 2022-09-19 16:41:39.623
95.0, -17039.427702358687, -17800.169324895065, -30000.37729744641, -16181.031308297075, 187500.0, 187500.0, -16274.148675697885, -30497.860073788175, 0.734, -0.536, 0.494, 192.0, 22.0, 240.0, 239.0, 64.0, 15.0, 112.0, 0.0, 0.0, 0.0, 1.6635876996271188E9, 0.0, 2022-09-19 16:41:39.627
96.0, -17020.093443404847, -17793.016766669367, -29996.08576251099, -16177.879712328877, 187500.0, 187500.0, -16245.113759650441, -30497.010707498874, 0.734, -0.536, 0.494, 192.0, 0.0, 0.0, 0.0, 0.0, 0.0, 0.0, 0.0, 0.0, 0.0, 1.663587699631281E9, 0.0, 2022-09-19 16:41:39.631
97.0, -17026.016655685504, -17788.32290033375, -29995.728134599703, -16178.103229773431, 187500.0, 187500.0, -16281.882379279421, -30493.836759786223, 0.734, -0.536, 0.494, 192.0, 0.0, 0.0, 0.0, 0.0, 0.0, 0.0, 0.0, 0.0, 0.0, 1.6635876996352224E9, 0.0, 2022-09-19 16:41:39.635
98.0, -17038.4218738582, -17772.296699559298, -29999.97496604621, -16183.937035076266, 187500.0, 187500.0, -16314.784147117633, -30491.55688185178, 0.734, -0.536, 0.494, 192.0, 0.0, 0.0, 0.0, 0.0, 0.0, 0.0, 0.0, 0.0, 0.0, 1.6635876996401012E9, 0.0, 2022-09-19 16:41:39.640
99.0, -17038.84655700285, -17782.913778175567, -29997.963309045233, -16182.685337386769, 187500.0, 187500.0, -16310.604370904492, -30487.26534691636, 0.734, -0.536, 0.494, 192.0, 0.0, 0.0, 0.0, 0.0, 0.0, 0.0, 0.0, 0.0, 0.0, 1.6635876996441064E9, 0.0, 2022-09-19 16:41:39.644
100.0, -17031.962219710615, -17783.271406086853, -29994.968175288224, -16179.399630951839, 187500.0, 187500.0, -16271.824094274532, -30484.09139920371, 0.734, -0.536, 0.494, 192.0, 0.0, 0.0, 0.0, 0.0, 0.0, 0.0, 0.0, 0.0, 0.0, 1.6635876996471927E9, 0.0, 2022-09-19 16:41:39.647
101.0, -17027.089539419358, -17773.973080393444, -29994.07410551001, -16180.561921663515, 187500.0, 187500.0, -16239.63758225889, -30484.069047459252, 0.734, -0.536, 0.494, 192.0, 0.0, 0.0, 0.0, 0.0, 0.0, 0.0, 0.0, 0.0, 0.0, 1.663587699651242E9, 0.0, 2022-09-19 16:41:39.651
102.0, -17036.70078953514, -17804.81848774177, -29991.950689786758, -16179.712555374213, 187500.0, 187500.0, -16271.377059385428, -30483.97964048143, 0.734, -0.536, 0.494, 192.0, 0.0, 0.0, 0.0, 0.0, 0.0, 0.0, 0.0, 0.0, 0.0, 1.6635876996551692E9, 0.0, 2022-09-19 16:41:39.655
103.0, -17047.921365251706, -17807.99243545442, -29990.810750819535, -16179.667851885302, 187500.0, 187500.0, -16302.691853367312, -30489.724038806446, 0.734, -0.536, 0.494, 192.0, 0.0, 0.0, 0.0, 0.0, 0.0, 0.0, 0.0, 0.0, 0.0, 1.6635876996591392E9, 0.0, 2022-09-19 16:41:39.659
104.0, -17044.3227343944, -17816.28493264734, -29998.253881723154, -16184.54053217656, 187500.0, 187500.0, -16297.41684167586, -30494.12733246414, 0.734, -0.536, 0.494, 192.0, 0.0, 0.0, 0.0, 0.0, 0.0, 0.0, 0.0, 0.0, 0.0, 1.66358769966316E9, 0.0, 2022-09-19 16:41:39.663
105.0, -17043.339257638367, -17819.280066404353, -30003.908873070348, -16188.385032222872, 187500.0, 187500.0, -16262.436361603304, -30497.770666810356, 0.734, -0.534, 0.496, 192.0, 22.0, 240.0, 239.0, 80.0, 15.0, 128.0, 0.0, 0.0, 0.0, 1.6635876996671917E9, 0.0, 2022-09-19 16:41:39.667
106.0, -17041.014676215014, -17781.237397341418, -30005.89817832687, -16188.183866522773, 187500.0, 187500.0, -16230.249849587663, -30499.379992411137, 0.734, -0.534, 0.496, 192.0, 0.0, 0.0, 0.0, 0.0, 0.0, 0.0, 0.0, 0.0, 0.0, 1.6635876996722572E9, 0.0, 2022-09-19 16:41:39.672
107.0, -17045.90970825073, -17778.33167056223, -30002.65717538085, -16184.87580834339, 187500.0, 187500.0, -16261.855216247466, -30493.300317919293, 0.734, -0.534, 0.496, 192.0, 0.0, 0.0, 0.0, 0.0, 0.0, 0.0, 0.0, 0.0, 0.0, 1.663587699675215E9, 0.0, 2022-09-19 16:41:39.675
108.0, -17045.373266383802, -17768.496903001895, -29992.576538631507, -16177.432677439772, 187500.0, 187500.0, -16290.376042172438, -30486.147759693595, 0.734, -0.534, 0.496, 192.0, 0.0, 0.0, 0.0, 0.0, 0.0, 0.0, 0.0, 0.0, 0.0, 1.6635876996792471E9, 0.0, 2022-09-19 16:41:39.679
109.0, -17043.80864427193, -17797.12948764914, -29992.55418688705, -16185.948692077243, 187500.0, 187500.0, -16291.538332884114, -30495.714306320468, 0.734, -0.534, 0.496, 192.0, 0.0, 0.0, 0.0, 0.0, 0.0, 0.0, 0.0, 0.0, 0.0, 1.663587699683187E9, 0.0, 2022-09-19 16:41:39.683
110.0, -17031.582240054875, -17802.650368529605, -29994.565843888027, -16185.546360677048, 187500.0, 187500.0, -16254.054457432565, -30498.307108677283, 0.734, -0.534, 0.496, 192.0, 0.0, 0.0, 0.0, 0.0, 0.0, 0.0, 0.0, 0.0, 0.0, 1.663587699687306E9, 0.0, 2022-09-19 16:41:39.687
111.0, -17027.80479524193, -17767.31226054576, -29996.801018333557, -16180.181942007774, 187500.0, 187500.0, -16217.397596525861, -30493.45678013048, 0.734, -0.534, 0.496, 192.0, 0.0, 0.0, 0.0, 0.0, 0.0, 0.0, 0.0, 0.0, 0.0, 1.6635876996912389E9, 0.0, 2022-09-19 16:41:39.691
112.0, -17032.096330177348, -17763.691277944003, -29988.70968684074, -16169.386049435861, 187500.0, 187500.0, -16245.69490500628, -30481.342134635706, 0.734, -0.534, 0.496, 192.0, 0.0, 0.0, 0.0, 0.0, 0.0, 0.0, 0.0, 0.0, 0.0, 1.663587699695233E9, 0.0, 2022-09-19 16:41:39.695
113.0, -17036.141995923757, -17759.600908708682, -29987.88267229589, -16166.212101723208, 187500.0, 187500.0, -16275.847408276488, -30480.73863753541, 0.734, -0.534, 0.496, 192.0, 0.0, 0.0, 0.0, 0.0, 0.0, 0.0, 0.0, 0.0, 0.0, 1.6635876997002988E9, 0.0, 2022-09-19 16:41:39.700
114.0, -17022.194507383647, -17769.27921405783, -29988.50852114064, -16172.895273315344, 187500.0, 187500.0, -16268.516036095149, -30483.532605592325, 0.734, -0.534, 0.496, 192.0, 0.0, 0.0, 0.0, 0.0, 0.0, 0.0, 0.0, 0.0, 0.0, 1.6635876997032623E9, 0.0, 2022-09-19 16:41:39.703
115.0, -17019.624056771285, -17797.57652253825, -29993.671774109815, -16182.8194478535, 187500.0, 187500.0, -16228.595820497969, -30487.399457383093, 0.736, -0.532, 0.492, 192.0, 23.0, 0.0, 239.0, 96.0, 15.0, 96.0, 0.0, 0.0, 0.0, 1.6635876997073865E9, 0.0, 2022-09-19 16:41:39.707
116.0, -17030.174080154193, -17803.432679585538, -29999.12559975691, -16188.921474089799, 187500.0, 187500.0, -16192.25188401364, -30494.864940031166, 0.736, -0.532, 0.492, 192.0, 0.0, 0.0, 0.0, 0.0, 0.0, 0.0, 0.0, 0.0, 0.0, 1.663587699711302E9, 0.0, 2022-09-19 16:41:39.711
117.0, -17044.345086138856, -17787.562941022272, -29998.41034393434, -16184.428773454283, 187500.0, 187500.0, -16214.670683702314, -30490.819274284757, 0.736, -0.532, 0.492, 192.0, 0.0, 0.0, 0.0, 0.0, 0.0, 0.0, 0.0, 0.0, 0.0, 1.6635876997162735E9, 0.0, 2022-09-19 16:41:39.716
118.0, -17040.724103537097, -17783.584330509228, -29990.430771163796, -16178.997299551644, 187500.0, 187500.0, -16244.152634638864, -30482.482073602925, 0.736, -0.532, 0.492, 192.0, 0.0, 0.0, 0.0, 0.0, 0.0, 0.0, 0.0, 0.0, 0.0, 1.663587699720261E9, 0.0, 2022-09-19 16:41:39.720
119.0, -17031.157556910224, -17788.613473011672, -29988.55322462955, -16177.67854662878, 187500.0, 187500.0, -16233.02146590012, -30480.626878813135, 0.736, -0.532, 0.492, 192.0, 0.0, 0.0, 0.0, 0.0, 0.0, 0.0, 0.0, 0.0, 0.0, 1.6635876997233784E9, 0.0, 2022-09-19 16:41:39.723
120.0, -17030.352894109834, -17787.205313110986, -29991.883634553393, -16174.973985549688, 187500.0, 187500.0, -16189.837895612467, -30479.75516077938, 0.736, -0.532, 0.492, 192.0, 0.0, 0.0, 0.0, 0.0, 0.0, 0.0, 0.0, 0.0, 0.0, 1.6635876997293124E9, 0.0, 2022-09-19 16:41:39.729
121.0, -17037.684266291173, -17799.85640047269, -29997.918605556322, -16177.119753017398, 187500.0, 187500.0, -16147.883671269856, -30484.44902711499, 0.736, -0.532, 0.492, 192.0, 0.0, 0.0, 0.0, 0.0, 0.0, 0.0, 0.0, 0.0, 0.0, 1.6635876997323244E9, 0.0, 2022-09-19 16:41:39.732
122.0, -17035.98553371257, -17815.726139035956, -29994.945823543767, -16170.838912825457, 187500.0, 187500.0, -16169.453104669226, -30478.25759390087, 0.736, -0.532, 0.492, 192.0, 0.0, 0.0, 0.0, 0.0, 0.0, 0.0, 0.0, 0.0, 0.0, 1.6635876997363167E9, 0.0, 2022-09-19 16:41:39.736
123.0, -17036.007885457027, -17821.470537360972, -29990.386067674885, -16169.453104669226, 187500.0, 187500.0, -16197.884523616378, -30474.860128743665, 0.736, -0.532, 0.492, 192.0, 0.0, 0.0, 0.0, 0.0, 0.0, 0.0, 0.0, 0.0, 0.0, 1.6635876997393322E9, 0.0, 2022-09-19 16:41:39.739
124.0, -17039.628868058786, -17806.56192380928, -29993.582367131996, -16173.990508793655, 187500.0, 187500.0, -16192.58716018047, -30478.347000878694, 0.736, -0.532, 0.492, 192.0, 0.0, 0.0, 0.0, 0.0, 0.0, 0.0, 0.0, 0.0, 0.0, 1.6635876997433403E9, 0.0, 2022-09-19 16:41:39.743
125.0, -17034.912649978716, -17773.235472826418, -29992.487131653685, -16170.458933169715, 187500.0, 187500.0, -16151.124674215875, -30481.140968935608, 0.728, -0.536, 0.496, 192.0, 22.0, 192.0, 239.0, 64.0, 15.0, 128.0, 0.0, 0.0, 0.0, 1.6635876997473705E9, 0.0, 2022-09-19 16:41:39.747
126.0, -17045.149748939246, -17775.627109483135, -30005.227625993208, -16179.176113507285, 187500.0, 187500.0, -16113.461984808682, -30490.66281207357, 0.728, -0.536, 0.496, 192.0, 0.0, 0.0, 0.0, 0.0, 0.0, 0.0, 0.0, 0.0, 0.0, 1.6635876997513142E9, 0.0, 2022-09-19 16:41:39.751
127.0, -17049.821263530404, -17796.637749271125, -29998.879730567904, -16178.125581517887, 187500.0, 187500.0, -16132.684485040247, -30487.622974827646, 0.728, -0.536, 0.496, 192.0, 0.0, 0.0, 0.0, 0.0, 0.0, 0.0, 0.0, 0.0, 0.0, 1.6635876997563484E9, 0.0, 2022-09-19 16:41:39.756
128.0, -17044.523900094497, -17773.07901061523, -29992.285965953586, -16170.190712236252, 187500.0, 187500.0, -16163.306374944017, -30485.70072480449, 0.728, -0.536, 0.496, 192.0, 0.0, 0.0, 0.0, 0.0, 0.0, 0.0, 0.0, 0.0, 0.0, 1.6635876997593672E9, 0.0, 2022-09-19 16:41:39.759
129.0, -17049.03895247447, -17785.41717355456, -29996.197521233265, -16168.894311057844, 187500.0, 187500.0, -16161.00414526512, -30486.617146327157, 0.728, -0.536, 0.496, 192.0, 0.0, 0.0, 0.0, 0.0, 0.0, 0.0, 0.0, 0.0, 0.0, 1.6635876997625203E9, 0.0, 2022-09-19 16:41:39.762
130.0, -17032.677475533186, -17798.090612660722, -29998.54445440107, -16171.53181690357, 187500.0, 187500.0, -16124.257877380596, -30488.6958585615, 0.728, -0.536, 0.496, 192.0, 0.0, 0.0, 0.0, 0.0, 0.0, 0.0, 0.0, 0.0, 0.0, 1.6635876997673566E9, 0.0, 2022-09-19 16:41:39.767
131.0, -17019.109966648815, -17790.066336401265, -30003.66300388134, -16174.862226827412, 187500.0, 187500.0, -16087.42220251825, -30490.729867306934, 0.728, -0.536, 0.496, 192.0, 0.0, 0.0, 0.0, 0.0, 0.0, 0.0, 0.0, 0.0, 0.0, 1.6635876997714028E9, 0.0, 2022-09-19 16:41:39.771
132.0, -17033.95152496714, -17785.551284021294, -30001.22666373571, -16172.805866337523, 187500.0, 187500.0, -16108.99163591762, -30487.46651261646, 0.728, -0.536, 0.496, 192.0, 0.0, 0.0, 0.0, 0.0, 0.0, 0.0, 0.0, 0.0, 0.0, 1.6635876997754083E9, 0.0, 2022-09-19 16:41:39.775
133.0, -17043.18279542718, -17771.447333269996, -29994.387029932386, -16167.82142732399, 187500.0, 187500.0, -16143.748598545624, -30484.627841070636, 0.728, -0.536, 0.496, 192.0, 0.0, 0.0, 0.0, 0.0, 0.0, 0.0, 0.0, 0.0, 0.0, 1.6635876997793756E9, 0.0, 2022-09-19 16:41:39.779
134.0, -17042.311077393424, -17783.98666190942, -29993.35884968744, -16167.82142732399, 187500.0, 187500.0, -16145.961421246699, -30485.164282937563, 0.728, -0.536, 0.496, 192.0, 0.0, 0.0, 0.0, 0.0, 0.0, 0.0, 0.0, 0.0, 0.0, 1.6635876997823899E9, 0.0, 2022-09-19 16:41:39.782
135.0, -17045.03799021697, -17792.56973178026, -30000.399649190862, -16173.476418671182, 187500.0, 187500.0, -16117.775871488557, -30488.56174809477, 0.728, -0.536, 0.496, 192.0, 0.0, 0.0, 0.0, 0.0, 0.0, 0.0, 0.0, 0.0, 0.0, 1.663587699788389E9, 0.0, 2022-09-19 16:41:39.788
136.0, -17025.524917307488, -17768.832179168723, -30002.165437002834, -16170.548340147538, 187500.0, 187500.0, -16077.587434957915, -30487.578271338734, 0.728, -0.534, 0.488, 192.0, 22.0, 192.0, 239.0, 80.0, 15.0, 64.0, 0.0, 0.0, 0.0, 1.6635876997914217E9, 0.0, 2022-09-19 16:41:39.791
137.0, -17031.828109243885, -17787.29472008881, -30005.026460293113, -16169.766029091601, 187500.0, 187500.0, -16101.079118380443, -30491.89215801861, 0.728, -0.534, 0.488, 192.0, 0.0, 0.0, 0.0, 0.0, 0.0, 0.0, 0.0, 0.0, 0.0, 1.663587699795415E9, 0.0, 2022-09-19 16:41:39.795
138.0, -17046.602612328843, -17808.305359876795, -30007.708669627747, -16174.370488449395, 187500.0, 187500.0, -16138.652400809813, -30497.860073788175, 0.728, -0.534, 0.488, 192.0, 0.0, 0.0, 0.0, 0.0, 0.0, 0.0, 0.0, 0.0, 0.0, 1.6635876997994487E9, 0.0, 2022-09-19 16:41:39.799
139.0, -17047.76490304052, -17813.155688423598, -30007.283986483097, -16171.82238958149, 187500.0, 187500.0, -16134.09264494093, -30490.506349862382, 0.728, -0.534, 0.488, 192.0, 0.0, 0.0, 0.0, 0.0, 0.0, 0.0, 0.0, 0.0, 0.0, 1.6635876998034184E9, 0.0, 2022-09-19 16:41:39.803
140.0, -17046.647315817754, -17859.356744212717, -30009.072126039522, -16180.785439108067, 187500.0, 187500.0, -16099.670958479759, -30497.770666810356, 0.728, -0.534, 0.488, 192.0, 0.0, 0.0, 0.0, 0.0, 0.0, 0.0, 0.0, 0.0, 0.0, 1.663587699809427E9, 0.0, 2022-09-19 16:41:39.809
141.0, -17042.75811228253, -17826.074996718766, -30005.51819867113, -16177.007994295122, 187500.0, 187500.0, -16056.040353302998, -30495.244919686906, 0.728, -0.534, 0.488, 192.0, 0.0, 0.0, 0.0, 0.0, 0.0, 0.0, 0.0, 0.0, 0.0, 1.6635876998124397E9, 0.0, 2022-09-19 16:41:39.812
142.0, -17032.18573715517, -17747.0392283248, -29998.18682648979, -16164.155741233319, 187500.0, 187500.0, -16069.98784184311, -30486.594794582703, 0.728, -0.534, 0.488, 192.0, 0.0, 0.0, 0.0, 0.0, 0.0, 0.0, 0.0, 0.0, 0.0, 1.6635876998154745E9, 0.0, 2022-09-19 16:41:39.815
143.0, -17028.117719664304, -17748.201519036476, -29993.1800357318, -16162.635822610358, 187500.0, 187500.0, -16105.370653315862, -30482.41501836956, 0.728, -0.534, 0.488, 192.0, 0.0, 0.0, 0.0, 0.0, 0.0, 0.0, 0.0, 0.0, 0.0, 1.6635876998185997E9, 0.0, 2022-09-19 16:41:39.818
144.0, -17020.629885271774, -17781.50561827488, -29994.27527121011, -16167.776723835079, 187500.0, 187500.0, -16105.795336460513, -30486.12540794914, 0.728, -0.534, 0.488, 192.0, 0.0, 0.0, 0.0, 0.0, 0.0, 0.0, 0.0, 0.0, 0.0, 1.6635876998225467E9, 0.0, 2022-09-19 16:41:39.822
145.0, -17017.053606158926, -17810.89816223361, -29995.392858432875, -16170.615395380903, 187500.0, 187500.0, -16073.407658744773, -30491.623937085147, 0.728, -0.534, 0.488, 192.0, 0.0, 0.0, 0.0, 0.0, 0.0, 0.0, 0.0, 0.0, 0.0, 1.6635876998275423E9, 0.0, 2022-09-19 16:41:39.827
146.0, -17014.259638102012, -17787.250016599897, -30000.667870124325, -16172.872921570888, 187500.0, 187500.0, -16029.687646590191, -30496.60837609868, 0.734, -0.53, 0.488, 192.0, 22.0, 240.0, 239.0, 112.0, 15.0, 64.0, 0.0, 0.0, 0.0, 1.6635876998315785E9, 0.0, 2022-09-19 16:41:39.831
147.0, -17021.725120750085, -17760.070295342244, -29994.096457254465, -16163.306374944017, 187500.0, 187500.0, -16042.115216507342, -30491.869806274153, 0.734, -0.53, 0.488, 192.0, 0.0, 0.0, 0.0, 0.0, 0.0, 0.0, 0.0, 0.0, 0.0, 1.6635876998355508E9, 0.0, 2022-09-19 16:41:39.835
148.0, -17035.18087091218, -17795.609569026183, -29990.94486128627, -16162.568767376992, 187500.0, 187500.0, -16079.464981492161, -30490.23812892892, 0.734, -0.53, 0.488, 192.0, 0.0, 0.0, 0.0, 0.0, 0.0, 0.0, 0.0, 0.0, 0.0, 1.6635876998386018E9, 0.0, 2022-09-19 16:41:39.838
149.0, -17041.1711384262, -17821.783461783347, -29993.090628753976, -16165.698011600736, 187500.0, 187500.0, -16080.493161737104, -30494.50731211988, 0.734, -0.53, 0.488, 192.0, 0.0, 0.0, 0.0, 0.0, 0.0, 0.0, 0.0, 0.0, 0.0, 1.6635876998425417E9, 0.0, 2022-09-19 16:41:39.842
150.0, -17038.310115135922, -17786.66887124406, -29998.879730567904, -16169.766029091601, 187500.0, 187500.0, -16046.004420042565, -30502.442181401515, 0.734, -0.53, 0.488, 192.0, 0.0, 0.0, 0.0, 0.0, 0.0, 0.0, 0.0, 0.0, 0.0, 1.6635876998465471E9, 0.0, 2022-09-19 16:41:39.846
151.0, -17011.89035318975, -17753.342420261197, -29998.767971845624, -16170.704802358725, 187500.0, 187500.0, -15996.383547351785, -30502.397477912604, 0.734, -0.53, 0.488, 192.0, 0.0, 0.0, 0.0, 0.0, 0.0, 0.0, 0.0, 0.0, 0.0, 1.6635876998515418E9, 0.0, 2022-09-19 16:41:39.851
152.0, -17014.192582868647, -17736.846832853178, -29995.974003788713, -16166.167398234296, 187500.0, 187500.0, -16010.174573680708, -30495.535492364826, 0.734, -0.53, 0.488, 192.0, 0.0, 0.0, 0.0, 0.0, 0.0, 0.0, 0.0, 0.0, 0.0, 1.663587699855549E9, 0.0, 2022-09-19 16:41:39.855
153.0, -17034.063283689415, -17767.267557056854, -29989.73786708568, -16161.62999410987, 187500.0, 187500.0, -16045.646792131281, -30491.17690219604, 0.734, -0.53, 0.488, 192.0, 0.0, 0.0, 0.0, 0.0, 0.0, 0.0, 0.0, 0.0, 0.0, 1.6635876998595052E9, 0.0, 2022-09-19 16:41:39.859
154.0, -17030.33054236538, -17786.624167755148, -29990.162550230332, -16160.467703398193, 187500.0, 187500.0, -16045.289164219996, -30487.93589925002, 0.734, -0.53, 0.488, 192.0, 0.0, 0.0, 0.0, 0.0, 0.0, 0.0, 0.0, 0.0, 0.0, 1.6635876998635192E9, 0.0, 2022-09-19 16:41:39.863
155.0, -17016.3159985919, -17782.399688053094, -29993.22473922071, -16161.898215043333, 187500.0, 187500.0, -16011.918009748222, -30484.761951537366, 0.734, -0.53, 0.488, 192.0, 0.0, 0.0, 0.0, 0.0, 0.0, 0.0, 0.0, 0.0, 0.0, 1.6635876998665445E9, 0.0, 2022-09-19 16:41:39.866
156.0, -17008.291722332444, -17776.208254838974, -29994.2305677212, -16164.312203444506, 187500.0, 187500.0, -15966.923948159689, -30486.393628882604, 0.73, -0.528, 0.488, 192.0, 22.0, 208.0, 239.0, 128.0, 15.0, 64.0, 0.0, 0.0, 0.0, 1.6635876998705626E9, 0.0, 2022-09-19 16:41:39.870
157.0, -17021.45689981662, -17788.166438122564, -29992.17420723131, -16165.027459267076, 187500.0, 187500.0, -15982.123134389298, -30487.578271338734, 0.73, -0.528, 0.488, 192.0, 0.0, 0.0, 0.0, 0.0, 0.0, 0.0, 0.0, 0.0, 0.0, 1.663587699876606E9, 0.0, 2022-09-19 16:41:39.876
158.0, -17022.46272831711, -17777.459952528472, -29982.49590188216, -16160.154778975819, 187500.0, 187500.0, -16018.243553429074, -30485.924242249042, 0.73, -0.528, 0.488, 192.0, 0.0, 0.0, 0.0, 0.0, 0.0, 0.0, 0.0, 0.0, 0.0, 1.6635876998795648E9, 0.0, 2022-09-19 16:41:39.879
159.0, -17021.009864927517, -17785.327766576742, -29986.809788562037, -16166.212101723208, 187500.0, 187500.0, -16020.858707530346, -30494.75318130889, 0.73, -0.528, 0.488, 192.0, 0.0, 0.0, 0.0, 0.0, 0.0, 0.0, 0.0, 0.0, 0.0, 1.6635876998846018E9, 0.0, 2022-09-19 16:41:39.884
160.0, -17017.098309647838, -17794.46963005896, -29997.628032878405, -16174.549302405037, 187500.0, 187500.0, -15995.511829318028, -30494.17203595305, 0.73, -0.528, 0.488, 192.0, 0.0, 0.0, 0.0, 0.0, 0.0, 0.0, 0.0, 0.0, 0.0, 1.6635876998876352E9, 0.0, 2022-09-19 16:41:39.887
161.0, -17007.93409442116, -17798.67175801656, -30000.712573613237, -16178.05852628452, 187500.0, 187500.0, -15953.44584625314, -30495.80371329829, 0.73, -0.528, 0.488, 192.0, 0.0, 0.0, 0.0, 0.0, 0.0, 0.0, 0.0, 0.0, 0.0, 1.6635876998915713E9, 0.0, 2022-09-19 16:41:39.891
162.0, -17012.94088517915, -17790.13339163463, -29994.61054737694, -16169.877787813877, 187500.0, 187500.0, -15965.784009192468, -30493.03209698583, 0.73, -0.528, 0.488, 192.0, 0.0, 0.0, 0.0, 0.0, 0.0, 0.0, 0.0, 0.0, 0.0, 1.6635876998946164E9, 0.0, 2022-09-19 16:41:39.894
163.0, -17014.393748568746, -17782.019708397354, -29990.69899209726, -16163.440485410749, 187500.0, 187500.0, -16004.45252710015, -30487.17593993854, 0.73, -0.528, 0.488, 192.0, 0.0, 0.0, 0.0, 0.0, 0.0, 0.0, 0.0, 0.0, 0.0, 1.663587699898643E9, 0.0, 2022-09-19 16:41:39.898
164.0, -17011.73389097856, -17759.08681858621, -29988.977907774202, -16160.847683053933, 187500.0, 187500.0, -16009.54872483596, -30486.84066377171, 0.73, -0.528, 0.488, 192.0, 0.0, 0.0, 0.0, 0.0, 0.0, 0.0, 0.0, 0.0, 0.0, 1.6635876999026847E9, 0.0, 2022-09-19 16:41:39.902
165.0, -17004.849553686327, -17770.910891403066, -29988.776742074104, -16167.284985457061, 187500.0, 187500.0, -15980.156180877231, -30492.741524307912, 0.73, -0.528, 0.488, 192.0, 0.0, 0.0, 0.0, 0.0, 0.0, 0.0, 0.0, 0.0, 0.0, 1.6635876999066796E9, 0.0, 2022-09-19 16:41:39.906
166.0, -17002.12264086278, -17770.24033906941, -29991.50365489765, -16169.229587224674, 187500.0, 187500.0, -15931.898764598223, -30493.07680047474, 0.736, -0.536, 0.494, 192.0, 23.0, 0.0, 239.0, 64.0, 15.0, 112.0, 0.0, 0.0, 0.0, 1.6635876999106724E9, 0.0, 2022-09-19 16:41:39.910
167.0, -17000.535667006454, -17762.75250467688, -29986.139236228377, -16161.652345854325, 187500.0, 187500.0, -15937.263183267498, -30488.025306227843, 0.736, -0.536, 0.494, 192.0, 0.0, 0.0, 0.0, 0.0, 0.0, 0.0, 0.0, 0.0, 0.0, 1.6635876999156609E9, 0.0, 2022-09-19 16:41:39.915
168.0, -17003.441393785644, -17787.115906133164, -29984.865186794425, -16161.227662709674, 187500.0, 187500.0, -15972.981270907077, -30489.16524519506, 0.736, -0.536, 0.494, 192.0, 0.0, 0.0, 0.0, 0.0, 0.0, 0.0, 0.0, 0.0, 0.0, 1.663587699919691E9, 0.0, 2022-09-19 16:41:39.919
169.0, -16988.5104284895, -17776.543531005806, -29989.69316359677, -16162.792284821546, 187500.0, 187500.0, -15974.769410463503, -30492.22743418544, 0.736, -0.536, 0.494, 192.0, 0.0, 0.0, 0.0, 0.0, 0.0, 0.0, 0.0, 0.0, 0.0, 1.6635876999226665E9, 0.0, 2022-09-19 16:41:39.922
170.0, -16984.755335421007, -17781.28210083033, -29993.470608409716, -16168.62609012438, 187500.0, 187500.0, -15948.796683406435, -30493.389724897115, 0.736, -0.536, 0.494, 192.0, 0.0, 0.0, 0.0, 0.0, 0.0, 0.0, 0.0, 0.0, 0.0, 1.6635876999266336E9, 0.0, 2022-09-19 16:41:39.926
171.0, -16984.39770750972, -17772.006126881377, -29995.191692732777, -16171.174188992285, 187500.0, 187500.0, -15905.858982307791, -30493.859111530677, 0.736, -0.536, 0.494, 192.0, 0.0, 0.0, 0.0, 0.0, 0.0, 0.0, 0.0, 0.0, 0.0, 1.663587699930676E9, 0.0, 2022-09-19 16:41:39.930
172.0, -16993.383108780756, -17749.31910625924, -29999.259710223643, -16165.206273222719, 187500.0, 187500.0, -15916.38665394624, -30495.110809220176, 0.736, -0.536, 0.494, 192.0, 0.0, 0.0, 0.0, 0.0, 0.0, 0.0, 0.0, 0.0, 0.0, 1.6635876999347558E9, 0.0, 2022-09-19 16:41:39.934
173.0, -17008.805812454917, -17787.451182299996, -29997.73979160068, -16165.25097671163, 187500.0, 187500.0, -15959.68198295617, -30498.5976813552, 0.736, -0.536, 0.494, 192.0, 0.0, 0.0, 0.0, 0.0, 0.0, 0.0, 0.0, 0.0, 0.0, 1.6635876999386916E9, 0.0, 2022-09-19 16:41:39.938
174.0, -17011.823297956384, -17810.42877560005, -29994.498788654662, -16168.335517446461, 187500.0, 187500.0, -15966.365154548306, -30499.759972066877, 0.736, -0.536, 0.494, 192.0, 0.0, 0.0, 0.0, 0.0, 0.0, 0.0, 0.0, 0.0, 0.0, 1.6635876999437675E9, 0.0, 2022-09-19 16:41:39.943
175.0, -17009.185792110657, -17772.989603637412, -29996.152817744354, -16171.017726781098, 187500.0, 187500.0, -15942.225270536575, -30499.983489511433, 0.736, -0.536, 0.494, 192.0, 0.0, 0.0, 0.0, 0.0, 0.0, 0.0, 0.0, 0.0, 0.0, 1.66358769994669E9, 0.0, 2022-09-19 16:41:39.946
176.0, -17017.99237942605, -17767.8934059016, -30000.37729744641, -16176.069221027998, 187500.0, 187500.0, -15903.109717739788, -30501.212835456474, 0.734, -0.534, 0.498, 192.0, 22.0, 240.0, 239.0, 80.0, 15.0, 144.0, 0.0, 0.0, 0.0, 1.663587699951847E9, 0.0, 2022-09-19 16:41:39.951
