%OpenBCI Raw EEG Data
%Number of channels = 8
%Sample Rate = 250 Hz
%Board = OpenBCI_GUI$BoardCytonSerial
Sample Index, EXG Channel 0, EXG Channel 1, EXG Channel 2, EXG Channel 3, EXG Channel 4, EXG Channel 5, EXG Channel 6, EXG Channel 7, Accel Channel 0, Accel Channel 1, Accel Channel 2, Other, Other, Other, Other, Other, Other, Other, Analog Channel 0, Analog Channel 1, Analog Channel 2, Timestamp, Other, Timestamp (Formatted)
44.0, -38041.41736524312, -31218.614425494008, -40383.65666671475, -37848.74532803838, -53737.66168804905, 187500.0, -37139.85975263832, -39091.39056103117, 0.0, 0.0, 0.0, 192.0, 0.0, 0.0, 0.0, 0.0, 0.0, 0.0, 0.0, 0.0, 0.0, 1.6635918717066271E9, 0.0, 2022-09-19 17:51:11.706
45.0, -38021.47960918899, -31201.492989241244, -40362.13193680429, -37832.16033365254, -53714.19235637097, 187500.0, -37175.73430248908, -39075.25260153444, 0.0, 0.0, 0.0, 192.0, 0.0, 0.0, 0.0, 0.0, 0.0, 0.0, 0.0, 0.0, 0.0, 1.6635918717066593E9, 0.0, 2022-09-19 17:51:11.706
0.0, 0.0, 0.0, 0.0, 0.0, 0.0, 0.0, 0.0, 0.0, 0.0, 0.0, 0.0, 192.0, 0.0, 0.0, 0.0, 0.0, 0.0, 0.0, 0.0, 0.0, 0.0, 1.6635918717749789E9, 0.0, 2022-09-19 17:51:11.774
1.0, -37247.86338184636, -30987.27387038158, -39565.82868883952, -36751.498192727355, -53704.37994055509, 187500.0, -36958.2741806834, -38746.994882463805, 0.766, -0.666, 0.164, 192.0, 23.0, 240.0, 235.0, 48.0, 5.0, 32.0, 0.0, 0.0, 0.0, 1.6635918717920072E9, 0.0, 2022-09-19 17:51:11.792
2.0, -37246.76814636805, -31001.22135892169, -39569.51672667464, -36778.208527351446, -53723.311868108736, 187500.0, -36778.36498956263, -38778.28732470123, 0.766, -0.666, 0.164, 192.0, 0.0, 0.0, 0.0, 0.0, 0.0, 0.0, 0.0, 0.0, 0.0, 1.6635918717969892E9, 0.0, 2022-09-19 17:51:11.796
3.0, -37276.07128334895, -31012.196065449247, -39607.715857948766, -36770.921858659014, -53737.43817060449, 187500.0, -36934.78249726087, -38761.612923337576, 0.766, -0.666, 0.164, 192.0, 0.0, 0.0, 0.0, 0.0, 0.0, 0.0, 0.0, 0.0, 0.0, 1.6635918718010395E9, 0.0, 2022-09-19 17:51:11.801
4.0, -37271.15389956879, -30993.241786151146, -39604.98894512522, -36734.734384385876, -53709.27497259081, 187500.0, -37149.135726587265, -38721.4915420403, 0.766, -0.666, 0.164, 192.0, 0.0, 0.0, 0.0, 0.0, 0.0, 0.0, 0.0, 0.0, 0.0, 1.663591871804037E9, 0.0, 2022-09-19 17:51:11.804
5.0, -37252.51254469306, -30977.215585376693, -39580.938468091306, -36729.3699657166, -53694.81339392822, 187500.0, -37099.91718529668, -38721.84916995158, 0.766, -0.666, 0.164, 192.0, 0.0, 0.0, 0.0, 0.0, 0.0, 0.0, 0.0, 0.0, 0.0, 1.663591871807068E9, 0.0, 2022-09-19 17:51:11.807
6.0, -37248.51158243556, -30980.166015644794, -39570.43314819731, -36746.424346736, -53698.79200444127, 187500.0, -36955.18963994856, -38745.720833029845, 0.766, -0.666, 0.164, 192.0, 0.0, 0.0, 0.0, 0.0, 0.0, 0.0, 0.0, 0.0, 0.0, 1.6635918718101833E9, 0.0, 2022-09-19 17:51:11.810
7.0, -37251.10438479238, -30995.968698974695, -39575.57404942204, -36778.76732096283, -53720.33908609618, 187500.0, -36775.03457963879, -38780.254278213295, 0.766, -0.666, 0.164, 192.0, 0.0, 0.0, 0.0, 0.0, 0.0, 0.0, 0.0, 0.0, 0.0, 1.6635918718141127E9, 0.0, 2022-09-19 17:51:11.814
8.0, -37287.8506526769, -31014.297129428047, -39616.94712840881, -36773.022922637814, -53737.4828740934, 187500.0, -36936.66004379512, -38762.931676260436, 0.774, -0.674, 0.16, 192.0, 24.0, 48.0, 234.0, 240.0, 5.0, 0.0, 0.0, 0.0, 0.0, 1.663591871818117E9, 0.0, 2022-09-19 17:51:11.818
9.0, -37286.71071370968, -31004.50706535662, -39613.236738829226, -36736.947207086945, -53711.48779529188, 187500.0, -37154.29897955644, -38720.59747226208, 0.774, -0.674, 0.16, 192.0, 0.0, 0.0, 0.0, 0.0, 0.0, 0.0, 0.0, 0.0, 0.0, 1.6635918718210251E9, 0.0, 2022-09-19 17:51:11.821
10.0, -37263.10727156488, -30988.257347137613, -39581.40785472487, -36730.64401515055, -53694.70163520594, 187500.0, -37101.10182775281, -38723.81612346365, 0.774, -0.674, 0.16, 192.0, 0.0, 0.0, 0.0, 0.0, 0.0, 0.0, 0.0, 0.0, 0.0, 1.6635918718251567E9, 0.0, 2022-09-19 17:51:11.825
11.0, -37243.303625977474, -30980.45658832271, -39568.01915979614, -36742.93747460097, -53699.753129452845, 187500.0, -36946.807735777824, -38744.67030104045, 0.774, -0.674, 0.16, 192.0, 0.0, 0.0, 0.0, 0.0, 0.0, 0.0, 0.0, 0.0, 0.0, 1.663591871829121E9, 0.0, 2022-09-19 17:51:11.829
12.0, -37254.94888483869, -30995.65577455232, -39574.90349708837, -36774.0287511383, -53726.68698152149, 187500.0, -36771.19007959248, -38780.83542356914, 0.774, -0.674, 0.16, 192.0, 0.0, 0.0, 0.0, 0.0, 0.0, 0.0, 0.0, 0.0, 0.0, 1.6635918718341172E9, 0.0, 2022-09-19 17:51:11.834
13.0, -37287.828300932444, -31013.96185326122, -39613.728477207245, -36770.31836155872, -53743.80841777426, 187500.0, -36937.6211688067, -38764.58570535013, 0.774, -0.674, 0.16, 192.0, 0.0, 0.0, 0.0, 0.0, 0.0, 0.0, 0.0, 0.0, 0.0, 1.663591871838052E9, 0.0, 2022-09-19 17:51:11.838
14.0, -37275.42308275975, -30997.33215538647, -39611.828578928544, -36740.94816934445, -53716.807510472245, 187500.0, -37150.36507253231, -38730.16401888896, 0.774, -0.674, 0.16, 192.0, 0.0, 0.0, 0.0, 0.0, 0.0, 0.0, 0.0, 0.0, 0.0, 1.6635918718430948E9, 0.0, 2022-09-19 17:51:11.843
15.0, -37264.42602448774, -30988.27969888207, -39589.5438897066, -36742.28927401177, -53708.24679234586, 187500.0, -37097.36908642877, -38736.847190481094, 0.774, -0.674, 0.16, 192.0, 0.0, 0.0, 0.0, 0.0, 0.0, 0.0, 0.0, 0.0, 0.0, 1.6635918718471324E9, 0.0, 2022-09-19 17:51:11.847
16.0, -37250.9926260701, -30990.5148733276, -39579.77617737963, -36758.31547478622, -53714.75114998235, 187500.0, -36947.34417764475, -38762.41758613796, 0.774, -0.674, 0.16, 192.0, 0.0, 0.0, 0.0, 0.0, 0.0, 0.0, 0.0, 0.0, 0.0, 1.6635918718501143E9, 0.0, 2022-09-19 17:51:11.850
17.0, -37246.3434632234, -30999.164998431803, -39584.76061639316, -36780.309591330246, -53733.70542928045, 187500.0, -36766.116233601126, -38787.33978120563, 0.774, -0.674, 0.16, 192.0, 0.0, 0.0, 0.0, 0.0, 0.0, 0.0, 0.0, 0.0, 0.0, 1.6635918718531044E9, 0.0, 2022-09-19 17:51:11.853
18.0, -37279.82637641745, -31012.620748593898, -39620.61281449948, -36769.08901561368, -53745.57420558622, 187500.0, -36933.530799571374, -38762.03760648223, 0.764, -0.674, 0.16, 192.0, 23.0, 224.0, 234.0, 240.0, 5.0, 0.0, 0.0, 0.0, 0.0, 1.6635918718572173E9, 0.0, 2022-09-19 17:51:11.857
19.0, -37276.47361474915, -30997.645079808844, -39612.253262073194, -36733.817962863206, -53713.8794319486, 187500.0, -37148.42047076469, -38719.07755363912, 0.764, -0.674, 0.16, 192.0, 0.0, 0.0, 0.0, 0.0, 0.0, 0.0, 0.0, 0.0, 0.0, 1.6635918718612473E9, 0.0, 2022-09-19 17:51:11.861
20.0, -37256.17823078373, -30981.015381934096, -39586.48170071623, -36727.40301220453, -53694.433414272484, 187500.0, -37094.86569104978, -38716.55180651567, 0.764, -0.674, 0.16, 192.0, 0.0, 0.0, 0.0, 0.0, 0.0, 0.0, 0.0, 0.0, 0.0, 1.6635918718662045E9, 0.0, 2022-09-19 17:51:11.866
21.0, -37248.53393418001, -30982.423541834778, -39573.048302298586, -36746.93843685847, -53702.278876576296, 187500.0, -36943.16440143161, -38743.93269347343, 0.764, -0.674, 0.16, 192.0, 0.0, 0.0, 0.0, 0.0, 0.0, 0.0, 0.0, 0.0, 0.0, 1.663591871870204E9, 0.0, 2022-09-19 17:51:11.870
22.0, -37253.160745282265, -30998.09211469795, -39568.93558131881, -36778.09676862917, -53727.33518211069, 187500.0, -36765.51273650083, -38783.87526081506, 0.764, -0.674, 0.16, 192.0, 0.0, 0.0, 0.0, 0.0, 0.0, 0.0, 0.0, 0.0, 0.0, 1.6635918718731465E9, 0.0, 2022-09-19 17:51:11.873
23.0, -37290.73402771164, -31012.844266038453, -39607.22411957075, -36769.89367841407, -53739.941565983485, 187500.0, -36933.821372249295, -38763.11049021608, 0.764, -0.674, 0.16, 192.0, 0.0, 0.0, 0.0, 0.0, 0.0, 0.0, 0.0, 0.0, 0.0, 1.6635918718772922E9, 0.0, 2022-09-19 17:51:11.877
24.0, -37277.92647813875, -30996.393382119346, -39599.28925028911, -36733.14741052955, -53707.17390861201, 187500.0, -37142.09492708385, -38719.010498405754, 0.764, -0.674, 0.16, 192.0, 0.0, 0.0, 0.0, 0.0, 0.0, 0.0, 0.0, 0.0, 0.0, 1.6635918718811986E9, 0.0, 2022-09-19 17:51:11.881
25.0, -37254.30068424949, -30981.015381934096, -39569.31556097455, -36727.00068080434, -53688.01846361381, 187500.0, -37084.80740604489, -38717.78115246072, 0.764, -0.674, 0.16, 192.0, 0.0, 0.0, 0.0, 0.0, 0.0, 0.0, 0.0, 0.0, 0.0, 1.6635918718852184E9, 0.0, 2022-09-19 17:51:11.885
26.0, -37250.9926260701, -30984.12227441338, -39554.295188700584, -36744.502096712844, -53694.209896827924, 187500.0, -36933.329633871275, -38739.12706841553, 0.764, -0.674, 0.16, 192.0, 0.0, 0.0, 0.0, 0.0, 0.0, 0.0, 0.0, 0.0, 0.0, 1.6635918718891983E9, 0.0, 2022-09-19 17:51:11.889
27.0, -37263.97898959863, -31002.070725210993, -39560.374863192425, -36774.72165521642, -53716.807510472245, 187500.0, -36756.259114296336, -38772.72174033186, 0.764, -0.674, 0.16, 192.0, 0.0, 0.0, 0.0, 0.0, 0.0, 0.0, 0.0, 0.0, 0.0, 1.6635918718942149E9, 0.0, 2022-09-19 17:51:11.894
28.0, -37295.98668765863, -31018.85688529693, -39601.9491078793, -36768.37375979111, -53730.28561237879, 187500.0, -36933.50844782692, -38753.767461033756, 0.752, -0.67, 0.16, 192.0, 23.0, 128.0, 235.0, 16.0, 5.0, 0.0, 0.0, 0.0, 0.0, 1.663591871898263E9, 0.0, 2022-09-19 17:51:11.898
29.0, -37287.224803832156, -31005.13291420137, -39597.32229677705, -36733.79561111875, -53705.117548122114, 187500.0, -37146.609979463814, -38715.8365506931, 0.752, -0.67, 0.16, 192.0, 0.0, 0.0, 0.0, 0.0, 0.0, 0.0, 0.0, 0.0, 0.0, 1.6635918719012427E9, 0.0, 2022-09-19 17:51:11.901
30.0, -37269.164594312264, -30992.638289050854, -39575.35053197748, -36729.90640758353, -53693.11466134962, 187500.0, -37095.1562637277, -38721.78211471822, 0.752, -0.67, 0.16, 192.0, 0.0, 0.0, 0.0, 0.0, 0.0, 0.0, 0.0, 0.0, 0.0, 1.663591871905213E9, 0.0, 2022-09-19 17:51:11.905
31.0, -37261.833222130925, -30987.698553526232, -39560.75484284817, -36740.881114111085, -53693.673454961, 187500.0, -36941.19744791954, -38738.300053870684, 0.752, -0.67, 0.16, 192.0, 0.0, 0.0, 0.0, 0.0, 0.0, 0.0, 0.0, 0.0, 0.0, 1.6635918719093397E9, 0.0, 2022-09-19 17:51:11.909
32.0, -37256.60291392838, -31005.13291420137, -39572.131880775916, -36774.2299168384, -53723.73655125339, 187500.0, -36763.858707411135, -38780.70131310241, 0.752, -0.67, 0.16, 192.0, 0.0, 0.0, 0.0, 0.0, 0.0, 0.0, 0.0, 0.0, 0.0, 1.663591871913214E9, 0.0, 2022-09-19 17:51:11.913
33.0, -37283.17913808574, -31017.336966673967, -39614.44373302981, -36767.993780135366, -53740.8356357617, 187500.0, -36940.3704333747, -38762.1493652045, 0.752, -0.67, 0.16, 192.0, 0.0, 0.0, 0.0, 0.0, 0.0, 0.0, 0.0, 0.0, 0.0, 1.6635918719172652E9, 0.0, 2022-09-19 17:51:11.917
34.0, -37278.44056826122, -30995.923995485784, -39604.18428232483, -36731.918064584504, -53708.894992935064, 187500.0, -37150.052148109935, -38716.26123383775, 0.752, -0.67, 0.16, 192.0, 0.0, 0.0, 0.0, 0.0, 0.0, 0.0, 0.0, 0.0, 0.0, 1.6635918719212327E9, 0.0, 2022-09-19 17:51:11.921
35.0, -37260.156841296775, -30980.27777436707, -39575.57404942204, -36724.47493368089, -53691.61709447111, 187500.0, -37089.791845058426, -38716.28358558221, 0.752, -0.67, 0.16, 192.0, 0.0, 0.0, 0.0, 0.0, 0.0, 0.0, 0.0, 0.0, 0.0, 1.6635918719262693E9, 0.0, 2022-09-19 17:51:11.926
36.0, -37252.51254469306, -30982.55765230151, -39568.421491196335, -36743.250399023345, -53701.16128935353, 187500.0, -36935.22953214998, -38744.826763251636, 0.752, -0.67, 0.16, 192.0, 0.0, 0.0, 0.0, 0.0, 0.0, 0.0, 0.0, 0.0, 0.0, 1.663591871929206E9, 0.0, 2022-09-19 17:51:11.929
37.0, -37256.71467265066, -30998.874425753886, -39576.0881395445, -36773.35819880464, -53726.97755419941, 187500.0, -36763.74694868886, -38782.89178405902, 0.752, -0.67, 0.16, 192.0, 0.0, 0.0, 0.0, 0.0, 0.0, 0.0, 0.0, 0.0, 0.0, 1.6635918719332883E9, 0.0, 2022-09-19 17:51:11.933
38.0, -37290.801082945, -31013.51481837211, -39614.24256732972, -36762.89758239956, -53742.51201659584, 187500.0, -36942.002110719935, -38759.46715586986, 0.754, -0.676, 0.156, 192.0, 23.0, 144.0, 234.0, 224.0, 4.0, 224.0, 0.0, 0.0, 0.0, 1.6635918719372213E9, 0.0, 2022-09-19 17:51:11.937
39.0, -37278.70878919468, -30994.47113209619, -39603.42432301334, -36719.02110803379, -53707.48683303438, 187500.0, -37147.48169749757, -38703.81131217615, 0.754, -0.676, 0.156, 192.0, 0.0, 0.0, 0.0, 0.0, 0.0, 0.0, 0.0, 0.0, 0.0, 1.6635918719413E9, 0.0, 2022-09-19 17:51:11.941
40.0, -37256.871134861845, -30981.238899378648, -39580.31261924656, -36714.46135216491, -53694.567524739214, 187500.0, -37087.400208401705, -38708.16990234493, 0.754, -0.676, 0.156, 192.0, 0.0, 0.0, 0.0, 0.0, 0.0, 0.0, 0.0, 0.0, 0.0, 1.6635918719452944E9, 0.0, 2022-09-19 17:51:11.945
41.0, -37252.28902724851, -30984.301088369026, -39565.87339232843, -36734.17559077449, -53700.803661442245, 187500.0, -36931.36268035921, -38735.55078930269, 0.754, -0.676, 0.156, 192.0, 0.0, 0.0, 0.0, 0.0, 0.0, 0.0, 0.0, 0.0, 0.0, 1.6635918719503117E9, 0.0, 2022-09-19 17:51:11.950
42.0, -37259.57569594094, -31001.020193221593, -39573.33887497651, -36768.26200106883, -53724.74237975388, 187500.0, -36761.60118122115, -38772.498222887305, 0.754, -0.676, 0.156, 192.0, 0.0, 0.0, 0.0, 0.0, 0.0, 0.0, 0.0, 0.0, 0.0, 1.6635918719542792E9, 0.0, 2022-09-19 17:51:11.954
43.0, -37286.800120687505, -31014.788867806063, -39612.4991312622, -36758.44958525295, -53738.04166770478, 187500.0, -36944.84078226576, -38752.76163253327, 0.754, -0.676, 0.156, 192.0, 0.0, 0.0, 0.0, 0.0, 0.0, 0.0, 0.0, 0.0, 0.0, 1.6635918719573748E9, 0.0, 2022-09-19 17:51:11.957
44.0, -37274.059626347975, -30989.598451804934, -39597.434055499325, -36717.81411383321, -53702.23417308738, 187500.0, -37147.07936609738, -38705.33123079911, 0.754, -0.676, 0.156, 192.0, 0.0, 0.0, 0.0, 0.0, 0.0, 0.0, 0.0, 0.0, 0.0, 1.6635918719613488E9, 0.0, 2022-09-19 17:51:11.961
45.0, -37260.40271048578, -30974.779245231064, -39575.88697384441, -36715.19895973193, -53688.085518847176, 187500.0, -37088.026057246454, -38709.19808258988, 0.754, -0.676, 0.156, 192.0, 0.0, 0.0, 0.0, 0.0, 0.0, 0.0, 0.0, 0.0, 0.0, 1.6635918719653895E9, 0.0, 2022-09-19 17:51:11.965
46.0, -37253.11604179336, -30979.316649355493, -39568.33208421851, -36739.29414025476, -53697.98734164087, 187500.0, -36931.87677048168, -38738.61297829306, 0.754, -0.676, 0.156, 192.0, 0.0, 0.0, 0.0, 0.0, 0.0, 0.0, 0.0, 0.0, 0.0, 1.6635918719693172E9, 0.0, 2022-09-19 17:51:11.969
47.0, -37253.093690048896, -30993.37589661788, -39576.87045060044, -36770.161899347535, -53720.74141749638, 187500.0, -36758.8742683976, -38772.76644382077, 0.754, -0.676, 0.156, 192.0, 0.0, 0.0, 0.0, 0.0, 0.0, 0.0, 0.0, 0.0, 0.0, 1.663591871973445E9, 0.0, 2022-09-19 17:51:11.973
48.0, -37286.19662358721, -31005.356431645923, -39615.76248595268, -36758.0249021083, -53730.86675773463, 187500.0, -36944.95254098804, -38749.52062958725, 0.756, -0.67, 0.154, 192.0, 23.0, 160.0, 235.0, 16.0, 4.0, 208.0, 0.0, 0.0, 0.0, 1.6635918719774055E9, 0.0, 2022-09-19 17:51:11.977
49.0, -37279.62521071735, -30989.821969249486, -39610.62158472795, -36722.2174074909, -53703.172946354505, 187500.0, -37153.11433710031, -38709.13102735651, 0.756, -0.67, 0.154, 192.0, 0.0, 0.0, 0.0, 0.0, 0.0, 0.0, 0.0, 0.0, 0.0, 1.6635918719824111E9, 0.0, 2022-09-19 17:51:11.982
50.0, -37257.51933545105, -30979.093131910937, -39585.72174140474, -36715.6683463655, -53686.20797231293, 187500.0, -37091.49057763703, -38711.120332613034, 0.756, -0.67, 0.154, 192.0, 0.0, 0.0, 0.0, 0.0, 0.0, 0.0, 0.0, 0.0, 0.0, 1.6635918719853487E9, 0.0, 2022-09-19 17:51:11.985
51.0, -37242.27544573253, -30984.36814360239, -39586.50405246068, -36736.29900649774, -53690.90183864854, 187500.0, -36933.30728212682, -38736.0425276807, 0.756, -0.67, 0.154, 192.0, 0.0, 0.0, 0.0, 0.0, 0.0, 0.0, 0.0, 0.0, 0.0, 1.6635918719894032E9, 0.0, 2022-09-19 17:51:11.989
52.0, -37250.1432597808, -30998.293280398048, -39572.06482554255, -36765.42332952301, -53713.588859270676, 187500.0, -36756.90731488554, -38766.060920484175, 0.756, -0.67, 0.154, 192.0, 0.0, 0.0, 0.0, 0.0, 0.0, 0.0, 0.0, 0.0, 0.0, 1.6635918719933891E9, 0.0, 2022-09-19 17:51:11.993
53.0, -37289.37057129986, -31014.81121955052, -39603.849006157994, -36757.19788756346, -53728.94450771147, 187500.0, -36947.522991600395, -38745.56437081866, 0.756, -0.67, 0.154, 192.0, 0.0, 0.0, 0.0, 0.0, 0.0, 0.0, 0.0, 0.0, 0.0, 1.6635918719974368E9, 0.0, 2022-09-19 17:51:11.997
54.0, -37287.51537651007, -30996.996879219638, -39600.83152065653, -36719.758715600816, -53699.82018468621, 187500.0, -37153.78488943397, -38707.499350011276, 0.756, -0.67, 0.154, 192.0, 0.0, 0.0, 0.0, 0.0, 0.0, 0.0, 0.0, 0.0, 0.0, 1.663591872001391E9, 0.0, 2022-09-19 17:51:12.001
55.0, -37247.25988474606, -30978.713152255197, -39573.16006102086, -36716.1153812546, -53681.20118155494, 187500.0, -37088.2048712021, -38711.09798086858, 0.756, -0.67, 0.154, 192.0, 0.0, 0.0, 0.0, 0.0, 0.0, 0.0, 0.0, 0.0, 0.0, 1.6635918720054412E9, 0.0, 2022-09-19 17:51:12.005
56.0, -37236.0393090295, -30981.373009845378, -39570.45549994177, -36732.49920994034, -53683.79398391175, 187500.0, -36926.86997972369, -38729.918149699944, 0.756, -0.67, 0.154, 192.0, 0.0, 0.0, 0.0, 0.0, 0.0, 0.0, 0.0, 0.0, 0.0, 1.66359187201042E9, 0.0, 2022-09-19 17:51:12.010
57.0, -37254.837126116414, -31000.55080658803, -39574.7917383661, -36761.355312032145, -53707.68799873448, 187500.0, -36754.51567822882, -38767.80435655169, 0.756, -0.67, 0.154, 192.0, 0.0, 0.0, 0.0, 0.0, 0.0, 0.0, 0.0, 0.0, 0.0, 1.663591872013376E9, 0.0, 2022-09-19 17:51:12.013
58.0, -37290.73402771164, -31023.23782721017, -39613.90729116288, -36754.627436951094, -53726.19524314347, 187500.0, -36950.42871837958, -38749.02889120924, 0.756, -0.67, 0.152, 192.0, 23.0, 160.0, 235.0, 16.0, 4.0, 192.0, 0.0, 0.0, 0.0, 1.6635918720173972E9, 0.0, 2022-09-19 17:51:12.017
59.0, -37289.459978277686, -31005.624652579387, -39603.13375033543, -36716.964747543905, -53692.73468169388, 187500.0, -37155.10364235683, -38707.834626178104, 0.756, -0.67, 0.152, 192.0, 0.0, 0.0, 0.0, 0.0, 0.0, 0.0, 0.0, 0.0, 0.0, 1.6635918720215015E9, 0.0, 2022-09-19 17:51:12.021
60.0, -37256.4911552061, -30987.162111659305, -39576.84809885599, -36710.84036956315, -53675.68030067448, 187500.0, -37089.18834795813, -38709.019268634234, 0.756, -0.67, 0.152, 192.0, 0.0, 0.0, 0.0, 0.0, 0.0, 0.0, 0.0, 0.0, 0.0, 1.6635918720254416E9, 0.0, 2022-09-19 17:51:12.025
61.0, -37242.16368701025, -30988.816140748997, -39566.20866849526, -36730.04051805026, -53685.559771723725, 187500.0, -36928.68047102457, -38736.511914314266, 0.756, -0.67, 0.152, 192.0, 0.0, 0.0, 0.0, 0.0, 0.0, 0.0, 0.0, 0.0, 0.0, 1.6635918720294461E9, 0.0, 2022-09-19 17:51:12.029
62.0, -37244.644730644795, -31005.13291420137, -39567.728587118225, -36759.63422770909, -53709.878469691095, 187500.0, -36758.78486141979, -38770.3524554196, 0.756, -0.67, 0.152, 192.0, 0.0, 0.0, 0.0, 0.0, 0.0, 0.0, 0.0, 0.0, 0.0, 1.6635918720333848E9, 0.0, 2022-09-19 17:51:12.033
63.0, -37276.0489316045, -31020.175638219793, -39601.97145962375, -36750.17943980449, -53721.4790250634, 187500.0, -36954.0720527258, -38746.10081268559, 0.756, -0.67, 0.152, 192.0, 0.0, 0.0, 0.0, 0.0, 0.0, 0.0, 0.0, 0.0, 0.0, 1.66359187203853E9, 0.0, 2022-09-19 17:51:12.038
64.0, -37271.15389956879, -30995.320498385492, -39602.41849451286, -36719.93752955646, -53693.40523402754, 187500.0, -37154.50014525654, -38709.153379100964, 0.756, -0.67, 0.152, 192.0, 0.0, 0.0, 0.0, 0.0, 0.0, 0.0, 0.0, 0.0, 0.0, 1.6635918720414655E9, 0.0, 2022-09-19 17:51:12.041
65.0, -37252.93722783771, -30976.813253976496, -39576.82574711153, -36715.57893938768, -53676.730832663874, 187500.0, -37089.925955525156, -38714.7860187037, 0.756, -0.67, 0.152, 192.0, 0.0, 0.0, 0.0, 0.0, 0.0, 0.0, 0.0, 0.0, 0.0, 1.6635918720454671E9, 0.0, 2022-09-19 17:51:12.045
66.0, -37246.43287020122, -30987.385629103857, -39561.40304343737, -36732.43215470698, -53682.542286222255, 187500.0, -36929.64159603615, -38740.065841682655, 0.756, -0.67, 0.152, 192.0, 0.0, 0.0, 0.0, 0.0, 0.0, 0.0, 0.0, 0.0, 0.0, 1.6635918720494928E9, 0.0, 2022-09-19 17:51:12.049
67.0, -37256.80407962848, -31018.298091685545, -39574.47881394372, -36766.85384116815, -53711.286629591785, 187500.0, -36762.808175421735, -38778.510842145784, 0.756, -0.67, 0.152, 192.0, 0.0, 0.0, 0.0, 0.0, 0.0, 0.0, 0.0, 0.0, 0.0, 1.6635918720536387E9, 0.0, 2022-09-19 17:51:12.053
68.0, -37278.395864772305, -31026.90351330084, -39611.850930673, -36755.78972766277, -53724.47415882041, 187500.0, -36958.58710510577, -38753.92392324495, 0.756, -0.67, 0.152, 192.0, 0.0, 0.0, 0.0, 0.0, 0.0, 0.0, 0.0, 0.0, 0.0, 1.6635918720575278E9, 0.0, 2022-09-19 17:51:12.057
69.0, -37268.538745467515, -30995.141684429847, -39600.74211367871, -36722.44092493545, -53694.232248572385, 187500.0, -37158.858735425325, -38714.58485300361, 0.758, -0.674, 0.14400000000000002, 192.0, 23.0, 176.0, 234.0, 240.0, 4.0, 128.0, 0.0, 0.0, 0.0, 1.6635918720615275E9, 0.0, 2022-09-19 17:51:12.061
70.0, -37249.9420940807, -30976.254460365115, -39578.03274131212, -36722.03859353526, -53685.60447521263, 187500.0, -37090.75297007, -38720.30689958417, 0.758, -0.674, 0.14400000000000002, 192.0, 0.0, 0.0, 0.0, 0.0, 0.0, 0.0, 0.0, 0.0, 0.0, 1.6635918720664952E9, 0.0, 2022-09-19 17:51:12.066
71.0, -37249.04802430249, -30981.88709996785, -39569.606133652465, -36739.65176816604, -53694.45576601694, 187500.0, -36925.573578545285, -38745.22909465183, 0.758, -0.674, 0.14400000000000002, 192.0, 0.0, 0.0, 0.0, 0.0, 0.0, 0.0, 0.0, 0.0, 0.0, 1.663591872069614E9, 0.0, 2022-09-19 17:51:12.069
72.0, -37262.83905063141, -31000.55080658803, -39582.190165780805, -36773.42525403801, -53720.719065751924, 187500.0, -36762.71876844392, -38781.14834799151, 0.758, -0.674, 0.14400000000000002, 192.0, 0.0, 0.0, 0.0, 0.0, 0.0, 0.0, 0.0, 0.0, 0.0, 1.66359187207352E9, 0.0, 2022-09-19 17:51:12.073
73.0, -37293.148016112806, -31014.118315472406, -39625.30668083509, -36767.81496617973, -53737.81815026023, 187500.0, -36967.572506376804, -38762.19406869341, 0.758, -0.674, 0.14400000000000002, 192.0, 0.0, 0.0, 0.0, 0.0, 0.0, 0.0, 0.0, 0.0, 0.0, 1.6635918720775352E9, 0.0, 2022-09-19 17:51:12.077
74.0, -37276.47361474915, -30988.83849249345, -39612.677945217845, -36731.38162271758, -53707.46448128993, 187500.0, -37165.54190701746, -38722.11739088505, 0.758, -0.674, 0.14400000000000002, 192.0, 0.0, 0.0, 0.0, 0.0, 0.0, 0.0, 0.0, 0.0, 0.0, 1.6635918720816364E9, 0.0, 2022-09-19 17:51:12.081
75.0, -37268.09171057841, -30974.42161731978, -39580.82670936903, -36723.960843558416, -53693.85226891664, 187500.0, -37101.10182775281, -38718.65287049447, 0.758, -0.674, 0.14400000000000002, 192.0, 0.0, 0.0, 0.0, 0.0, 0.0, 0.0, 0.0, 0.0, 0.0, 1.6635918720856192E9, 0.0, 2022-09-19 17:51:12.085
76.0, -37249.51741093605, -30977.70732375471, -39568.82382259653, -36738.46712570991, -53699.10492886364, 187500.0, -36935.34129087225, -38742.792754506205, 0.758, -0.674, 0.14400000000000002, 192.0, 0.0, 0.0, 0.0, 0.0, 0.0, 0.0, 0.0, 0.0, 0.0, 1.6635918720895836E9, 0.0, 2022-09-19 17:51:12.089
77.0, -37245.4940969341, -30993.42060010679, -39579.17268027934, -36768.77609119131, -53724.697676264965, 187500.0, -36766.317399301224, -38779.51667064628, 0.758, -0.674, 0.14400000000000002, 192.0, 0.0, 0.0, 0.0, 0.0, 0.0, 0.0, 0.0, 0.0, 0.0, 1.6635918720946116E9, 0.0, 2022-09-19 17:51:12.094
78.0, -37272.20443155819, -31003.747106045143, -39619.517579021165, -36758.44958525295, -53738.55575782726, 187500.0, -36968.64539011066, -38759.6012663366, 0.758, -0.674, 0.14400000000000002, 192.0, 0.0, 0.0, 0.0, 0.0, 0.0, 0.0, 0.0, 0.0, 0.0, 1.6635918720976355E9, 0.0, 2022-09-19 17:51:12.097
79.0, -37269.164594312264, -30986.826835492473, -39611.35919229498, -36721.3680412016, -53709.36437956863, 187500.0, -37160.64687498175, -38718.16113211645, 0.76, -0.676, 0.152, 192.0, 23.0, 192.0, 234.0, 224.0, 4.0, 192.0, 0.0, 0.0, 0.0, 1.6635918721006222E9, 0.0, 2022-09-19 17:51:12.100
80.0, -37255.127698794335, -30979.94249820024, -39592.44961648579, -36723.75967785832, -53698.970818396905, 187500.0, -37091.13294972575, -38725.42544906443, 0.76, -0.676, 0.152, 192.0, 0.0, 0.0, 0.0, 0.0, 0.0, 0.0, 0.0, 0.0, 0.0, 1.6635918721056328E9, 0.0, 2022-09-19 17:51:12.105
81.0, -37251.43966095921, -30981.440065078747, -39570.991941808694, -36739.38354723257, -53704.15642311054, 187500.0, -36926.04296517884, -38749.02889120924, 0.76, -0.676, 0.152, 192.0, 0.0, 0.0, 0.0, 0.0, 0.0, 0.0, 0.0, 0.0, 0.0, 1.6635918721095471E9, 0.0, 2022-09-19 17:51:12.109
82.0, -37265.968294855156, -31001.75780078862, -39583.95595359278, -36768.88784991358, -53731.60436530165, 187500.0, -36764.350445789154, -38783.271763714765, 0.76, -0.676, 0.152, 192.0, 0.0, 0.0, 0.0, 0.0, 0.0, 0.0, 0.0, 0.0, 0.0, 1.6635918721136217E9, 0.0, 2022-09-19 17:51:12.113
83.0, -37279.155824083784, -31013.38070790538, -39622.378602311444, -36756.63909395207, -53741.50618809536, 187500.0, -36967.68426509908, -38756.8967052575, 0.76, -0.676, 0.152, 192.0, 0.0, 0.0, 0.0, 0.0, 0.0, 0.0, 0.0, 0.0, 0.0, 1.6635918721176236E9, 0.0, 2022-09-19 17:51:12.117
84.0, -37267.10823382238, -30995.812236763508, -39610.12984634994, -36722.37386970209, -53711.48779529188, 187500.0, -37161.31742731541, -38716.26123383775, 0.76, -0.676, 0.152, 192.0, 0.0, 0.0, 0.0, 0.0, 0.0, 0.0, 0.0, 0.0, 0.0, 1.6635918721216004E9, 0.0, 2022-09-19 17:51:12.121
85.0, -37253.83129761592, -30983.51877731309, -39581.36315123596, -36716.74123009935, -53693.181716582985, 187500.0, -37087.02022874597, -38716.931786171415, 0.76, -0.676, 0.152, 192.0, 0.0, 0.0, 0.0, 0.0, 0.0, 0.0, 0.0, 0.0, 0.0, 1.6635918721255925E9, 0.0, 2022-09-19 17:51:12.125
86.0, -37240.040271287, -30984.435198835756, -39569.49437493019, -36732.16393377351, -53697.54030675177, 187500.0, -36918.48807555295, -38740.71404227186, 0.76, -0.676, 0.152, 192.0, 0.0, 0.0, 0.0, 0.0, 0.0, 0.0, 0.0, 0.0, 0.0, 1.66359187212865E9, 0.0, 2022-09-19 17:51:12.128
87.0, -37253.11604179336, -31005.110562456917, -39578.345665734494, -36765.87036441211, -53728.49747282237, 187500.0, -36756.90731488554, -38780.880127058044, 0.76, -0.676, 0.152, 192.0, 0.0, 0.0, 0.0, 0.0, 0.0, 0.0, 0.0, 0.0, 0.0, 1.663591872133686E9, 0.0, 2022-09-19 17:51:12.133
88.0, -37287.67183872126, -31019.61684460841, -39612.36502079547, -36753.107518328135, -53736.99113571538, 187500.0, -36962.94569527456, -38754.37095813405, 0.76, -0.676, 0.152, 192.0, 0.0, 0.0, 0.0, 0.0, 0.0, 0.0, 0.0, 0.0, 0.0, 1.6635918721376767E9, 0.0, 2022-09-19 17:51:12.137
89.0, -37282.3521235409, -31004.127085700882, -39599.55747122258, -36715.914215554505, -53699.23903933037, 187500.0, -37149.761575432014, -38710.919166912936, 0.76, -0.678, 0.148, 192.0, 23.0, 192.0, 234.0, 208.0, 4.0, 160.0, 0.0, 0.0, 0.0, 1.663591872141644E9, 0.0, 2022-09-19 17:51:12.141
90.0, -37264.71659716566, -30992.258309395114, -39572.78008136512, -36710.72861084087, -53682.36347226662, 187500.0, -37074.92793499565, -38713.33315531411, 0.76, -0.678, 0.148, 192.0, 0.0, 0.0, 0.0, 0.0, 0.0, 0.0, 0.0, 0.0, 0.0, 1.6635918721455977E9, 0.0, 2022-09-19 17:51:12.145
91.0, -37256.98289358412, -30992.19125416175, -39561.425395181825, -36729.63818665006, -53689.136050836576, 187500.0, -36910.888482438146, -38743.82093475115, 0.76, -0.678, 0.148, 192.0, 0.0, 0.0, 0.0, 0.0, 0.0, 0.0, 0.0, 0.0, 0.0, 1.6635918721507087E9, 0.0, 2022-09-19 17:51:12.150
92.0, -37261.967332597655, -31004.372954889892, -39568.95793306326, -36752.59342820566, -53711.04076040277, 187500.0, -36751.18526830498, -38764.78687105022, 0.76, -0.678, 0.148, 192.0, 0.0, 0.0, 0.0, 0.0, 0.0, 0.0, 0.0, 0.0, 0.0, 1.6635918721536343E9, 0.0, 2022-09-19 17:51:12.153
93.0, -37289.28116432204, -31002.47305661119, -39598.28342178863, -36735.919026842006, -53717.58982152818, 187500.0, -36959.36941616171, -38735.729603258325, 0.76, -0.678, 0.148, 192.0, 0.0, 0.0, 0.0, 0.0, 0.0, 0.0, 0.0, 0.0, 0.0, 1.6635918721567044E9, 0.0, 2022-09-19 17:51:12.156
94.0, -37277.546498483, -30969.258364350604, -39589.5438897066, -36703.24077644834, -53687.01263511332, 187500.0, -37144.91124688521, -38699.36331502954, 0.76, -0.678, 0.148, 192.0, 0.0, 0.0, 0.0, 0.0, 0.0, 0.0, 0.0, 0.0, 0.0, 1.663591872161702E9, 0.0, 2022-09-19 17:51:12.161
95.0, -37251.17144002574, -30948.538297240535, -39565.02402603913, -36705.431247404966, -53675.94852160794, 187500.0, -37070.05525470439, -38706.94055639989, 0.76, -0.678, 0.148, 192.0, 0.0, 0.0, 0.0, 0.0, 0.0, 0.0, 0.0, 0.0, 0.0, 1.6635918721657283E9, 0.0, 2022-09-19 17:51:12.165
96.0, -37243.303625977474, -30949.6558844633, -39551.47886889921, -36725.45841043692, -53685.693882190455, 187500.0, -36900.405514288606, -38732.645062523494, 0.76, -0.678, 0.148, 192.0, 0.0, 0.0, 0.0, 0.0, 0.0, 0.0, 0.0, 0.0, 0.0, 1.6635918721697445E9, 0.0, 2022-09-19 17:51:12.169
97.0, -37258.5922191849, -30964.519794526077, -39561.291284715095, -36753.97923636189, -53713.56650752622, 187500.0, -36745.46322172442, -38766.37384490655, 0.76, -0.678, 0.148, 192.0, 0.0, 0.0, 0.0, 0.0, 0.0, 0.0, 0.0, 0.0, 0.0, 1.6635918721727805E9, 0.0, 2022-09-19 17:51:12.172
98.0, -37281.79332992951, -30972.946402185727, -39599.55747122258, -36740.165858288514, -53724.854138476156, 187500.0, -36961.44812839605, -38738.50121957078, 0.76, -0.678, 0.148, 192.0, 0.0, 0.0, 0.0, 0.0, 0.0, 0.0, 0.0, 0.0, 0.0, 1.6635918721777456E9, 0.0, 2022-09-19 17:51:12.177
99.0, -37276.160690326775, -30954.88619266584, -39589.07450307304, -36701.989078758845, -53693.449937516445, 187500.0, -37145.67120619669, -38695.34000102759, 0.762, -0.674, 0.148, 192.0, 23.0, 208.0, 234.0, 240.0, 4.0, 160.0, 0.0, 0.0, 0.0, 1.6635918721817005E9, 0.0, 2022-09-19 17:51:12.181
100.0, -37242.677777132725, -30940.759890170088, -39563.54881090508, -36698.52455836828, -53676.30614951922, 187500.0, -37066.635437802724, -38700.95028888587, 0.762, -0.674, 0.148, 192.0, 0.0, 0.0, 0.0, 0.0, 0.0, 0.0, 0.0, 0.0, 0.0, 1.663591872185724E9, 0.0, 2022-09-19 17:51:12.185
101.0, -37253.026634815535, -30949.58882922993, -39560.55367714807, -36722.82090459119, -53687.59378046916, 187500.0, -36901.813674189296, -38737.22717013683, 0.762, -0.674, 0.148, 192.0, 0.0, 0.0, 0.0, 0.0, 0.0, 0.0, 0.0, 0.0, 0.0, 1.663591872189712E9, 0.0, 2022-09-19 17:51:12.189
102.0, -37259.62039942985, -30963.290448581036, -39567.8403458405, -36746.111422313625, -53709.118510379616, 187500.0, -36742.80336413424, -38763.53517336073, 0.762, -0.674, 0.148, 192.0, 0.0, 0.0, 0.0, 0.0, 0.0, 0.0, 0.0, 0.0, 0.0, 1.6635918721926951E9, 0.0, 2022-09-19 17:51:12.192
103.0, -37276.6971321937, -30974.64513476433, -39596.74115142121, -36727.023032548794, -53713.61121101514, 187500.0, -36956.955427760535, -38731.01338517826, 0.762, -0.674, 0.148, 192.0, 0.0, 0.0, 0.0, 0.0, 0.0, 0.0, 0.0, 0.0, 0.0, 1.66359187219668E9, 0.0, 2022-09-19 17:51:12.196
104.0, -37267.24234428911, -30954.5062130101, -39576.98220932272, -36691.081427464655, -53680.88825713257, 187500.0, -37141.13380207227, -38691.964887614835, 0.762, -0.674, 0.148, 192.0, 0.0, 0.0, 0.0, 0.0, 0.0, 0.0, 0.0, 0.0, 0.0, 1.6635918722007911E9, 0.0, 2022-09-19 17:51:12.200
105.0, -37246.18700101221, -30941.31868378147, -39549.69072934279, -36689.67326756397, -53666.5160854478, 187500.0, -37067.95419072559, -38696.61405046154, 0.762, -0.674, 0.148, 192.0, 0.0, 0.0, 0.0, 0.0, 0.0, 0.0, 0.0, 0.0, 0.0, 1.663591872205788E9, 0.0, 2022-09-19 17:51:12.205
106.0, -37237.648634630285, -30947.30895129549, -39535.87735126941, -36705.96768927189, -53670.11471630511, 187500.0, -36896.18103458655, -38714.80837044816, 0.762, -0.674, 0.148, 192.0, 0.0, 0.0, 0.0, 0.0, 0.0, 0.0, 0.0, 0.0, 0.0, 1.6635918722097733E9, 0.0, 2022-09-19 17:51:12.209
107.0, -37248.265713246554, -30972.052332407515, -39550.76361307664, -36738.981215832384, -53698.3226178077, 187500.0, -36742.44573622295, -38753.9462749894, 0.762, -0.674, 0.148, 192.0, 0.0, 0.0, 0.0, 0.0, 0.0, 0.0, 0.0, 0.0, 0.0, 1.6635918722137213E9, 0.0, 2022-09-19 17:51:12.213
108.0, -37272.673818191746, -30980.568347044988, -39578.54683143459, -36720.96570980141, -53700.84836493115, 187500.0, -36955.68137832658, -38723.27968159672, 0.762, -0.674, 0.148, 192.0, 0.0, 0.0, 0.0, 0.0, 0.0, 0.0, 0.0, 0.0, 0.0, 1.6635918722178335E9, 0.0, 2022-09-19 17:51:12.217
109.0, -37274.23844030362, -30968.811329461496, -39570.05316854157, -36695.015334488795, -53674.920341362995, 187500.0, -37141.53613347246, -38694.133006827, 0.762, -0.674, 0.146, 192.0, 23.0, 208.0, 234.0, 240.0, 4.0, 144.0, 0.0, 0.0, 0.0, 1.6635918722218552E9, 0.0, 2022-09-19 17:51:12.221
110.0, -37254.23362901612, -30957.724864211665, -39550.808316565555, -36697.183453700956, -53667.790134881754, 187500.0, -37068.445929103604, -38702.64902146447, 0.762, -0.674, 0.146, 192.0, 0.0, 0.0, 0.0, 0.0, 0.0, 0.0, 0.0, 0.0, 0.0, 1.663591872224841E9, 0.0, 2022-09-19 17:51:12.224
111.0, -37239.101498019874, -30958.015436889582, -39541.375880405416, -36711.93560504146, -53676.57437045269, 187500.0, -36897.56684274279, -38724.553731030675, 0.762, -0.674, 0.146, 192.0, 0.0, 0.0, 0.0, 0.0, 0.0, 0.0, 0.0, 0.0, 0.0, 1.6635918722288468E9, 0.0, 2022-09-19 17:51:12.228
112.0, -37249.65152140278, -30975.203928375715, -39550.517743887634, -36738.60123617664, -53702.122414365105, 187500.0, -36745.70909091343, -38755.89087675701, 0.762, -0.674, 0.146, 192.0, 0.0, 0.0, 0.0, 0.0, 0.0, 0.0, 0.0, 0.0, 0.0, 1.66359187223286E9, 0.0, 2022-09-19 17:51:12.232
113.0, -37278.46292000567, -30992.213605906203, -39584.850023370986, -36720.49632316784, -53706.90568767854, 187500.0, -36964.867945297716, -38723.32438508563, 0.762, -0.674, 0.146, 192.0, 0.0, 0.0, 0.0, 0.0, 0.0, 0.0, 0.0, 0.0, 0.0, 1.6635918722378404E9, 0.0, 2022-09-19 17:51:12.237
114.0, -37271.556230968985, -30975.852128964918, -39571.03664529761, -36685.53819483974, -53675.32267276319, 187500.0, -37143.413680006706, -38685.7287509118, 0.762, -0.674, 0.146, 192.0, 0.0, 0.0, 0.0, 0.0, 0.0, 0.0, 0.0, 0.0, 0.0, 1.6635918722418709E9, 0.0, 2022-09-19 17:51:12.241
115.0, -37260.53682095252, -30968.31959108348, -39554.87633405642, -36693.964802499395, -53671.075841316684, 187500.0, -37070.077606448845, -38700.32444004112, 0.762, -0.674, 0.146, 192.0, 0.0, 0.0, 0.0, 0.0, 0.0, 0.0, 0.0, 0.0, 0.0, 1.663591872245836E9, 0.0, 2022-09-19 17:51:12.245
116.0, -37250.94792258119, -30976.723846998677, -39544.70629032925, -36716.674174865984, -53683.324597278195, 187500.0, -36898.34915379872, -38732.48860031231, 0.762, -0.674, 0.146, 192.0, 0.0, 0.0, 0.0, 0.0, 0.0, 0.0, 0.0, 0.0, 0.0, 1.6635918722489736E9, 0.0, 2022-09-19 17:51:12.248
117.0, -37254.25598076057, -31003.121257200393, -39554.63046486741, -36746.0220153358, -53711.979533669895, 187500.0, -36750.291198526764, -38767.91611527397, 0.762, -0.674, 0.146, 192.0, 0.0, 0.0, 0.0, 0.0, 0.0, 0.0, 0.0, 0.0, 0.0, 1.663591872252932E9, 0.0, 2022-09-19 17:51:12.252
118.0, -37279.82637641745, -31008.32921365848, -39586.7946251386, -36725.05607903672, -53715.466405804924, 187500.0, -36973.0263320239, -38734.20968463537, 0.762, -0.674, 0.146, 192.0, 0.0, 0.0, 0.0, 0.0, 0.0, 0.0, 0.0, 0.0, 0.0, 1.6635918722568405E9, 0.0, 2022-09-19 17:51:12.256
119.0, -37262.7943471425, -30978.42257957728, -39575.95402907777, -36692.24371817633, -53683.23519030037, 187500.0, -37148.95691263162, -38696.14466382798, 0.76, -0.678, 0.15, 192.0, 23.0, 192.0, 234.0, 208.0, 4.0, 176.0, 0.0, 0.0, 0.0, 1.6635918722609067E9, 0.0, 2022-09-19 17:51:12.260
120.0, -37245.695262634195, -30969.70539923971, -39551.38946192139, -36694.90357576652, -53675.59089369666, 187500.0, -37074.3020861509, -38704.50421625426, 0.76, -0.678, 0.15, 192.0, 0.0, 0.0, 0.0, 0.0, 0.0, 0.0, 0.0, 0.0, 0.0, 1.663591872265873E9, 0.0, 2022-09-19 17:51:12.265
121.0, -37238.02861428602, -30977.282640610058, -39537.08434546999, -36715.154256243026, -53686.453841501934, 187500.0, -36904.026496890365, -38733.31561485715, 0.76, -0.678, 0.15, 192.0, 0.0, 0.0, 0.0, 0.0, 0.0, 0.0, 0.0, 0.0, 0.0, 1.6635918722698667E9, 0.0, 2022-09-19 17:51:12.269
122.0, -37250.67970164773, -30996.214568163705, -39553.311711944545, -36746.737271158374, -53718.550946539755, 187500.0, -36756.14735557406, -38769.77131006376, 0.76, -0.678, 0.15, 192.0, 0.0, 0.0, 0.0, 0.0, 0.0, 0.0, 0.0, 0.0, 0.0, 1.6635918722738676E9, 0.0, 2022-09-19 17:51:12.273
123.0, -37282.732103196635, -31004.46236186771, -39593.79072115311, -36729.66053839452, -53728.92215596702, 187500.0, -36983.308134473344, -38734.9919956913, 0.76, -0.678, 0.15, 192.0, 0.0, 0.0, 0.0, 0.0, 0.0, 0.0, 0.0, 0.0, 0.0, 1.6635918722768643E9, 0.0, 2022-09-19 17:51:12.276
124.0, -37270.572754212946, -30986.022172692083, -39584.96178209326, -36697.876357779074, -53697.76382419632, 187500.0, -37157.249409824544, -38695.36235277204, 0.76, -0.678, 0.15, 192.0, 0.0, 0.0, 0.0, 0.0, 0.0, 0.0, 0.0, 0.0, 0.0, 1.6635918722809408E9, 0.0, 2022-09-19 17:51:12.280
125.0, -37251.46201270366, -30983.675239524277, -39563.61586613845, -36708.5157881398, -53694.14284159456, 187500.0, -37081.9016792657, -38713.13198961401, 0.76, -0.678, 0.15, 192.0, 0.0, 0.0, 0.0, 0.0, 0.0, 0.0, 0.0, 0.0, 0.0, 1.66359187228496E9, 0.0, 2022-09-19 17:51:12.284
126.0, -37244.53297192252, -30984.36814360239, -39556.93269454631, -36727.581826160174, -53703.91055392153, 187500.0, -36908.20627310351, -38742.591588806106, 0.76, -0.678, 0.15, 192.0, 0.0, 0.0, 0.0, 0.0, 0.0, 0.0, 0.0, 0.0, 0.0, 1.663591872288859E9, 0.0, 2022-09-19 17:51:12.288
127.0, -37254.88182960532, -31000.081419954473, -39575.283476744116, -36756.527335229795, -53734.17481591402, 187500.0, -36761.489422498875, -38776.968571778365, 0.76, -0.678, 0.15, 192.0, 0.0, 0.0, 0.0, 0.0, 0.0, 0.0, 0.0, 0.0, 0.0, 1.6635918722938964E9, 0.0, 2022-09-19 17:51:12.293
128.0, -37286.59895498741, -31008.820952036498, -39607.38058178194, -36737.573055931694, -53739.53923458329, 187500.0, -36987.55496591985, -38744.17856266243, 0.76, -0.678, 0.15, 192.0, 0.0, 0.0, 0.0, 0.0, 0.0, 0.0, 0.0, 0.0, 0.0, 1.6635918722979224E9, 0.0, 2022-09-19 17:51:12.297
129.0, -37280.74279794011, -30985.709248269708, -39589.23096528423, -36703.48664563736, -53706.190431855975, 187500.0, -37157.29411331345, -38706.20294883286, 0.76, -0.68, 0.148, 192.0, 23.0, 192.0, 234.0, 192.0, 4.0, 160.0, 0.0, 0.0, 0.0, 1.663591872301928E9, 0.0, 2022-09-19 17:51:12.301
130.0, -37247.32693997943, -30969.683047495255, -39567.080386529015, -36701.653802592016, -53692.689978204966, 187500.0, -37074.07856870635, -38712.461437280355, 0.76, -0.68, 0.148, 192.0, 0.0, 0.0, 0.0, 0.0, 0.0, 0.0, 0.0, 0.0, 0.0, 1.6635918723049297E9, 0.0, 2022-09-19 17:51:12.304
131.0, -37233.55826539496, -30962.217564847182, -39555.613941623444, -36720.27280572329, -53698.25556257434, 187500.0, -36898.237395076445, -38740.33406261612, 0.76, -0.68, 0.148, 192.0, 0.0, 0.0, 0.0, 0.0, 0.0, 0.0, 0.0, 0.0, 0.0, 1.663591872308918E9, 0.0, 2022-09-19 17:51:12.308
132.0, -37244.19769575568, -30971.918221940785, -39568.64500864089, -36750.581771204685, -53725.83761523219, 187500.0, -36754.80625090674, -38771.29122868672, 0.76, -0.68, 0.148, 192.0, 0.0, 0.0, 0.0, 0.0, 0.0, 0.0, 0.0, 0.0, 0.0, 1.6635918723128831E9, 0.0, 2022-09-19 17:51:12.312
133.0, -37277.41238801627, -30978.46728306619, -39605.65949745888, -36733.21446576291, -53732.2302141464, 187500.0, -36984.291611229375, -38740.15524866048, 0.76, -0.68, 0.148, 192.0, 0.0, 0.0, 0.0, 0.0, 0.0, 0.0, 0.0, 0.0, 0.0, 1.6635918723169131E9, 0.0, 2022-09-19 17:51:12.316
134.0, -37268.42698674524, -30956.36140779989, -39590.66147692937, -36699.97742175787, -53699.753129452845, 187500.0, -37152.37672953329, -38703.1854633314, 0.76, -0.68, 0.148, 192.0, 0.0, 0.0, 0.0, 0.0, 0.0, 0.0, 0.0, 0.0, 0.0, 1.6635918723219872E9, 0.0, 2022-09-19 17:51:12.321
135.0, -37244.46591668915, -30945.967846628173, -39569.896706330386, -36705.34184042714, -53690.20893457043, 187500.0, -37071.262248904975, -38716.12712337102, 0.76, -0.68, 0.148, 192.0, 0.0, 0.0, 0.0, 0.0, 0.0, 0.0, 0.0, 0.0, 0.0, 1.6635918723270032E9, 0.0, 2022-09-19 17:51:12.327
136.0, -37239.28031197552, -30946.593695472922, -39557.379729435415, -36722.73149761337, -53693.82991717219, 187500.0, -36894.035267118845, -38739.73056551583, 0.76, -0.68, 0.148, 192.0, 0.0, 0.0, 0.0, 0.0, 0.0, 0.0, 0.0, 0.0, 0.0, 1.6635918723310838E9, 0.0, 2022-09-19 17:51:12.331
137.0, -37250.38912896981, -30960.74234971313, -39574.299999988085, -36746.98314034738, -53720.33908609618, 187500.0, -36750.64882643805, -38766.485603628826, 0.76, -0.68, 0.148, 192.0, 0.0, 0.0, 0.0, 0.0, 0.0, 0.0, 0.0, 0.0, 0.0, 1.663591872334058E9, 0.0, 2022-09-19 17:51:12.334
138.0, -37272.22678330264, -30971.337076584947, -39600.093913089506, -36729.66053839452, -53724.72002800942, 187500.0, -36982.10114027275, -38735.61784453605, 0.76, -0.68, 0.148, 192.0, 0.0, 0.0, 0.0, 0.0, 0.0, 0.0, 0.0, 0.0, 0.0, 1.66359187233717E9, 0.0, 2022-09-19 17:51:12.337
139.0, -37262.57082969795, -30956.719035711176, -39580.67024715785, -36698.278689179264, -53692.08648110467, 187500.0, -37145.67120619669, -38698.62570746252, 0.758, -0.674, 0.152, 192.0, 23.0, 176.0, 234.0, 240.0, 4.0, 192.0, 0.0, 0.0, 0.0, 1.6635918723410375E9, 0.0, 2022-09-19 17:51:12.341
140.0, -37240.55436140947, -30943.576209971456, -39559.324331203024, -36696.22232868938, -53680.53062922128, 187500.0, -37061.58394355583, -38705.82296917713, 0.758, -0.674, 0.152, 192.0, 0.0, 0.0, 0.0, 0.0, 0.0, 0.0, 0.0, 0.0, 0.0, 1.6635918723450365E9, 0.0, 2022-09-19 17:51:12.345
141.0, -37238.050966030474, -30951.46637576418, -39552.484697399705, -36720.33986095666, -53689.20310606994, 187500.0, -36888.76025542739, -38734.92494045794, 0.758, -0.674, 0.152, 192.0, 0.0, 0.0, 0.0, 0.0, 0.0, 0.0, 0.0, 0.0, 0.0, 1.6635918723490295E9, 0.0, 2022-09-19 17:51:12.349
142.0, -37251.37260572584, -30970.21948936218, -39565.91809581734, -36747.74309965886, -53713.63356275959, 187500.0, -36750.53706771578, -38763.51282161627, 0.758, -0.674, 0.152, 192.0, 0.0, 0.0, 0.0, 0.0, 0.0, 0.0, 0.0, 0.0, 0.0, 1.6635918723540623E9, 0.0, 2022-09-19 17:51:12.354
143.0, -37282.01684737406, -30977.774378988073, -39600.45154100079, -36732.78978261826, -53721.411969830035, 187500.0, -36984.51512867393, -38737.16011490347, 0.758, -0.674, 0.152, 192.0, 0.0, 0.0, 0.0, 0.0, 0.0, 0.0, 0.0, 0.0, 0.0, 1.66359187235805E9, 0.0, 2022-09-19 17:51:12.358
144.0, -37269.47751873464, -30948.024207118062, -39583.531270448126, -36699.08335197966, -53688.53255373628, 187500.0, -37144.55361897393, -38699.81034991865, 0.758, -0.674, 0.152, 192.0, 0.0, 0.0, 0.0, 0.0, 0.0, 0.0, 0.0, 0.0, 0.0, 1.6635918723610904E9, 0.0, 2022-09-19 17:51:12.361
145.0, -37235.614625884846, -30930.25457027609, -39557.580895135514, -36691.930793753956, -53672.551056450735, 187500.0, -37059.57228655485, -38701.956117386355, 0.758, -0.674, 0.152, 192.0, 0.0, 0.0, 0.0, 0.0, 0.0, 0.0, 0.0, 0.0, 0.0, 1.6635918723650296E9, 0.0, 2022-09-19 17:51:12.365
146.0, -37208.25609067155, -30928.153506297294, -39543.11931647293, -36709.74513408484, -53681.53645772177, 187500.0, -36880.64657219012, -38728.06295491016, 0.758, -0.674, 0.152, 192.0, 0.0, 0.0, 0.0, 0.0, 0.0, 0.0, 0.0, 0.0, 0.0, 1.6635918723691E9, 0.0, 2022-09-19 17:51:12.369
147.0, -37234.67585261773, -30953.299218809512, -39564.33112196101, -36746.44669848045, -53714.79585347127, 187500.0, -36748.30189327025, -38764.116318716566, 0.758, -0.674, 0.152, 192.0, 0.0, 0.0, 0.0, 0.0, 0.0, 0.0, 0.0, 0.0, 0.0, 1.663591872373107E9, 0.0, 2022-09-19 17:51:12.373
148.0, -37268.404635000785, -30963.893945681328, -39595.91413687637, -36722.84325633565, -53718.99798142886, 187500.0, -36982.14584376167, -38725.313690342155, 0.758, -0.674, 0.152, 192.0, 0.0, 0.0, 0.0, 0.0, 0.0, 0.0, 0.0, 0.0, 0.0, 1.6635918723770986E9, 0.0, 2022-09-19 17:51:12.377
149.0, -37251.059681303464, -30946.146660583814, -39577.161023278364, -36686.342857640135, -53684.218667056404, 187500.0, -37139.54682821594, -38689.662657935936, 0.762, -0.676, 0.15, 192.0, 23.0, 208.0, 234.0, 224.0, 4.0, 176.0, 0.0, 0.0, 0.0, 1.6635918723821137E9, 0.0, 2022-09-19 17:51:12.382
150.0, -37236.68750961871, -30941.721015181665, -39560.44191842579, -36691.55081409822, -53679.59185595415, 187500.0, -37058.253533631985, -38699.92210864092, 0.762, -0.676, 0.15, 192.0, 0.0, 0.0, 0.0, 0.0, 0.0, 0.0, 0.0, 0.0, 0.0, 1.663591872386118E9, 0.0, 2022-09-19 17:51:12.386
151.0, -37229.78082058201, -30942.056291348494, -39540.14653446037, -36709.14163698455, -53685.76093742382, 187500.0, -36879.17135705607, -38726.654795009475, 0.762, -0.676, 0.15, 192.0, 0.0, 0.0, 0.0, 0.0, 0.0, 0.0, 0.0, 0.0, 0.0, 1.6635918723890913E9, 0.0, 2022-09-19 17:51:12.389
152.0, -37255.6417889168, -30966.46439629369, -39562.72179636023, -36741.08227981118, -53718.03685641728, 187500.0, -36748.771279903805, -38762.797565793706, 0.762, -0.676, 0.15, 192.0, 0.0, 0.0, 0.0, 0.0, 0.0, 0.0, 0.0, 0.0, 0.0, 1.6635918723930857E9, 0.0, 2022-09-19 17:51:12.393
153.0, -37272.450300747194, -30969.392474817334, -39595.66826768735, -36717.74705859984, -53718.30507735075, 187500.0, -36984.023390295915, -38722.877350196526, 0.762, -0.676, 0.15, 192.0, 0.0, 0.0, 0.0, 0.0, 0.0, 0.0, 0.0, 0.0, 0.0, 1.6635918723971155E9, 0.0, 2022-09-19 17:51:12.397
154.0, -37247.215181257154, -30945.74432918362, -39577.988037823205, -36685.04645646172, -53684.15161182304, 187500.0, -37143.86071489581, -38685.326419511606, 0.762, -0.676, 0.15, 192.0, 0.0, 0.0, 0.0, 0.0, 0.0, 0.0, 0.0, 0.0, 0.0, 1.6635918724011648E9, 0.0, 2022-09-19 17:51:12.401
155.0, -37226.29394844698, -30939.664654691776, -39551.992959021685, -36689.40504663051, -53673.80275414023, 187500.0, -37059.795803999405, -38694.26711729373, 0.762, -0.676, 0.15, 192.0, 0.0, 0.0, 0.0, 0.0, 0.0, 0.0, 0.0, 0.0, 0.0, 1.6635918724050972E9, 0.0, 2022-09-19 17:51:12.405
156.0, -37219.27550068802, -30945.543163483522, -39541.44293563878, -36709.52161664029, -53684.084556589674, 187500.0, -36881.76415941288, -38725.22428336433, 0.762, -0.676, 0.15, 192.0, 0.0, 0.0, 0.0, 0.0, 0.0, 0.0, 0.0, 0.0, 0.0, 1.6635918724101248E9, 0.0, 2022-09-19 17:51:12.410
157.0, -37240.867285831846, -30963.60337300341, -39561.67126437083, -36736.544875686755, -53711.89012669207, 187500.0, -36750.60412294914, -38755.6003040791, 0.762, -0.676, 0.15, 192.0, 0.0, 0.0, 0.0, 0.0, 0.0, 0.0, 0.0, 0.0, 0.0, 1.663591872414191E9, 0.0, 2022-09-19 17:51:12.414
158.0, -37274.03727460352, -30975.181576631257, -39594.282459531125, -36719.87047432309, -53718.707408750946, 187500.0, -36990.97478282151, -38727.01242292076, 0.762, -0.676, 0.15, 192.0, 0.0, 0.0, 0.0, 0.0, 0.0, 0.0, 0.0, 0.0, 0.0, 1.663591872417133E9, 0.0, 2022-09-19 17:51:12.417
159.0, -37256.580562183924, -30952.31574205348, -39578.1892035233, -36684.35355238361, -53688.19727756945, 187500.0, -37146.45351725263, -38692.92601262641, 0.76, -0.672, 0.148, 192.0, 23.0, 192.0, 235.0, 0.0, 4.0, 160.0, 0.0, 0.0, 0.0, 1.6635918724211483E9, 0.0, 2022-09-19 17:51:12.421
160.0, -37235.23464622911, -30944.112651838383, -39559.99488353669, -36688.086293707645, -53682.966969366906, 187500.0, -37061.80746100038, -38702.112579597546, 0.76, -0.672, 0.148, 192.0, 0.0, 0.0, 0.0, 0.0, 0.0, 0.0, 0.0, 0.0, 0.0, 1.6635918724250855E9, 0.0, 2022-09-19 17:51:12.425
161.0, -37223.1870559677, -30948.806518174, -39549.80248806506, -36715.489532409854, -53694.791042183766, 187500.0, -36881.875918135156, -38737.070707925646, 0.76, -0.672, 0.148, 192.0, 0.0, 0.0, 0.0, 0.0, 0.0, 0.0, 0.0, 0.0, 0.0, 1.6635918724292462E9, 0.0, 2022-09-19 17:51:12.429
162.0, -37233.84883807288, -30964.452739292712, -39569.20380225227, -36747.296064769755, -53723.33421985319, 187500.0, -36750.447660737955, -38767.62554259605, 0.76, -0.672, 0.148, 192.0, 0.0, 0.0, 0.0, 0.0, 0.0, 0.0, 0.0, 0.0, 0.0, 1.6635918724331515E9, 0.0, 2022-09-19 17:51:12.433
163.0, -37266.70590242218, -30973.84047196394, -39603.46902650226, -36730.0181663058, -53728.743342011374, 187500.0, -36994.88633810119, -38731.05808866717, 0.76, -0.672, 0.148, 192.0, 0.0, 0.0, 0.0, 0.0, 0.0, 0.0, 0.0, 0.0, 0.0, 1.6635918724381099E9, 0.0, 2022-09-19 17:51:12.438
164.0, -37255.6417889168, -30954.84148917693, -39580.513784946656, -36697.13875021205, -53694.32165555021, 187500.0, -37149.694520198645, -38697.03873360619, 0.76, -0.672, 0.148, 192.0, 0.0, 0.0, 0.0, 0.0, 0.0, 0.0, 0.0, 0.0, 0.0, 1.663591872442173E9, 0.0, 2022-09-19 17:51:12.442
165.0, -37238.87798057532, -30945.40905301679, -39563.77232834963, -36699.68684907995, -53684.39748101205, 187500.0, -37061.829812744836, -38709.868634923536, 0.76, -0.672, 0.148, 192.0, 0.0, 0.0, 0.0, 0.0, 0.0, 0.0, 0.0, 0.0, 0.0, 1.6635918724451988E9, 0.0, 2022-09-19 17:51:12.445
166.0, -37225.86926530233, -30948.873573407363, -39550.16011597635, -36720.65278537903, -53696.91445790702, 187500.0, -36879.640743689626, -38740.132896916024, 0.76, -0.672, 0.148, 192.0, 0.0, 0.0, 0.0, 0.0, 0.0, 0.0, 0.0, 0.0, 0.0, 1.6635918724491937E9, 0.0, 2022-09-19 17:51:12.449
167.0, -37235.189942740195, -30966.553803271512, -39560.97836029272, -36746.737271158374, -53724.96589719843, 187500.0, -36753.95688461744, -38767.62554259605, 0.76, -0.672, 0.148, 192.0, 0.0, 0.0, 0.0, 0.0, 0.0, 0.0, 0.0, 0.0, 0.0, 1.6635918724532E9, 0.0, 2022-09-19 17:51:12.453
168.0, -37264.53778321001, -30975.025114420074, -39603.06669510206, -36727.715936626904, -53729.033914689295, 187500.0, -36999.69196315908, -38734.38849859101, 0.76, -0.672, 0.148, 192.0, 0.0, 0.0, 0.0, 0.0, 0.0, 0.0, 0.0, 0.0, 0.0, 1.6635918724571257E9, 0.0, 2022-09-19 17:51:12.457
169.0, -37252.08786154841, -30953.343922298423, -39585.65468617138, -36692.556642598705, -53693.27112356081, 187500.0, -37151.370901032795, -38699.36331502954, 0.764, -0.676, 0.14200000000000002, 192.0, 23.0, 224.0, 234.0, 224.0, 4.0, 112.0, 0.0, 0.0, 0.0, 1.6635918724613433E9, 0.0, 2022-09-19 17:51:12.461
170.0, -37236.79926834098, -30946.526640239557, -39556.97739803522, -36694.50124436632, -53683.168135067004, 187500.0, -37065.13787092422, -38707.16407384445, 0.764, -0.676, 0.14200000000000002, 192.0, 0.0, 0.0, 0.0, 0.0, 0.0, 0.0, 0.0, 0.0, 0.0, 1.6635918724652278E9, 0.0, 2022-09-19 17:51:12.465
171.0, -37238.67681487522, -30954.30504731, -39548.52843863111, -36716.27184346579, -53692.35470203814, 187500.0, -36890.16841532808, -38732.82387647914, 0.764, -0.676, 0.14200000000000002, 192.0, 0.0, 0.0, 0.0, 0.0, 0.0, 0.0, 0.0, 0.0, 0.0, 1.6635918724701955E9, 0.0, 2022-09-19 17:51:12.470
172.0, -37252.91487609326, -30973.4604923082, -39563.50410741617, -36742.825715878695, -53721.63548727459, 187500.0, -36768.194945835465, -38762.86462102707, 0.764, -0.676, 0.14200000000000002, 192.0, 0.0, 0.0, 0.0, 0.0, 0.0, 0.0, 0.0, 0.0, 0.0, 1.663591872473236E9, 0.0, 2022-09-19 17:51:12.473
173.0, -37265.811832643965, -30977.819082476984, -39595.08712233152, -36719.93752955646, -53724.6306210316, 187500.0, -37009.817303397336, -38726.83360896511, 0.764, -0.676, 0.14200000000000002, 192.0, 0.0, 0.0, 0.0, 0.0, 0.0, 0.0, 0.0, 0.0, 0.0, 1.6635918724771771E9, 0.0, 2022-09-19 17:51:12.477
174.0, -37249.60681791387, -30958.59658224542, -39575.6411046554, -36685.47113960638, -53689.96306538142, 187500.0, -37155.66243596822, -38693.149530070965, 0.764, -0.676, 0.14200000000000002, 192.0, 0.0, 0.0, 0.0, 0.0, 0.0, 0.0, 0.0, 0.0, 0.0, 1.663591872481275E9, 0.0, 2022-09-19 17:51:12.481
175.0, -37236.70986136316, -30947.823041417963, -39552.97643577772, -36687.34868614062, -53682.18465831097, 187500.0, -37066.635437802724, -38702.85018716457, 0.764, -0.676, 0.14200000000000002, 192.0, 0.0, 0.0, 0.0, 0.0, 0.0, 0.0, 0.0, 0.0, 0.0, 1.6635918724852517E9, 0.0, 2022-09-19 17:51:12.485
176.0, -37225.15400947977, -30948.046558862516, -39542.73933681719, -36708.64989860653, -53691.773556682296, 187500.0, -36881.13831056813, -38732.13097240102, 0.764, -0.676, 0.14200000000000002, 192.0, 0.0, 0.0, 0.0, 0.0, 0.0, 0.0, 0.0, 0.0, 0.0, 1.663591872489247E9, 0.0, 2022-09-19 17:51:12.489
177.0, -37242.118983521344, -30967.537280027544, -39563.191182993796, -36733.77325937429, -53718.21567037293, 187500.0, -36755.476803240395, -38758.32721690264, 0.764, -0.676, 0.14200000000000002, 192.0, 0.0, 0.0, 0.0, 0.0, 0.0, 0.0, 0.0, 0.0, 0.0, 1.6635918724932115E9, 0.0, 2022-09-19 17:51:12.493
178.0, -37270.68451293522, -30977.03677142105, -39593.47779673074, -36711.17564572998, -53722.06017041924, 187500.0, -37001.30128875987, -38723.972585674834, 0.764, -0.676, 0.14200000000000002, 192.0, 0.0, 0.0, 0.0, 0.0, 0.0, 0.0, 0.0, 0.0, 0.0, 1.6635918724983752E9, 0.0, 2022-09-19 17:51:12.498
179.0, -37253.13839353781, -30955.80261418851, -39576.937505833805, -36676.46338659088, -53691.03594911528, 187500.0, -37148.26400855351, -38693.03777134869, 0.764, -0.676, 0.14200000000000002, 192.0, 0.0, 0.0, 0.0, 0.0, 0.0, 0.0, 0.0, 0.0, 0.0, 1.6635918725012465E9, 0.0, 2022-09-19 17:51:12.501
180.0, -37226.27159670253, -30938.92704712475, -39549.824839809524, -36671.70246502191, -53678.29545477575, 187500.0, -37057.94060920961, -38698.62570746252, 0.776, -0.678, 0.13, 192.0, 24.0, 64.0, 234.0, 208.0, 4.0, 16.0, 0.0, 0.0, 0.0, 1.6635918725052395E9, 0.0, 2022-09-19 17:51:12.505
181.0, -37223.36586992334, -30943.710320438186, -39536.79377279208, -36693.83069203266, -53687.169097324506, 187500.0, -36878.63491518914, -38727.88414095451, 0.776, -0.678, 0.13, 192.0, 0.0, 0.0, 0.0, 0.0, 0.0, 0.0, 0.0, 0.0, 0.0, 1.6635918725092673E9, 0.0, 2022-09-19 17:51:12.509
182.0, -37250.65734990327, -30963.581021258953, -39555.81510732354, -36720.36221270111, -53716.6286965166, 187500.0, -36758.85191665315, -38755.8461732681, 0.776, -0.678, 0.13, 192.0, 0.0, 0.0, 0.0, 0.0, 0.0, 0.0, 0.0, 0.0, 0.0, 1.6635918725132728E9, 0.0, 2022-09-19 17:51:12.513
183.0, -37264.29191402101, -30971.98527717415, -39592.673133930344, -36700.26799443579, -53721.61313553013, 187500.0, -37004.40818123915, -38718.876387939024, 0.776, -0.678, 0.13, 192.0, 0.0, 0.0, 0.0, 0.0, 0.0, 0.0, 0.0, 0.0, 0.0, 1.663591872517311E9, 0.0, 2022-09-19 17:51:12.517
184.0, -37245.404689956275, -30952.360445542392, -39575.97638082223, -36670.62958128805, -53685.89504789055, 187500.0, -37145.514743985506, -38685.549936956166, 0.776, -0.678, 0.13, 192.0, 0.0, 0.0, 0.0, 0.0, 0.0, 0.0, 0.0, 0.0, 0.0, 1.663591872521322E9, 0.0, 2022-09-19 17:51:12.521
185.0, -37234.40763168426, -30945.36434952788, -39546.963816519245, -36674.49643307882, -53678.429565242484, 187500.0, -37057.0465394314, -38696.0329051057, 0.776, -0.678, 0.13, 192.0, 0.0, 0.0, 0.0, 0.0, 0.0, 0.0, 0.0, 0.0, 0.0, 1.663591872526292E9, 0.0, 2022-09-19 17:51:12.526
186.0, -37230.74194559359, -30948.806518174, -39543.11931647293, -36698.52455836828, -53690.18658282597, 187500.0, -36878.27728727785, -38727.92884444343, 0.776, -0.678, 0.13, 192.0, 0.0, 0.0, 0.0, 0.0, 0.0, 0.0, 0.0, 0.0, 0.0, 1.6635918725293393E9, 0.0, 2022-09-19 17:51:12.529
187.0, -37244.980006811624, -30965.950306171217, -39560.26310447015, -36726.35248021513, -53716.606344772146, 187500.0, -36759.36600677562, -38755.868525012556, 0.776, -0.678, 0.13, 192.0, 0.0, 0.0, 0.0, 0.0, 0.0, 0.0, 0.0, 0.0, 0.0, 1.66359187253332E9, 0.0, 2022-09-19 17:51:12.533
188.0, -37262.101443064385, -30964.922125926274, -39586.48170071623, -36704.246604948836, -53718.21567037293, 187500.0, -37008.81147489685, -38717.84820769408, 0.776, -0.678, 0.13, 192.0, 0.0, 0.0, 0.0, 0.0, 0.0, 0.0, 0.0, 0.0, 0.0, 1.6635918725373209E9, 0.0, 2022-09-19 17:51:12.537
189.0, -37239.883809075814, -30933.249704033104, -39568.93558131881, -36668.03677893124, -53682.78815541127, 187500.0, -37146.274703296986, -38678.71030315284, 0.776, -0.678, 0.13, 192.0, 0.0, 0.0, 0.0, 0.0, 0.0, 0.0, 0.0, 0.0, 0.0, 1.6635918725413492E9, 0.0, 2022-09-19 17:51:12.541
190.0, -37220.97423326662, -30916.910578836272, -39548.17081071983, -36669.73551150984, -53672.260483772814, 187500.0, -37053.33614985182, -38685.259364278245, 0.756, -0.674, 0.132, 192.0, 23.0, 160.0, 234.0, 240.0, 4.0, 32.0, 0.0, 0.0, 0.0, 1.6635918725453691E9, 0.0, 2022-09-19 17:51:12.545
191.0, -37222.963538523145, -30922.185590527726, -39539.87831352691, -36694.389485644046, -53681.37999551058, 187500.0, -36873.58342094224, -38717.2894140827, 0.756, -0.674, 0.132, 192.0, 0.0, 0.0, 0.0, 0.0, 0.0, 0.0, 0.0, 0.0, 0.0, 1.663591872549398E9, 0.0, 2022-09-19 17:51:12.549
192.0, -37248.93626558021, -30943.777375671554, -39557.849116068974, -36722.329166213174, -53708.15738536804, 187500.0, -36760.08126259819, -38746.05610919668, 0.756, -0.674, 0.132, 192.0, 0.0, 0.0, 0.0, 0.0, 0.0, 0.0, 0.0, 0.0, 0.0, 1.663591872553374E9, 0.0, 2022-09-19 17:51:12.553
193.0, -37284.92257415326, -30956.473166522166, -39592.807244397074, -36706.750000327826, -53713.56650752622, 187500.0, -37012.387754009695, -38718.02702164972, 0.756, -0.674, 0.132, 192.0, 0.0, 0.0, 0.0, 0.0, 0.0, 0.0, 0.0, 0.0, 0.0, 1.6635918725573652E9, 0.0, 2022-09-19 17:51:12.557
194.0, -37236.97808229662, -30930.165163298272, -39570.90253483088, -36677.178642413455, -53683.70457693393, 187500.0, -37146.274703296986, -38688.14273931298, 0.756, -0.674, 0.132, 192.0, 0.0, 0.0, 0.0, 0.0, 0.0, 0.0, 0.0, 0.0, 0.0, 1.6635918725603275E9, 0.0, 2022-09-19 17:51:12.560
195.0, -37215.274538430516, -30916.463543947168, -39545.64506359638, -36674.78700575674, -53673.06514657321, 187500.0, -37053.090280662815, -38687.203966045854, 0.756, -0.674, 0.132, 192.0, 0.0, 0.0, 0.0, 0.0, 0.0, 0.0, 0.0, 0.0, 0.0, 1.6635918725654223E9, 0.0, 2022-09-19 17:51:12.565
196.0, -37215.051020985964, -30923.437288217225, -39545.04156649608, -36699.68684907995, -53687.45967000243, 187500.0, -36873.47166221996, -38721.33507982911, 0.756, -0.674, 0.132, 192.0, 0.0, 0.0, 0.0, 0.0, 0.0, 0.0, 0.0, 0.0, 0.0, 1.6635918725693572E9, 0.0, 2022-09-19 17:51:12.569
197.0, -37236.15106775177, -30942.391567515322, -39554.988092778694, -36725.05607903672, -53716.71810349442, 187500.0, -36756.48263174089, -38751.44287961041, 0.756, -0.674, 0.132, 192.0, 0.0, 0.0, 0.0, 0.0, 0.0, 0.0, 0.0, 0.0, 0.0, 1.6635918725733905E9, 0.0, 2022-09-19 17:51:12.573
198.0, -37268.114062322864, -30950.281733308046, -39582.45838671427, -36704.89480553804, -53718.752112239854, 187500.0, -37012.85714064326, -38721.15626587347, 0.756, -0.674, 0.132, 192.0, 0.0, 0.0, 0.0, 0.0, 0.0, 0.0, 0.0, 0.0, 0.0, 1.6635918725774004E9, 0.0, 2022-09-19 17:51:12.577
199.0, -37245.00235855608, -30928.578189441945, -39570.92488657533, -36677.670380791475, -53687.05733860223, 187500.0, -37148.17460157569, -38692.098998081565, 0.756, -0.674, 0.132, 192.0, 0.0, 0.0, 0.0, 0.0, 0.0, 0.0, 0.0, 0.0, 0.0, 1.6635918725813384E9, 0.0, 2022-09-19 17:51:12.581
200.0, -37228.0373845145, -30920.240988760113, -39550.11541248744, -36678.45269184741, -53679.48009723188, 187500.0, -37051.57036203985, -38701.91141389745, 0.754, -0.68, 0.14, 192.0, 23.0, 144.0, 234.0, 192.0, 4.0, 96.0, 0.0, 0.0, 0.0, 1.6635918725854487E9, 0.0, 2022-09-19 17:51:12.585
201.0, -37229.244378715084, -30924.912503351272, -39542.49346762818, -36701.92202352548, -53692.06412936022, 187500.0, -36869.984790084935, -38738.747088759796, 0.754, -0.68, 0.14, 192.0, 0.0, 0.0, 0.0, 0.0, 0.0, 0.0, 0.0, 0.0, 0.0, 1.6635918725884266E9, 0.0, 2022-09-19 17:51:12.588
202.0, -37243.01305329955, -30944.917314638773, -39562.766499849145, -36727.090087782155, -53723.55773729774, 187500.0, -36757.66727419702, -38764.65276058349, 0.754, -0.68, 0.14, 192.0, 0.0, 0.0, 0.0, 0.0, 0.0, 0.0, 0.0, 0.0, 0.0, 1.6635918725934172E9, 0.0, 2022-09-19 17:51:12.593
203.0, -37266.41532974426, -30951.93576239774, -39600.74211367871, -36707.375849172575, -53728.25160363336, 187500.0, -37012.27599528742, -38729.448763066386, 0.754, -0.68, 0.14, 192.0, 0.0, 0.0, 0.0, 0.0, 0.0, 0.0, 0.0, 0.0, 0.0, 1.6635918725974047E9, 0.0, 2022-09-19 17:51:12.597
204.0, -37246.388166712306, -30927.79587838601, -39580.06675005755, -36680.531404081754, -53697.56265849622, 187500.0, -37144.35245327383, -38700.65971620795, 0.754, -0.68, 0.14, 192.0, 0.0, 0.0, 0.0, 0.0, 0.0, 0.0, 0.0, 0.0, 0.0, 1.6635918726015112E9, 0.0, 2022-09-19 17:51:12.601
205.0, -37231.636015371805, -30922.900846350298, -39557.44678466878, -36688.153348941014, -53694.27695206129, 187500.0, -37054.05140567439, -38711.70147796887, 0.754, -0.68, 0.14, 192.0, 0.0, 0.0, 0.0, 0.0, 0.0, 0.0, 0.0, 0.0, 0.0, 1.6635918726054175E9, 0.0, 2022-09-19 17:51:12.605
206.0, -37224.148180979275, -30929.6510731758, -39550.7859648211, -36711.4662184079, -53702.5247457653, 187500.0, -36869.73892089593, -38740.132896916024, 0.754, -0.68, 0.14, 192.0, 0.0, 0.0, 0.0, 0.0, 0.0, 0.0, 0.0, 0.0, 0.0, 1.663591872609388E9, 0.0, 2022-09-19 17:51:12.609
207.0, -37235.055832273465, -30947.823041417963, -39567.16979350684, -36735.136715786066, -53728.11749316663, 187500.0, -36756.61674220762, -38764.33983616112, 0.754, -0.68, 0.14, 192.0, 0.0, 0.0, 0.0, 0.0, 0.0, 0.0, 0.0, 0.0, 0.0, 1.6635918726134396E9, 0.0, 2022-09-19 17:51:12.613
208.0, -37269.05283558999, -30957.970733400674, -39592.807244397074, -36711.37681143008, -53732.27491763532, 187500.0, -37013.41593425464, -38729.47111481084, 0.754, -0.68, 0.14, 192.0, 0.0, 0.0, 0.0, 0.0, 0.0, 0.0, 0.0, 0.0, 0.0, 1.663591872616419E9, 0.0, 2022-09-19 17:51:12.616
209.0, -37265.811832643965, -30947.241896062125, -39577.25043025618, -36686.29815415122, -53704.58110625519, 187500.0, -37150.186258576665, -38704.45951276535, 0.754, -0.68, 0.14, 192.0, 0.0, 0.0, 0.0, 0.0, 0.0, 0.0, 0.0, 0.0, 0.0, 1.663591872621542E9, 0.0, 2022-09-19 17:51:12.621
210.0, -37249.65152140278, -30938.524715724554, -39556.195086979285, -36685.426436117465, -53692.35470203814, 187500.0, -37059.594638299306, -38706.62763197751, 0.754, -0.676, 0.14, 192.0, 23.0, 144.0, 234.0, 224.0, 4.0, 96.0, 0.0, 0.0, 0.0, 1.6635918726255045E9, 0.0, 2022-09-19 17:51:12.625
211.0, -37233.51356190605, -30936.177782556748, -39541.26412168314, -36699.82095954668, -53695.46159451742, 187500.0, -36869.515403451376, -38733.31561485715, 0.754, -0.676, 0.14, 192.0, 0.0, 0.0, 0.0, 0.0, 0.0, 0.0, 0.0, 0.0, 0.0, 1.6635918726294644E9, 0.0, 2022-09-19 17:51:12.629
212.0, -37249.33859698041, -30955.199117088214, -39558.36320619145, -36723.044422035746, -53722.596612286165, 187500.0, -36761.71293994343, -38755.04151046771, 0.754, -0.676, 0.14, 192.0, 0.0, 0.0, 0.0, 0.0, 0.0, 0.0, 0.0, 0.0, 0.0, 1.6635918726335187E9, 0.0, 2022-09-19 17:51:12.633
213.0, -37272.29383853601, -30957.926029911763, -39589.47683447324, -36699.4633316354, -53721.568432041226, 187500.0, -37018.735649435, -38717.75880071626, 0.754, -0.676, 0.14, 192.0, 0.0, 0.0, 0.0, 0.0, 0.0, 0.0, 0.0, 0.0, 0.0, 1.6635918726375651E9, 0.0, 2022-09-19 17:51:12.637
214.0, -37255.46297496116, -30933.495573222113, -39571.081348786516, -36670.49547082132, -53691.080652604185, 187500.0, -37147.12406958629, -38689.34973351356, 0.754, -0.676, 0.14, 192.0, 0.0, 0.0, 0.0, 0.0, 0.0, 0.0, 0.0, 0.0, 0.0, 1.663591872641462E9, 0.0, 2022-09-19 17:51:12.641
215.0, -37226.40570716926, -30917.69288989221, -39548.774307820124, -36672.46242433339, -53685.403309512534, 187500.0, -37049.64811201669, -38699.78799817419, 0.754, -0.676, 0.14, 192.0, 0.0, 0.0, 0.0, 0.0, 0.0, 0.0, 0.0, 0.0, 0.0, 1.6635918726445093E9, 0.0, 2022-09-19 17:51:12.644
216.0, -37219.36490766584, -30918.4975526926, -39538.47015362622, -36693.5624710992, -53693.20406832744, 187500.0, -36858.98773181292, -38726.140704887, 0.754, -0.676, 0.14, 192.0, 0.0, 0.0, 0.0, 0.0, 0.0, 0.0, 0.0, 0.0, 0.0, 1.6635918726485367E9, 0.0, 2022-09-19 17:51:12.648
217.0, -37234.34057645089, -30936.98244535714, -39557.245618968685, -36717.523541155286, -53720.00380992935, 187500.0, -36754.11334682862, -38751.532286588226, 0.754, -0.676, 0.14, 192.0, 0.0, 0.0, 0.0, 0.0, 0.0, 0.0, 0.0, 0.0, 0.0, 1.663591872653589E9, 0.0, 2022-09-19 17:51:12.653
218.0, -37258.10048080689, -30947.867744906875, -39585.72174140474, -36696.267032178286, -53719.69088550698, 187500.0, -37013.95237612157, -38716.90943442696, 0.754, -0.676, 0.14, 192.0, 0.0, 0.0, 0.0, 0.0, 0.0, 0.0, 0.0, 0.0, 0.0, 1.6635918726575446E9, 0.0, 2022-09-19 17:51:12.657
219.0, -37238.050966030474, -30927.304140007993, -39564.845212083485, -36665.82395623016, -53687.59378046916, 187500.0, -37141.267912539, -38688.679181179905, 0.754, -0.676, 0.14, 192.0, 0.0, 0.0, 0.0, 0.0, 0.0, 0.0, 0.0, 0.0, 0.0, 1.6635918726615398E9, 0.0, 2022-09-19 17:51:12.661
220.0, -37230.451372915675, -30920.88918934932, -39546.65089209687, -36671.791871999725, -53686.118565335106, 187500.0, -37052.62089402925, -38705.97943138831, 0.76, -0.674, 0.14, 192.0, 23.0, 192.0, 234.0, 240.0, 4.0, 96.0, 0.0, 0.0, 0.0, 1.6635918726655304E9, 0.0, 2022-09-19 17:51:12.665
221.0, -37216.682698331206, -30920.486857949123, -39536.21262743624, -36692.08725596515, -53696.601533484645, 187500.0, -36862.87693534815, -38737.16011490347, 0.76, -0.674, 0.14, 192.0, 0.0, 0.0, 0.0, 0.0, 0.0, 0.0, 0.0, 0.0, 0.0, 1.6635918726696365E9, 0.0, 2022-09-19 17:51:12.669
222.0, -37231.05487001596, -30939.12821282485, -39554.92103754533, -36717.45648592192, -53720.87552796311, 187500.0, -36755.18623056248, -38762.55169660469, 0.76, -0.674, 0.14, 192.0, 0.0, 0.0, 0.0, 0.0, 0.0, 0.0, 0.0, 0.0, 0.0, 1.6635918726725483E9, 0.0, 2022-09-19 17:51:12.672
223.0, -37257.27346626204, -30945.52081173907, -39585.69938966029, -36693.607174588105, -53717.25454536135, 187500.0, -37012.410105754156, -38721.33507982911, 0.76, -0.674, 0.14, 192.0, 0.0, 0.0, 0.0, 0.0, 0.0, 0.0, 0.0, 0.0, 0.0, 1.663591872676541E9, 0.0, 2022-09-19 17:51:12.676
224.0, -37234.07235551743, -30922.431459716736, -39560.799546337075, -36663.72289225136, -53683.70457693393, 187500.0, -37132.88600836826, -38689.21562304683, 0.76, -0.674, 0.14, 192.0, 0.0, 0.0, 0.0, 0.0, 0.0, 0.0, 0.0, 0.0, 0.0, 1.6635918726815753E9, 0.0, 2022-09-19 17:51:12.681
225.0, -37212.21234944014, -30911.322642722447, -39538.44780188177, -36669.51199406529, -53672.8192773842, 187500.0, -37039.43336480062, -38700.30208829667, 0.76, -0.674, 0.14, 192.0, 0.0, 0.0, 0.0, 0.0, 0.0, 0.0, 0.0, 0.0, 0.0, 1.6635918726855865E9, 0.0, 2022-09-19 17:51:12.685
226.0, -37207.67494531572, -30918.855180603885, -39530.64704306687, -36692.489587365344, -53683.034024600274, 187500.0, -36853.17627825454, -38730.74516424479, 0.76, -0.674, 0.14, 192.0, 0.0, 0.0, 0.0, 0.0, 0.0, 0.0, 0.0, 0.0, 0.0, 1.6635918726896183E9, 0.0, 2022-09-19 17:51:12.689
227.0, -37228.55147463697, -30940.73753842563, -39558.51966840264, -36717.47883766638, -53714.46057730444, 187500.0, -36754.98506486238, -38755.15326918999, 0.76, -0.674, 0.14, 192.0, 0.0, 0.0, 0.0, 0.0, 0.0, 0.0, 0.0, 0.0, 0.0, 1.6635918726925907E9, 0.0, 2022-09-19 17:51:12.692
228.0, -37247.8410301019, -30943.307989037992, -39586.92873560533, -36690.187357686445, -53714.39352207107, 187500.0, -37015.5840534668, -38716.35064081557, 0.76, -0.674, 0.14, 192.0, 0.0, 0.0, 0.0, 0.0, 0.0, 0.0, 0.0, 0.0, 0.0, 1.663591872696566E9, 0.0, 2022-09-19 17:51:12.696
229.0, -37232.57478863893, -30922.677328905742, -39562.3865201934, -36661.89004920603, -53684.643350201055, 187500.0, -37142.05022359493, -38691.36139051454, 0.76, -0.674, 0.14, 192.0, 0.0, 0.0, 0.0, 0.0, 0.0, 0.0, 0.0, 0.0, 0.0, 1.6635918727005837E9, 0.0, 2022-09-19 17:51:12.700
230.0, -37218.67200358772, -30914.563645668466, -39542.67228158382, -36665.46632831888, -53677.580198953176, 187500.0, -37045.49068754801, -38701.129102841514, 0.768, -0.67, 0.15, 192.0, 24.0, 0.0, 235.0, 16.0, 4.0, 176.0, 0.0, 0.0, 0.0, 1.6635918727045915E9, 0.0, 2022-09-19 17:51:12.704
231.0, -37213.598157596374, -30918.139924781317, -39536.123220458416, -36687.59455532963, -53691.32652179319, 187500.0, -36856.19376375601, -38726.76655373175, 0.768, -0.67, 0.15, 192.0, 0.0, 0.0, 0.0, 0.0, 0.0, 0.0, 0.0, 0.0, 0.0, 1.6635918727095675E9, 0.0, 2022-09-19 17:51:12.709
232.0, -37224.99754726858, -30937.94357036872, -39562.185354493304, -36711.086238752156, -53718.0815599062, 187500.0, -36756.70614918544, -38750.5935133211, 0.768, -0.67, 0.15, 192.0, 0.0, 0.0, 0.0, 0.0, 0.0, 0.0, 0.0, 0.0, 0.0, 1.6635918727135582E9, 0.0, 2022-09-19 17:51:12.713
233.0, -37247.70691963517, -30942.615084959878, -39590.90734611837, -36687.393389629535, -53714.281763348794, 187500.0, -37019.5403122354, -38710.02509713473, 0.768, -0.67, 0.15, 192.0, 0.0, 0.0, 0.0, 0.0, 0.0, 0.0, 0.0, 0.0, 0.0, 1.6635918727176173E9, 0.0, 2022-09-19 17:51:12.717
234.0, -37246.94696032369, -30924.823096373453, -39567.81799409604, -36660.325427094154, -53683.05637634473, 187500.0, -37144.28539804046, -38683.27005902172, 0.768, -0.67, 0.15, 192.0, 0.0, 0.0, 0.0, 0.0, 0.0, 0.0, 0.0, 0.0, 0.0, 1.6635918727206235E9, 0.0, 2022-09-19 17:51:12.720
235.0, -37226.47276240263, -30915.50241893559, -39548.55079037557, -36666.338046352634, -53675.79205939676, 187500.0, -37048.23995211601, -38694.42357950492, 0.768, -0.67, 0.15, 192.0, 0.0, 0.0, 0.0, 0.0, 0.0, 0.0, 0.0, 0.0, 0.0, 1.6635918727246184E9, 0.0, 2022-09-19 17:51:12.724
236.0, -37212.01118374005, -30919.92806433774, -39536.97258674772, -36695.12709321107, -53688.46549850291, 187500.0, -36857.892496334614, -38729.784039233215, 0.768, -0.67, 0.15, 192.0, 0.0, 0.0, 0.0, 0.0, 0.0, 0.0, 0.0, 0.0, 0.0, 1.6635918727286055E9, 0.0, 2022-09-19 17:51:12.728
237.0, -37231.23368397161, -30940.17874481425, -39561.60420913747, -36722.79855284674, -53715.555812782746, 187500.0, -36765.624495223106, -38757.679016313436, 0.768, -0.67, 0.15, 192.0, 0.0, 0.0, 0.0, 0.0, 0.0, 0.0, 0.0, 0.0, 0.0, 1.6635918727327025E9, 0.0, 2022-09-19 17:51:12.732
238.0, -37247.03636730151, -30942.100994837405, -39586.25818327167, -36695.23885193335, -53710.75018772486, 187500.0, -37030.00092864048, -38716.75297221577, 0.768, -0.67, 0.15, 192.0, 0.0, 0.0, 0.0, 0.0, 0.0, 0.0, 0.0, 0.0, 0.0, 1.6635918727376108E9, 0.0, 2022-09-19 17:51:12.737
239.0, -37226.09278274689, -30922.722032394653, -39566.29807547308, -36668.48381382034, -53681.648216444046, 187500.0, -37147.34758703084, -38691.36139051454, 0.768, -0.67, 0.15, 192.0, 0.0, 0.0, 0.0, 0.0, 0.0, 0.0, 0.0, 0.0, 0.0, 1.6635918727416222E9, 0.0, 2022-09-19 17:51:12.741
240.0, -37217.867340787336, -30915.323604979945, -39542.33700541699, -36669.17671789846, -53672.841629128656, 187500.0, -37051.57036203985, -38700.145626085476, 0.758, -0.68, 0.15, 192.0, 23.0, 176.0, 234.0, 192.0, 4.0, 176.0, 0.0, 0.0, 0.0, 1.6635918727456453E9, 0.0, 2022-09-19 17:51:12.745
241.0, -37216.72740182011, -30920.866837604863, -39527.92013024332, -36687.72866579636, -53679.748318165344, 187500.0, -36863.7486533819, -38726.3418705871, 0.758, -0.68, 0.15, 192.0, 0.0, 0.0, 0.0, 0.0, 0.0, 0.0, 0.0, 0.0, 0.0, 1.6635918727487895E9, 0.0, 2022-09-19 17:51:12.748
242.0, -37231.59131188289, -30942.279808793046, -39551.21064796575, -36715.288366709756, -53709.85611794664, 187500.0, -36769.871326669614, -38755.443841867906, 0.758, -0.68, 0.15, 192.0, 0.0, 0.0, 0.0, 0.0, 0.0, 0.0, 0.0, 0.0, 0.0, 1.66359187275269E9, 0.0, 2022-09-19 17:51:12.752
243.0, -37251.99845457059, -30944.917314638773, -39583.665380914856, -36689.1591774415, -53707.844460945664, 187500.0, -37032.50432401947, -38712.90847216946, 0.758, -0.68, 0.15, 192.0, 0.0, 0.0, 0.0, 0.0, 0.0, 0.0, 0.0, 0.0, 0.0, 1.66359187275675E9, 0.0, 2022-09-19 17:51:12.756
244.0, -37227.97032928113, -30918.855180603885, -39558.47496491372, -36652.92699967945, -53672.6181116841, 187500.0, -37144.75478467403, -38675.80457637365, 0.758, -0.68, 0.15, 192.0, 0.0, 0.0, 0.0, 0.0, 0.0, 0.0, 0.0, 0.0, 0.0, 1.6635918727606905E9, 0.0, 2022-09-19 17:51:12.760
245.0, -37219.58842511039, -30916.664709647266, -39542.3817089059, -36660.77246198326, -53670.89702736104, 187500.0, -37048.99991142749, -38695.42940800541, 0.758, -0.68, 0.15, 192.0, 0.0, 0.0, 0.0, 0.0, 0.0, 0.0, 0.0, 0.0, 0.0, 1.6635918727647486E9, 0.0, 2022-09-19 17:51:12.764
246.0, -37213.77697155201, -30923.996081828605, -39538.44780188177, -36691.103779209116, -53691.48298400438, 187500.0, -36859.568877168764, -38733.785001490716, 0.758, -0.68, 0.15, 192.0, 0.0, 0.0, 0.0, 0.0, 0.0, 0.0, 0.0, 0.0, 0.0, 1.6635918727696605E9, 0.0, 2022-09-19 17:51:12.769
247.0, -37220.66130884425, -30938.614122702376, -39561.26893297064, -36715.6683463655, -53720.92023145202, 187500.0, -36765.624495223106, -38756.51672560176, 0.758, -0.68, 0.15, 192.0, 0.0, 0.0, 0.0, 0.0, 0.0, 0.0, 0.0, 0.0, 0.0, 1.6635918727737148E9, 0.0, 2022-09-19 17:51:12.773
248.0, -37242.29779747698, -30939.709358180688, -39584.40298848188, -36690.50028210882, -53715.198184871464, 187500.0, -37027.18460883911, -38716.775323960224, 0.758, -0.68, 0.15, 192.0, 0.0, 0.0, 0.0, 0.0, 0.0, 0.0, 0.0, 0.0, 0.0, 1.6635918727767684E9, 0.0, 2022-09-19 17:51:12.776
249.0, -37223.79055306799, -30916.418840458256, -39562.94531380478, -36660.59364802762, -53681.37999551058, 187500.0, -37139.144496815745, -38687.94157361288, 0.758, -0.68, 0.15, 192.0, 0.0, 0.0, 0.0, 0.0, 0.0, 0.0, 0.0, 0.0, 0.0, 1.6635918727808E9, 0.0, 2022-09-19 17:51:12.780
250.0, -37209.03840172749, -30910.294462477505, -39543.946331017774, -36668.41675858698, -53677.49079197536, 187500.0, -37040.55095202338, -38699.162149329444, 0.752, -0.68, 0.152, 192.0, 23.0, 128.0, 234.0, 192.0, 4.0, 192.0, 0.0, 0.0, 0.0, 1.663591872784744E9, 0.0, 2022-09-19 17:51:12.784
251.0, -37216.28036693101, -30922.163238783272, -39538.89483677087, -36695.50707286681, -53692.95819913843, 187500.0, -36853.24333348791, -38734.612016035564, 0.752, -0.68, 0.152, 192.0, 0.0, 0.0, 0.0, 0.0, 0.0, 0.0, 0.0, 0.0, 0.0, 1.6635918727887099E9, 0.0, 2022-09-19 17:51:12.788
252.0, -37229.26673045954, -30943.129175082348, -39562.85590682697, -36718.99875628934, -53723.513033808835, 187500.0, -36764.283390555785, -38760.38357739253, 0.752, -0.68, 0.152, 192.0, 0.0, 0.0, 0.0, 0.0, 0.0, 0.0, 0.0, 0.0, 0.0, 1.663591872792734E9, 0.0, 2022-09-19 17:51:12.792
253.0, -37250.34442548089, -30950.326436796957, -39594.52832872014, -36698.368096157086, -53726.84344373267, 187500.0, -37033.577207753326, -38724.35256533058, 0.752, -0.68, 0.152, 192.0, 0.0, 0.0, 0.0, 0.0, 0.0, 0.0, 0.0, 0.0, 0.0, 1.6635918727967174E9, 0.0, 2022-09-19 17:51:12.796
254.0, -37232.75360259457, -30926.879456863342, -39573.182412765316, -36670.07078767667, -53694.232248572385, 187500.0, -37143.3689765178, -38694.71415218284, 0.752, -0.68, 0.152, 192.0, 0.0, 0.0, 0.0, 0.0, 0.0, 0.0, 0.0, 0.0, 0.0, 1.6635918728017542E9, 0.0, 2022-09-19 17:51:12.801
255.0, -37223.67879434572, -30917.78229687003, -39557.3350259465, -36677.73743602484, -53689.98541712588, 187500.0, -37045.49068754801, -38709.33219305661, 0.752, -0.68, 0.152, 192.0, 0.0, 0.0, 0.0, 0.0, 0.0, 0.0, 0.0, 0.0, 0.0, 1.663591872804781E9, 0.0, 2022-09-19 17:51:12.804
0.0, -37216.59329135338, -30923.951378339694, -39548.64019735339, -36702.54787237023, -53701.65302773155, 187500.0, -36855.590266655716, -38741.85398123908, 0.752, -0.68, 0.152, 192.0, 0.0, 0.0, 0.0, 0.0, 0.0, 0.0, 0.0, 0.0, 0.0, 1.6635918728087225E9, 0.0, 2022-09-19 17:51:12.808
1.0, -37228.17149498123, -30939.575247713954, -39567.102738273476, -36721.32333771269, -53725.323525109714, 187500.0, -36768.619628980116, -38762.1493652045, 0.752, -0.68, 0.152, 192.0, 0.0, 0.0, 0.0, 0.0, 0.0, 0.0, 0.0, 0.0, 0.0, 1.663591872812811E9, 0.0, 2022-09-19 17:51:12.812
2.0, -37252.8925243488, -30945.74432918362, -39596.36117176547, -36700.13388396906, -53723.40127508656, 187500.0, -37037.26524558845, -38731.97451018984, 0.752, -0.68, 0.152, 192.0, 0.0, 0.0, 0.0, 0.0, 0.0, 0.0, 0.0, 0.0, 0.0, 1.663591872816815E9, 0.0, 2022-09-19 17:51:12.816
3.0, -37229.669061859735, -30924.331357995437, -39573.33887497651, -36672.17185165547, -53695.23807707287, 187500.0, -37143.905418384726, -38700.0338673632, 0.752, -0.68, 0.152, 192.0, 0.0, 0.0, 0.0, 0.0, 0.0, 0.0, 0.0, 0.0, 0.0, 1.6635918728208141E9, 0.0, 2022-09-19 17:51:12.820
4.0, -37215.341593663885, -30915.12243927985, -39547.857886297454, -36677.670380791475, -53690.00776887033, 187500.0, -37044.86483870326, -38714.00370764777, 0.754, -0.676, 0.148, 192.0, 23.0, 144.0, 234.0, 224.0, 4.0, 160.0, 0.0, 0.0, 0.0, 1.6635918728258607E9, 0.0, 2022-09-19 17:51:12.825
5.0, -37204.6798115587, -30918.654014903786, -39534.87152276892, -36700.08918048014, -53699.52961200829, 187500.0, -36847.72245260745, -38743.977396962335, 0.754, -0.676, 0.148, 192.0, 0.0, 0.0, 0.0, 0.0, 0.0, 0.0, 0.0, 0.0, 0.0, 1.6635918728298209E9, 0.0, 2022-09-19 17:51:12.829
6.0, -37225.489285646596, -30940.424614003256, -39559.36903469194, -36726.37483195959, -53731.29144087928, 187500.0, -36762.6293614661, -38769.704254830394, 0.754, -0.676, 0.148, 192.0, 0.0, 0.0, 0.0, 0.0, 0.0, 0.0, 0.0, 0.0, 0.0, 1.6635918728328235E9, 0.0, 2022-09-19 17:51:12.832
7.0, -37253.47366970464, -30948.6053524739, -39585.207651282275, -36702.704334581416, -53731.73847576839, 187500.0, -37031.72201296354, -38733.069745668145, 0.754, -0.676, 0.148, 192.0, 0.0, 0.0, 0.0, 0.0, 0.0, 0.0, 0.0, 0.0, 0.0, 1.663591872836805E9, 0.0, 2022-09-19 17:51:12.836
8.0, -37228.640881614796, -30925.381889984834, -39560.59838063698, -36674.8540609901, -53697.4732515184, 187500.0, -37134.07065082439, -38704.30305055417, 0.754, -0.676, 0.148, 192.0, 0.0, 0.0, 0.0, 0.0, 0.0, 0.0, 0.0, 0.0, 0.0, 1.663591872840848E9, 0.0, 2022-09-19 17:51:12.840
9.0, -37214.49222737458, -30918.005814314583, -39542.3817089059, -36681.82780526016, -53691.32652179319, 187500.0, -37033.80072519788, -38715.50127452627, 0.754, -0.676, 0.148, 192.0, 0.0, 0.0, 0.0, 0.0, 0.0, 0.0, 0.0, 0.0, 0.0, 1.6635918728448129E9, 0.0, 2022-09-19 17:51:12.844
10.0, -37206.244433670574, -30925.203076029193, -39536.257330925146, -36709.74513408484, -53704.290533577274, 187500.0, -36844.257932216875, -38751.50993484377, 0.754, -0.676, 0.148, 192.0, 0.0, 0.0, 0.0, 0.0, 0.0, 0.0, 0.0, 0.0, 0.0, 1.6635918728488653E9, 0.0, 2022-09-19 17:51:12.848
11.0, -37240.152030009274, -30949.812346674487, -39565.40400569487, -36731.33691922866, -53734.7336095254, 187500.0, -36770.38541679209, -38774.599286866105, 0.754, -0.676, 0.148, 192.0, 0.0, 0.0, 0.0, 0.0, 0.0, 0.0, 0.0, 0.0, 0.0, 1.6635918728528273E9, 0.0, 2022-09-19 17:51:12.852
12.0, -37252.19962027069, -30954.685026965744, -39595.80237815409, -36702.838445048146, -53733.72778102491, 187500.0, -37041.66853924615, -38732.82387647914, 0.754, -0.676, 0.148, 192.0, 0.0, 0.0, 0.0, 0.0, 0.0, 0.0, 0.0, 0.0, 0.0, 1.663591872857815E9, 0.0, 2022-09-19 17:51:12.857
13.0, -37220.81777105544, -30924.085488806428, -39565.11343301695, -36668.528517309256, -53695.126318350594, 187500.0, -37141.938464872655, -38701.978469130816, 0.754, -0.676, 0.148, 192.0, 0.0, 0.0, 0.0, 0.0, 0.0, 0.0, 0.0, 0.0, 0.0, 1.6635918728608189E9, 0.0, 2022-09-19 17:51:12.860
14.0, -37210.96065175065, -30915.234198002127, -39545.68976708529, -36674.83170924565, -53691.214763070915, 187500.0, -37037.913446177656, -38716.082419882114, 0.75, -0.674, 0.148, 192.0, 23.0, 112.0, 234.0, 240.0, 4.0, 160.0, 0.0, 0.0, 0.0, 1.6635918728649583E9, 0.0, 2022-09-19 17:51:12.864
15.0, -37208.636070327295, -30924.06313706197, -39536.480848369705, -36699.70920082441, -53703.7764434548, 187500.0, -36842.22392347144, -38746.972530719344, 0.75, -0.674, 0.148, 192.0, 0.0, 0.0, 0.0, 0.0, 0.0, 0.0, 0.0, 0.0, 0.0, 1.663591872868869E9, 0.0, 2022-09-19 17:51:12.868
16.0, -37229.78082058201, -30944.22441056066, -39559.57020039204, -36720.92100631249, -53730.06209493424, 187500.0, -36764.283390555785, -38770.17364146395, 0.75, -0.674, 0.148, 192.0, 0.0, 0.0, 0.0, 0.0, 0.0, 0.0, 0.0, 0.0, 0.0, 1.6635918728728523E9, 0.0, 2022-09-19 17:51:12.872
17.0, -37252.57959992643, -30946.906619895297, -39585.65468617138, -36690.187357686445, -53724.004772186854, 187500.0, -37032.79489669739, -38719.368126317044, 0.75, -0.674, 0.148, 192.0, 0.0, 0.0, 0.0, 0.0, 0.0, 0.0, 0.0, 0.0, 0.0, 1.6635918728768785E9, 0.0, 2022-09-19 17:51:12.876
18.0, -37237.000434041074, -30927.572360941456, -39563.07942427152, -36664.14757539601, -53697.54030675177, 187500.0, -37133.78007814647, -38692.50132948176, 0.75, -0.674, 0.148, 192.0, 0.0, 0.0, 0.0, 0.0, 0.0, 0.0, 0.0, 0.0, 0.0, 1.6635918728809419E9, 0.0, 2022-09-19 17:51:12.880
19.0, -37219.85664604386, -30920.106878293383, -39547.27674094162, -36672.082444677646, -53698.94846665245, 187500.0, -37030.9397019076, -38709.55571050116, 0.75, -0.674, 0.148, 192.0, 0.0, 0.0, 0.0, 0.0, 0.0, 0.0, 0.0, 0.0, 0.0, 1.6635918728859E9, 0.0, 2022-09-19 17:51:12.885
20.0, -37207.92081450472, -30922.63262541683, -39537.19610419227, -36697.5634333567, -53711.66660924752, 187500.0, -36837.37359492464, -38743.75387951778, 0.75, -0.674, 0.148, 192.0, 0.0, 0.0, 0.0, 0.0, 0.0, 0.0, 0.0, 0.0, 0.0, 1.6635918728888977E9, 0.0, 2022-09-19 17:51:12.888
21.0, -37225.2881199465, -30939.284675036037, -39554.11637474494, -36717.232968477365, -53738.466350849434, 187500.0, -36763.6798934555, -38763.11049021608, 0.75, -0.674, 0.148, 192.0, 0.0, 0.0, 0.0, 0.0, 0.0, 0.0, 0.0, 0.0, 0.0, 1.6635918728929348E9, 0.0, 2022-09-19 17:51:12.892
22.0, -37244.80119285598, -30941.273980292557, -39584.984133837715, -36687.43809311844, -53734.19716765847, 187500.0, -37037.242893844, -38719.725754228326, 0.75, -0.674, 0.148, 192.0, 0.0, 0.0, 0.0, 0.0, 0.0, 0.0, 0.0, 0.0, 0.0, 1.6635918728969E9, 0.0, 2022-09-19 17:51:12.896
23.0, -37225.355175179866, -30918.36344222587, -39560.75484284817, -36657.30794159269, -53699.55196375275, 187500.0, -37136.68580492566, -38692.0319428482, 0.75, -0.674, 0.148, 192.0, 0.0, 0.0, 0.0, 0.0, 0.0, 0.0, 0.0, 0.0, 0.0, 1.6635918729009545E9, 0.0, 2022-09-19 17:51:12.900
24.0, -37213.70991631865, -30914.65305264629, -39540.54886586057, -36662.717063750875, -53691.639446215566, 187500.0, -37033.97953915352, -38704.0348296207, 0.754, -0.674, 0.156, 192.0, 23.0, 144.0, 234.0, 240.0, 4.0, 224.0, 0.0, 0.0, 0.0, 1.6635918729049494E9, 0.0, 2022-09-19 17:51:12.904
25.0, -37209.0831052164, -30922.4985149501, -39530.71409830023, -36687.59455532963, -53702.10006262065, 187500.0, -36842.42508917154, -38737.38363234802, 0.754, -0.674, 0.156, 192.0, 0.0, 0.0, 0.0, 0.0, 0.0, 0.0, 0.0, 0.0, 0.0, 1.6635918729089108E9, 0.0, 2022-09-19 17:51:12.908
26.0, -37230.18315198221, -30942.011587859583, -39558.005578280165, -36711.846198063635, -53735.65003104807, 187500.0, -36773.581716249195, -38763.266952427264, 0.754, -0.674, 0.156, 192.0, 0.0, 0.0, 0.0, 0.0, 0.0, 0.0, 0.0, 0.0, 0.0, 1.6635918729140208E9, 0.0, 2022-09-19 17:51:12.914
27.0, -37250.61264641436, -30942.279808793046, -39587.576936194535, -36684.510014594794, -53730.95616471245, 187500.0, -37045.42363231464, -38723.927882185926, 0.754, -0.674, 0.156, 192.0, 0.0, 0.0, 0.0, 0.0, 0.0, 0.0, 0.0, 0.0, 0.0, 1.663591872916945E9, 0.0, 2022-09-19 17:51:12.916
28.0, -37235.79343984049, -30923.772564384053, -39563.90643881636, -36659.36430208258, -53699.194335841465, 187500.0, -37142.698424184135, -38700.19032957439, 0.754, -0.674, 0.156, 192.0, 0.0, 0.0, 0.0, 0.0, 0.0, 0.0, 0.0, 0.0, 0.0, 1.663591872920959E9, 0.0, 2022-09-19 17:51:12.920
29.0, -37222.56120712295, -30922.766735883564, -39545.46624964073, -36669.73551150984, -53699.753129452845, 187500.0, -37042.2943880909, -38718.116428627545, 0.754, -0.674, 0.156, 192.0, 0.0, 0.0, 0.0, 0.0, 0.0, 0.0, 0.0, 0.0, 0.0, 1.6635918729251292E9, 0.0, 2022-09-19 17:51:12.925
30.0, -37217.17443670922, -30927.63941617482, -39535.58677859149, -36693.00367748782, -53711.10781563614, 187500.0, -36844.45909791697, -38748.112469686566, 0.754, -0.674, 0.156, 192.0, 0.0, 0.0, 0.0, 0.0, 0.0, 0.0, 0.0, 0.0, 0.0, 1.663591872929E9, 0.0, 2022-09-19 17:51:12.929
31.0, -37227.97032928113, -30944.783204172043, -39558.16204049135, -36716.473009165886, -53736.20882465945, 187500.0, -36769.93838190298, -38772.58762986513, 0.754, -0.674, 0.156, 192.0, 0.0, 0.0, 0.0, 0.0, 0.0, 0.0, 0.0, 0.0, 0.0, 1.6635918729330516E9, 0.0, 2022-09-19 17:51:12.933
32.0, -37252.13256503732, -30946.75015768411, -39586.43699722731, -36689.67326756397, -53728.16219665554, 187500.0, -37041.66853924615, -38731.34866134509, 0.754, -0.674, 0.156, 192.0, 0.0, 0.0, 0.0, 0.0, 0.0, 0.0, 0.0, 0.0, 0.0, 1.6635918729369726E9, 0.0, 2022-09-19 17:51:12.936
33.0, -37222.829428056415, -30921.6491486608, -39562.02889228212, -36662.38178758405, -53694.634579972575, 187500.0, -37133.98124384657, -38704.92889939891, 0.754, -0.674, 0.156, 192.0, 0.0, 0.0, 0.0, 0.0, 0.0, 0.0, 0.0, 0.0, 0.0, 1.6635918729409642E9, 0.0, 2022-09-19 17:51:12.940
34.0, -37216.72740182011, -30917.290558492015, -39542.895799028374, -36671.657761532995, -53690.924190392994, 187500.0, -37031.409088541164, -38725.939539186904, 0.754, -0.674, 0.156, 192.0, 0.0, 0.0, 0.0, 0.0, 0.0, 0.0, 0.0, 0.0, 0.0, 1.6635918729449828E9, 0.0, 2022-09-19 17:51:12.944
35.0, -37207.876111015816, -30920.46450620467, -39536.36908964743, -36692.53429085425, -53703.172946354505, 187500.0, -36833.73026057843, -38750.258237154274, 0.758, -0.67, 0.152, 192.0, 23.0, 176.0, 235.0, 16.0, 4.0, 192.0, 0.0, 0.0, 0.0, 1.6635918729490016E9, 0.0, 2022-09-19 17:51:12.949
36.0, -37220.97423326662, -30937.541238968523, -39561.44774692628, -36716.40595393252, -53733.41485660254, 187500.0, -36768.3290563022, -38772.498222887305, 0.758, -0.67, 0.152, 192.0, 0.0, 0.0, 0.0, 0.0, 0.0, 0.0, 0.0, 0.0, 0.0, 1.6635918729530864E9, 0.0, 2022-09-19 17:51:12.953
37.0, -37240.308492220465, -30940.379910514344, -39587.97926759473, -36688.086293707645, -53729.54800481177, 187500.0, -37042.96494042456, -38731.23690262281, 0.758, -0.67, 0.152, 192.0, 0.0, 0.0, 0.0, 0.0, 0.0, 0.0, 0.0, 0.0, 0.0, 1.6635918729570498E9, 0.0, 2022-09-19 17:51:12.957
38.0, -37221.68948908919, -30919.279863748536, -39563.526459160625, -36660.07955790515, -53699.954295152944, 187500.0, -37136.30582526992, -38703.029001120216, 0.758, -0.67, 0.152, 192.0, 0.0, 0.0, 0.0, 0.0, 0.0, 0.0, 0.0, 0.0, 0.0, 1.6635918729611185E9, 0.0, 2022-09-19 17:51:12.961
39.0, -37207.76435229354, -30912.484933434123, -39547.813182808546, -36666.695674263916, -53698.09910036315, 187500.0, -37032.124344363736, -38714.830722192615, 0.758, -0.67, 0.152, 192.0, 0.0, 0.0, 0.0, 0.0, 0.0, 0.0, 0.0, 0.0, 0.0, 1.663591872965129E9, 0.0, 2022-09-19 17:51:12.965
40.0, -37204.65745981425, -30919.369270726358, -39534.96092974674, -36692.22136643188, -53713.56650752622, 187500.0, -36835.96543502396, -38748.13482143102, 0.758, -0.67, 0.152, 192.0, 0.0, 0.0, 0.0, 0.0, 0.0, 0.0, 0.0, 0.0, 0.0, 1.6635918729701147E9, 0.0, 2022-09-19 17:51:12.970
41.0, -37221.39891641127, -30938.30119828, -39562.140651004396, -36714.12607599808, -53743.92017649653, 187500.0, -36770.161899347535, -38766.23973443982, 0.758, -0.67, 0.152, 192.0, 0.0, 0.0, 0.0, 0.0, 0.0, 0.0, 0.0, 0.0, 0.0, 1.6635918729730744E9, 0.0, 2022-09-19 17:51:12.973
42.0, -37243.37068121084, -30941.341035525926, -39593.63425894192, -36690.36617164209, -53740.16508342804, 187500.0, -37044.70837649207, -38726.87831245403, 0.758, -0.67, 0.152, 192.0, 0.0, 0.0, 0.0, 0.0, 0.0, 0.0, 0.0, 0.0, 0.0, 1.66359187297607E9, 0.0, 2022-09-19 17:51:12.976
43.0, -37224.036422257, -30923.347881239402, -39569.762595863656, -36666.74037775283, -53708.17973711249, 187500.0, -37130.80729613391, -38701.196158074876, 0.758, -0.67, 0.152, 192.0, 0.0, 0.0, 0.0, 0.0, 0.0, 0.0, 0.0, 0.0, 0.0, 1.6635918729811728E9, 0.0, 2022-09-19 17:51:12.981
44.0, -37208.59136683838, -30916.64235790281, -39550.182467720806, -36674.54113656773, -53703.75409171035, 187500.0, -37022.64720471468, -38713.82489369212, 0.758, -0.67, 0.152, 192.0, 0.0, 0.0, 0.0, 0.0, 0.0, 0.0, 0.0, 0.0, 0.0, 1.6635918729851828E9, 0.0, 2022-09-19 17:51:12.985
45.0, -37202.26582315753, -30924.55487543999, -39540.43710713829, -36703.888977037546, -53717.45571106145, 187500.0, -36828.83522854272, -38750.07942319864, 0.76, -0.672, 0.152, 192.0, 23.0, 192.0, 235.0, 0.0, 4.0, 192.0, 0.0, 0.0, 0.0, 1.6635918729890716E9, 0.0, 2022-09-19 17:51:12.989
46.0, -37220.39308791079, -30943.88913439383, -39567.32625571803, -36723.84908483614, -53747.02706897582, 187500.0, -36768.26200106883, -38769.34662691911, 0.76, -0.672, 0.152, 192.0, 0.0, 0.0, 0.0, 0.0, 0.0, 0.0, 0.0, 0.0, 0.0, 1.663591872993087E9, 0.0, 2022-09-19 17:51:12.993
47.0, -37240.82258234294, -30948.381835029348, -39592.181395552325, -36695.23885193335, -53743.47314160742, 187500.0, -37043.3449200803, -38727.839437465605, 0.76, -0.672, 0.152, 192.0, 0.0, 0.0, 0.0, 0.0, 0.0, 0.0, 0.0, 0.0, 0.0, 1.663591872997141E9, 0.0, 2022-09-19 17:51:12.997
48.0, -37224.639919357294, -30926.566532440967, -39564.82286033903, -36668.19324114242, -53713.56650752622, 187500.0, -37130.02498507798, -38698.111617340044, 0.76, -0.672, 0.152, 192.0, 0.0, 0.0, 0.0, 0.0, 0.0, 0.0, 0.0, 0.0, 0.0, 1.6635918730012023E9, 0.0, 2022-09-19 17:51:13.001
49.0, -37218.02380299852, -30921.045651560507, -39549.824839809524, -36675.010523201294, -53713.588859270676, 187500.0, -37026.89403616119, -38711.47796052432, 0.76, -0.672, 0.152, 192.0, 0.0, 0.0, 0.0, 0.0, 0.0, 0.0, 0.0, 0.0, 0.0, 1.6635918730041645E9, 0.0, 2022-09-19 17:51:13.004
50.0, -37201.37175337932, -30923.07966030594, -39536.6820140698, -36697.652840334515, -53723.803606486756, 187500.0, -36826.86827503065, -38742.74805101729, 0.76, -0.672, 0.152, 192.0, 0.0, 0.0, 0.0, 0.0, 0.0, 0.0, 0.0, 0.0, 0.0, 1.6635918730091996E9, 0.0, 2022-09-19 17:51:13.009
51.0, -37221.60008211137, -30940.55872446999, -39559.480793414215, -36720.98806154586, -53752.458542878456, 187500.0, -36767.70320745745, -38766.44090013992, 0.76, -0.672, 0.152, 192.0, 0.0, 0.0, 0.0, 0.0, 0.0, 0.0, 0.0, 0.0, 0.0, 1.6635918730131176E9, 0.0, 2022-09-19 17:51:13.013
52.0, -37247.8410301019, -30942.056291348494, -39589.87916587343, -36694.83652053315, -53750.849217277675, 187500.0, -37045.49068754801, -38731.259254367265, 0.76, -0.672, 0.152, 192.0, 0.0, 0.0, 0.0, 0.0, 0.0, 0.0, 0.0, 0.0, 0.0, 1.6635918730171008E9, 0.0, 2022-09-19 17:51:13.017
53.0, -37231.16662873824, -30925.448945218202, -39567.8403458405, -36669.981380698846, -53718.59565002867, 187500.0, -37129.10856355531, -38709.39924828998, 0.76, -0.672, 0.152, 192.0, 0.0, 0.0, 0.0, 0.0, 0.0, 0.0, 0.0, 0.0, 0.0, 1.663591873021178E9, 0.0, 2022-09-19 17:51:13.021
54.0, -37215.87803553081, -30921.112706793872, -39548.0367002531, -36677.469215091376, -53711.66660924752, 187500.0, -37021.99900412548, -38712.90847216946, 0.76, -0.672, 0.152, 192.0, 0.0, 0.0, 0.0, 0.0, 0.0, 0.0, 0.0, 0.0, 0.0, 1.6635918730251367E9, 0.0, 2022-09-19 17:51:13.025
55.0, -37194.777988765, -30921.537389938523, -39535.89970301386, -36700.49151188034, -53722.77542624181, 187500.0, -36821.190931939, -38747.35251037509, 0.762, -0.674, 0.154, 192.0, 23.0, 208.0, 234.0, 240.0, 4.0, 208.0, 0.0, 0.0, 0.0, 1.663591873029137E9, 0.0, 2022-09-19 17:51:13.029
56.0, -37217.80028555397, -30940.6034279589, -39565.87339232843, -36722.50798016882, -53755.40897314656, 187500.0, -36769.64780922506, -38773.79462406571, 0.762, -0.674, 0.154, 192.0, 0.0, 0.0, 0.0, 0.0, 0.0, 0.0, 0.0, 0.0, 0.0, 1.6635918730321453E9, 0.0, 2022-09-19 17:51:13.032
57.0, -37245.35998646736, -30941.02811110355, -39589.96857285125, -36693.607174588105, -53745.64126081959, 187500.0, -37046.87649570424, -38729.359356088564, 0.762, -0.674, 0.154, 192.0, 0.0, 0.0, 0.0, 0.0, 0.0, 0.0, 0.0, 0.0, 0.0, 1.6635918730371268E9, 0.0, 2022-09-19 17:51:13.037
58.0, -37219.051983243466, -30916.530599180533, -39556.01627302364, -36669.24377313182, -53713.41004531504, 187500.0, -37125.77815363147, -38703.14075984249, 0.762, -0.674, 0.154, 192.0, 0.0, 0.0, 0.0, 0.0, 0.0, 0.0, 0.0, 0.0, 0.0, 1.6635918730411365E9, 0.0, 2022-09-19 17:51:13.041
59.0, -37198.24250915558, -30905.4441339307, -39539.744203060174, -36671.858927233094, -53709.56554526872, 187500.0, -37015.76286742245, -38712.95317565837, 0.762, -0.674, 0.154, 192.0, 0.0, 0.0, 0.0, 0.0, 0.0, 0.0, 0.0, 0.0, 0.0, 1.663591873045227E9, 0.0, 2022-09-19 17:51:13.045
60.0, -37188.40774159524, -30910.45092468869, -39529.9317872443, -36694.74711355533, -53724.429455331505, 187500.0, -36820.40862088306, -38744.44678359589, 0.762, -0.674, 0.154, 192.0, 0.0, 0.0, 0.0, 0.0, 0.0, 0.0, 0.0, 0.0, 0.0, 1.6635918730491593E9, 0.0, 2022-09-19 17:51:13.049
61.0, -37212.8829017738, -30934.948436611707, -39556.820935824035, -36718.35055570013, -53756.03482199131, 187500.0, -36772.262963326335, -38764.65276058349, 0.762, -0.674, 0.154, 192.0, 0.0, 0.0, 0.0, 0.0, 0.0, 0.0, 0.0, 0.0, 0.0, 1.6635918730531847E9, 0.0, 2022-09-19 17:51:13.053
62.0, -37241.7390038656, -30935.753099412097, -39584.984133837715, -36690.612040831096, -53747.04942072027, 187500.0, -37050.40807132817, -38720.061030395154, 0.762, -0.674, 0.154, 192.0, 0.0, 0.0, 0.0, 0.0, 0.0, 0.0, 0.0, 0.0, 0.0, 1.6635918730561836E9, 0.0, 2022-09-19 17:51:13.056
63.0, -37222.60591061186, -30916.016509058063, -39559.614903880945, -36666.80743298619, -53714.237059859886, 187500.0, -37128.34860424383, -38695.92114638342, 0.762, -0.674, 0.154, 192.0, 0.0, 0.0, 0.0, 0.0, 0.0, 0.0, 0.0, 0.0, 0.0, 1.6635918730601912E9, 0.0, 2022-09-19 17:51:13.060
64.0, -37199.98594522309, -30906.293500220003, -39537.64313908138, -36668.46146207589, -53705.609286500134, 187500.0, -37017.97569012352, -38705.19712033238, 0.762, -0.674, 0.154, 192.0, 0.0, 0.0, 0.0, 0.0, 0.0, 0.0, 0.0, 0.0, 0.0, 1.663591873065225E9, 0.0, 2022-09-19 17:51:13.065
65.0, -37200.812959767936, -30916.798820113996, -39530.51293260013, -36694.90357576652, -53724.04947567576, 187500.0, -36821.123876705635, -38742.70334752838, 0.76, -0.682, 0.148, 192.0, 23.0, 192.0, 234.0, 176.0, 4.0, 160.0, 0.0, 0.0, 0.0, 1.663591873069296E9, 0.0, 2022-09-19 17:51:13.069
66.0, -37212.16764595123, -30933.137945310827, -39555.345720689984, -36713.254357964324, -53753.41966789003, 187500.0, -36768.99960863586, -38761.56821984866, 0.76, -0.682, 0.148, 192.0, 0.0, 0.0, 0.0, 0.0, 0.0, 0.0, 0.0, 0.0, 0.0, 1.6635918730733044E9, 0.0, 2022-09-19 17:51:13.073
67.0, -37231.70307060517, -30933.249704033104, -39579.68677040181, -36683.77240702777, -53747.004717231364, 187500.0, -37044.61896951425, -38719.859864695056, 0.76, -0.682, 0.148, 192.0, 0.0, 0.0, 0.0, 0.0, 0.0, 0.0, 0.0, 0.0, 0.0, 1.6635918730772784E9, 0.0, 2022-09-19 17:51:13.077
68.0, -37216.70505007566, -30914.943625324206, -39558.05028176907, -36663.63348527354, -53719.02033317332, 187500.0, -37125.33111874236, -38700.771474930225, 0.76, -0.682, 0.148, 192.0, 0.0, 0.0, 0.0, 0.0, 0.0, 0.0, 0.0, 0.0, 0.0, 1.6635918730812197E9, 0.0, 2022-09-19 17:51:13.081
69.0, -37204.90332900325, -30912.97667181214, -39543.96868276223, -36680.59845931512, -53724.29534486477, 187500.0, -37023.85419891527, -38725.40309731998, 0.76, -0.682, 0.148, 192.0, 0.0, 0.0, 0.0, 0.0, 0.0, 0.0, 0.0, 0.0, 0.0, 1.663591873084338E9, 0.0, 2022-09-19 17:51:13.084
70.0, -37193.30277363095, -30914.83186660193, -39531.719926800724, -36704.17954971547, -53738.24283340488, 187500.0, -36823.31434766226, -38757.00846397978, 0.76, -0.682, 0.148, 192.0, 0.0, 0.0, 0.0, 0.0, 0.0, 0.0, 0.0, 0.0, 0.0, 1.6635918730882337E9, 0.0, 2022-09-19 17:51:13.088
71.0, -37207.20555868215, -30935.864858134373, -39557.82676432452, -36716.62947137708, -53759.90167378208, 187500.0, -36771.45830052594, -38762.23877218232, 0.76, -0.682, 0.148, 192.0, 0.0, 0.0, 0.0, 0.0, 0.0, 0.0, 0.0, 0.0, 0.0, 1.6635918730922472E9, 0.0, 2022-09-19 17:51:13.092
72.0, -37218.73905882109, -30937.40712850179, -39582.07840705853, -36684.15238668351, -53744.009583474355, 187500.0, -37048.50817304947, -38718.27289083873, 0.76, -0.682, 0.148, 192.0, 0.0, 0.0, 0.0, 0.0, 0.0, 0.0, 0.0, 0.0, 0.0, 1.6635918730972743E9, 0.0, 2022-09-19 17:51:13.097
73.0, -37196.342610876876, -30911.702622378187, -39560.15134574787, -36660.54894453871, -53711.82307145871, 187500.0, -37123.3641652303, -38692.79190215968, 0.76, -0.682, 0.148, 192.0, 0.0, 0.0, 0.0, 0.0, 0.0, 0.0, 0.0, 0.0, 0.0, 1.6635918731013403E9, 0.0, 2022-09-19 17:51:13.101
74.0, -37204.165721436235, -30926.566532440967, -39543.72281357322, -36669.17671789846, -53711.17487086951, 187500.0, -37018.31096629035, -38707.767570944736, 0.76, -0.682, 0.148, 192.0, 0.0, 0.0, 0.0, 0.0, 0.0, 0.0, 0.0, 0.0, 0.0, 1.6635918731053205E9, 0.0, 2022-09-19 17:51:13.105
75.0, -37201.21529116813, -30926.03009057404, -39535.60913033594, -36696.24468043383, -53730.77735075681, 187500.0, -36821.57091159474, -38748.179524919935, 0.756, -0.684, 0.14400000000000002, 192.0, 23.0, 160.0, 234.0, 160.0, 4.0, 128.0, 0.0, 0.0, 0.0, 1.663591873109306E9, 0.0, 2022-09-19 17:51:13.109
76.0, -37219.14139022129, -30926.83475337443, -39559.59255213649, -36712.58380563066, -53758.11353422565, 187500.0, -36780.75662621935, -38764.65276058349, 0.756, -0.684, 0.14400000000000002, 192.0, 0.0, 0.0, 0.0, 0.0, 0.0, 0.0, 0.0, 0.0, 0.0, 1.6635918731122596E9, 0.0, 2022-09-19 17:51:13.112
77.0, -37233.69237586169, -30928.98052084214, -39579.70912214627, -36681.33606688214, -53746.647089320075, 187500.0, -37061.44983308909, -38718.96579491685, 0.756, -0.684, 0.14400000000000002, 192.0, 0.0, 0.0, 0.0, 0.0, 0.0, 0.0, 0.0, 0.0, 0.0, 1.6635918731163318E9, 0.0, 2022-09-19 17:51:13.116
78.0, -37215.78862855299, -30913.088430534415, -39560.41956668134, -36658.246714859815, -53714.974667426904, 187500.0, -37129.86852286679, -38693.12717832651, 0.756, -0.684, 0.14400000000000002, 192.0, 0.0, 0.0, 0.0, 0.0, 0.0, 0.0, 0.0, 0.0, 0.0, 1.6635918731202676E9, 0.0, 2022-09-19 17:51:13.120
79.0, -37213.35228840736, -30913.803686356987, -39547.92494153082, -36667.16506089748, -53712.426568559, 187500.0, -37017.349841278774, -38712.34967855808, 0.756, -0.684, 0.14400000000000002, 192.0, 0.0, 0.0, 0.0, 0.0, 0.0, 0.0, 0.0, 0.0, 0.0, 1.6635918731253607E9, 0.0, 2022-09-19 17:51:13.125
80.0, -37209.59719533887, -30921.82796261644, -39539.69949957127, -36694.50124436632, -53723.62479253111, 187500.0, -36818.396963882085, -38747.687786541916, 0.756, -0.684, 0.14400000000000002, 192.0, 0.0, 0.0, 0.0, 0.0, 0.0, 0.0, 0.0, 0.0, 0.0, 1.6635918731293151E9, 0.0, 2022-09-19 17:51:13.129
81.0, -37222.3823931673, -30936.624817445856, -39561.62656088192, -36712.38263993057, -53747.09412420919, 187500.0, -36779.393169807576, -38760.58474309263, 0.756, -0.684, 0.14400000000000002, 192.0, 0.0, 0.0, 0.0, 0.0, 0.0, 0.0, 0.0, 0.0, 0.0, 1.66359187313331E9, 0.0, 2022-09-19 17:51:13.133
82.0, -37239.66029163126, -30936.714224423675, -39582.43603496981, -36678.564450569684, -53732.051400190765, 187500.0, -37060.53341156643, -38713.24374833629, 0.756, -0.684, 0.14400000000000002, 192.0, 0.0, 0.0, 0.0, 0.0, 0.0, 0.0, 0.0, 0.0, 0.0, 1.6635918731373167E9, 0.0, 2022-09-19 17:51:13.137
83.0, -37211.31827966193, -30908.863950832365, -39554.40694742286, -36646.10971762058, -53697.29443756276, 187500.0, -37128.527418199476, -38687.71805616833, 0.756, -0.684, 0.14400000000000002, 192.0, 0.0, 0.0, 0.0, 0.0, 0.0, 0.0, 0.0, 0.0, 0.0, 1.6635918731403668E9, 0.0, 2022-09-19 17:51:13.140
84.0, -37185.904346216244, -30894.603537869876, -39535.34090940248, -36649.976569411345, -53690.924190392994, 187500.0, -37017.930986634616, -38697.95515512886, 0.756, -0.684, 0.14400000000000002, 192.0, 0.0, 0.0, 0.0, 0.0, 0.0, 0.0, 0.0, 0.0, 0.0, 1.6635918731443515E9, 0.0, 2022-09-19 17:51:13.144
85.0, -37179.08706415738, -30900.526750150533, -39528.2777581546, -36679.54792732572, -53705.139899866575, 187500.0, -36818.70988830446, -38736.17663814743, 0.75, -0.672, 0.15, 192.0, 23.0, 112.0, 235.0, 0.0, 4.0, 176.0, 0.0, 0.0, 0.0, 1.6635918731483223E9, 0.0, 2022-09-19 17:51:13.148
86.0, -37201.21529116813, -30918.676366648244, -39557.69265385779, -36699.08335197966, -53733.77248451382, 187500.0, -36782.09773088667, -38758.05899596918, 0.75, -0.672, 0.15, 192.0, 0.0, 0.0, 0.0, 0.0, 0.0, 0.0, 0.0, 0.0, 0.0, 1.6635918731533368E9, 0.0, 2022-09-19 17:51:13.153
87.0, -37225.13165773531, -30923.727860895142, -39585.92290710484, -36672.55183131121, -53727.87162397762, 187500.0, -37065.33903662432, -38711.07562912412, 0.75, -0.672, 0.15, 192.0, 0.0, 0.0, 0.0, 0.0, 0.0, 0.0, 0.0, 0.0, 0.0, 1.6635918731573265E9, 0.0, 2022-09-19 17:51:13.157
88.0, -37204.568052836425, -30903.991270541108, -39561.11247075945, -36648.90368567749, -53701.54126900927, 187500.0, -37135.568217702894, -38690.3332102696, 0.75, -0.672, 0.15, 192.0, 0.0, 0.0, 0.0, 0.0, 0.0, 0.0, 0.0, 0.0, 0.0, 1.6635918731614616E9, 0.0, 2022-09-19 17:51:13.161
89.0, -37189.771198007016, -30895.16233148126, -39545.57800836301, -36655.095118891615, -53700.781309697784, 187500.0, -37025.2400070715, -38705.55474824366, 0.75, -0.672, 0.15, 192.0, 0.0, 0.0, 0.0, 0.0, 0.0, 0.0, 0.0, 0.0, 0.0, 1.663591873164453E9, 0.0, 2022-09-19 17:51:13.164
90.0, -37184.96557294912, -30903.231311229625, -39534.26802566863, -36680.44199710393, -53715.73462673839, 187500.0, -36820.632138327615, -38739.46234458236, 0.75, -0.672, 0.15, 192.0, 0.0, 0.0, 0.0, 0.0, 0.0, 0.0, 0.0, 0.0, 0.0, 1.6635918731683724E9, 0.0, 2022-09-19 17:51:13.168
91.0, -37205.7303435481, -30924.75604114009, -39556.12803174592, -36698.47985487936, -53742.44496136248, 187500.0, -36786.79159722228, -38753.275722655744, 0.75, -0.672, 0.15, 192.0, 0.0, 0.0, 0.0, 0.0, 0.0, 0.0, 0.0, 0.0, 0.0, 1.6635918731723847E9, 0.0, 2022-09-19 17:51:13.172
92.0, -37225.5339891355, -30921.716203894164, -39579.21738376825, -36665.511031807786, -53727.357533855145, 187500.0, -37066.657789547186, -38707.23112907781, 0.75, -0.672, 0.15, 192.0, 0.0, 0.0, 0.0, 0.0, 0.0, 0.0, 0.0, 0.0, 0.0, 1.6635918731764257E9, 0.0, 2022-09-19 17:51:13.176
93.0, -37207.40672438225, -30902.046668773495, -39551.72473808822, -36644.34392980861, -53693.56169623872, 187500.0, -37130.38261298926, -38686.39930324547, 0.75, -0.672, 0.15, 192.0, 0.0, 0.0, 0.0, 0.0, 0.0, 0.0, 0.0, 0.0, 0.0, 1.6635918731804273E9, 0.0, 2022-09-19 17:51:13.180
94.0, -37196.49907308806, -30898.20216872718, -39532.8822175124, -36651.652950245494, -53683.68222518948, 187500.0, -37018.959166879555, -38699.095094096076, 0.75, -0.672, 0.15, 192.0, 0.0, 0.0, 0.0, 0.0, 0.0, 0.0, 0.0, 0.0, 0.0, 1.6635918731854324E9, 0.0, 2022-09-19 17:51:13.185
95.0, -37197.19197716618, -30909.02041304355, -39524.41090636384, -36675.0552266902, -53693.96402763892, 187500.0, -36817.5923010817, -38732.55565554567, 0.748, -0.674, 0.152, 192.0, 23.0, 96.0, 234.0, 240.0, 4.0, 192.0, 0.0, 0.0, 0.0, 1.6635918731894424E9, 0.0, 2022-09-19 17:51:13.189
96.0, -37207.518483104526, -30929.02522433105, -39551.76944157713, -36695.015334488795, -53724.34004835368, 187500.0, -36787.149225133566, -38750.057071454175, 0.748, -0.674, 0.152, 192.0, 0.0, 0.0, 0.0, 0.0, 0.0, 0.0, 0.0, 0.0, 0.0, 1.6635918731924229E9, 0.0, 2022-09-19 17:51:13.192
97.0, -37226.42805891372, -30926.186552785228, -39575.6411046554, -36666.38274984154, -53721.30021110776, 187500.0, -37069.47410934855, -38707.99108838929, 0.748, -0.674, 0.152, 192.0, 0.0, 0.0, 0.0, 0.0, 0.0, 0.0, 0.0, 0.0, 0.0, 1.663591873196437E9, 0.0, 2022-09-19 17:51:13.196
98.0, -37209.194863938676, -30905.086506019416, -39550.54009563209, -36647.741394965815, -53696.13214685109, 187500.0, -37133.757726402015, -38691.473149236816, 0.748, -0.674, 0.152, 192.0, 0.0, 0.0, 0.0, 0.0, 0.0, 0.0, 0.0, 0.0, 0.0, 1.663591873200485E9, 0.0, 2022-09-19 17:51:13.200
99.0, -37201.10353244586, -30903.767753096552, -39535.78794429159, -36661.57712478365, -53697.24973407385, 187500.0, -37024.25653031546, -38707.90168141147, 0.748, -0.674, 0.152, 192.0, 0.0, 0.0, 0.0, 0.0, 0.0, 0.0, 0.0, 0.0, 0.0, 1.6635918732045069E9, 0.0, 2022-09-19 17:51:13.204
100.0, -37192.2298898971, -30909.154523510282, -39526.31080464254, -36688.80154953022, -53715.06407440473, 187500.0, -36820.85565577217, -38742.032795194726, 0.748, -0.674, 0.152, 192.0, 0.0, 0.0, 0.0, 0.0, 0.0, 0.0, 0.0, 0.0, 0.0, 1.6635918732084403E9, 0.0, 2022-09-19 17:51:13.208
101.0, -37206.467951115126, -30928.64524467531, -39558.989055036196, -36712.04736376373, -53750.40218238857, 187500.0, -36792.15601589156, -38766.910286773484, 0.748, -0.674, 0.152, 192.0, 0.0, 0.0, 0.0, 0.0, 0.0, 0.0, 0.0, 0.0, 0.0, 1.6635918732135243E9, 0.0, 2022-09-19 17:51:13.213
102.0, -37219.946053021675, -30925.761869640577, -39583.06188381456, -36682.83363376065, -53740.45565610596, 187500.0, -37072.804519272395, -38722.89970194098, 0.748, -0.674, 0.152, 192.0, 0.0, 0.0, 0.0, 0.0, 0.0, 0.0, 0.0, 0.0, 0.0, 1.6635918732174673E9, 0.0, 2022-09-19 17:51:13.217
103.0, -37202.44463711317, -30907.142866509304, -39561.78302309311, -36662.426491072954, -53713.6782662485, 187500.0, -37130.69553741164, -38699.69859119637, 0.748, -0.674, 0.152, 192.0, 0.0, 0.0, 0.0, 0.0, 0.0, 0.0, 0.0, 0.0, 0.0, 1.663591873220498E9, 0.0, 2022-09-19 17:51:13.220
104.0, -37191.20170965215, -30902.44900017369, -39536.92788325881, -36669.75786325429, -53714.281763348794, 187500.0, -37018.89211164619, -38719.12225712803, 0.748, -0.674, 0.152, 192.0, 0.0, 0.0, 0.0, 0.0, 0.0, 0.0, 0.0, 0.0, 0.0, 1.6635918732244823E9, 0.0, 2022-09-19 17:51:13.224
105.0, -37191.157006163245, -30913.4460584457, -39529.57415933301, -36697.98811650135, -53732.14080716858, 187500.0, -36817.88287375961, -38758.01429248027, 0.76, -0.68, 0.148, 192.0, 23.0, 192.0, 234.0, 192.0, 4.0, 160.0, 0.0, 0.0, 0.0, 1.663591873228505E9, 0.0, 2022-09-19 17:51:13.228
106.0, -37217.97909950961, -30937.094204079414, -39561.82772658202, -36718.99875628934, -53765.26609245135, 187500.0, -36795.531129304305, -38774.62163861056, 0.76, -0.68, 0.148, 192.0, 0.0, 0.0, 0.0, 0.0, 0.0, 0.0, 0.0, 0.0, 0.0, 1.663591873232532E9, 0.0, 2022-09-19 17:51:13.232
107.0, -37236.19577124069, -30933.450869733202, -39581.45255821378, -36683.817110516684, -53752.57030160073, 187500.0, -37077.38662688573, -38726.76655373175, 0.76, -0.68, 0.148, 192.0, 0.0, 0.0, 0.0, 0.0, 0.0, 0.0, 0.0, 0.0, 0.0, 1.6635918732365546E9, 0.0, 2022-09-19 17:51:13.236
108.0, -37219.051983243466, -30912.127305522838, -39554.5857613785, -36659.94544743842, -53723.11070240864, 187500.0, -37136.909322370215, -38707.32053605563, 0.76, -0.68, 0.148, 192.0, 0.0, 0.0, 0.0, 0.0, 0.0, 0.0, 0.0, 0.0, 0.0, 1.6635918732405946E9, 0.0, 2022-09-19 17:51:13.240
109.0, -37198.756599278044, -30905.8464653309, -39535.29620591357, -36667.63444753104, -53719.55677504025, 187500.0, -37021.28374830291, -38721.536245529205, 0.76, -0.68, 0.148, 192.0, 0.0, 0.0, 0.0, 0.0, 0.0, 0.0, 0.0, 0.0, 0.0, 1.663591873245597E9, 0.0, 2022-09-19 17:51:13.245
110.0, -37206.75852379305, -30921.090355049415, -39529.82002852202, -36698.50220662382, -53738.30988863825, 187500.0, -36821.682670317015, -38760.98707449283, 0.76, -0.68, 0.148, 192.0, 0.0, 0.0, 0.0, 0.0, 0.0, 0.0, 0.0, 0.0, 0.0, 1.6635918732485943E9, 0.0, 2022-09-19 17:51:13.248
111.0, -37222.44944840067, -30938.144736068814, -39553.15524973336, -36713.7684480868, -53765.02022326234, 187500.0, -36798.548614805775, -38771.58180136464, 0.76, -0.68, 0.148, 192.0, 0.0, 0.0, 0.0, 0.0, 0.0, 0.0, 0.0, 0.0, 0.0, 1.6635918732525969E9, 0.0, 2022-09-19 17:51:13.252
112.0, -37235.45816367366, -30933.78614590003, -39573.71885463224, -36683.37007562758, -53754.291385923796, 187500.0, -37082.795749043915, -38725.15722813096, 0.76, -0.68, 0.148, 192.0, 0.0, 0.0, 0.0, 0.0, 0.0, 0.0, 0.0, 0.0, 0.0, 1.6635918732566001E9, 0.0, 2022-09-19 17:51:13.256
113.0, -37219.16374196574, -30912.887264834317, -39550.87537179892, -36659.92309569396, -53721.00963842984, 187500.0, -37137.7139851706, -38704.30305055417, 0.76, -0.68, 0.148, 192.0, 0.0, 0.0, 0.0, 0.0, 0.0, 0.0, 0.0, 0.0, 0.0, 1.6635918732606132E9, 0.0, 2022-09-19 17:51:13.260
114.0, -37208.54666334947, -30910.048593288495, -39536.63731058089, -36670.2048981434, -53717.858042461645, 187500.0, -37022.42368727013, -38720.46336179535, 0.76, -0.68, 0.148, 192.0, 0.0, 0.0, 0.0, 0.0, 0.0, 0.0, 0.0, 0.0, 0.0, 1.6635918732645864E9, 0.0, 2022-09-19 17:51:13.264
115.0, -37199.56126207844, -30916.48589569162, -39528.52362734361, -36697.943413012435, -53728.475121077914, 187500.0, -36814.686574302505, -38752.67222555545, 0.77, -0.676, 0.14400000000000002, 192.0, 24.0, 16.0, 234.0, 224.0, 4.0, 128.0, 0.0, 0.0, 0.0, 1.6635918732686064E9, 0.0, 2022-09-19 17:51:13.268
116.0, -37224.304643190466, -30938.770584913564, -39560.82189808153, -36715.93656729896, -53753.6878888235, 187500.0, -36796.156978149054, -38768.4972606298, 0.77, -0.676, 0.14400000000000002, 192.0, 0.0, 0.0, 0.0, 0.0, 0.0, 0.0, 0.0, 0.0, 0.0, 1.6635918732735984E9, 0.0, 2022-09-19 17:51:13.273
117.0, -37236.68750961871, -30935.574285456456, -39577.76452037865, -36679.59263081463, -53737.81815026023, 187500.0, -37076.17963268514, -38720.19514086189, 0.77, -0.676, 0.14400000000000002, 192.0, 0.0, 0.0, 0.0, 0.0, 0.0, 0.0, 0.0, 0.0, 0.0, 1.6635918732766309E9, 0.0, 2022-09-19 17:51:13.276
118.0, -37217.80028555397, -30914.585997412923, -39543.454592639755, -36657.77732822625, -53706.525708022804, 187500.0, -37129.33208099986, -38699.69859119637, 0.77, -0.676, 0.14400000000000002, 192.0, 0.0, 0.0, 0.0, 0.0, 0.0, 0.0, 0.0, 0.0, 0.0, 1.6635918732806566E9, 0.0, 2022-09-19 17:51:13.280
119.0, -37200.99177372358, -30910.629738644333, -39526.31080464254, -36666.338046352634, -53703.44116728797, 187500.0, -37012.544216220886, -38714.271928581235, 0.77, -0.676, 0.14400000000000002, 192.0, 0.0, 0.0, 0.0, 0.0, 0.0, 0.0, 0.0, 0.0, 0.0, 1.6635918732846253E9, 0.0, 2022-09-19 17:51:13.284
120.0, -37202.690506302184, -30917.804648614485, -39519.15824641684, -36698.77042755728, -53721.79194948578, 187500.0, -36807.422257354534, -38757.99194073581, 0.77, -0.676, 0.14400000000000002, 192.0, 0.0, 0.0, 0.0, 0.0, 0.0, 0.0, 0.0, 0.0, 0.0, 1.66359187328863E9, 0.0, 2022-09-19 17:51:13.288
121.0, -37227.47859090312, -30936.803631401497, -39550.40598516536, -36714.52840739828, -53753.26320567885, 187500.0, -36788.73619898989, -38767.536135618226, 0.77, -0.676, 0.14400000000000002, 192.0, 0.0, 0.0, 0.0, 0.0, 0.0, 0.0, 0.0, 0.0, 0.0, 1.6635918732926352E9, 0.0, 2022-09-19 17:51:13.292
122.0, -37246.030538801024, -30935.59663720091, -39574.65762789937, -36680.15142442601, -53745.35068814167, 187500.0, -37071.23989716052, -38720.28454783971, 0.77, -0.676, 0.14400000000000002, 192.0, 0.0, 0.0, 0.0, 0.0, 0.0, 0.0, 0.0, 0.0, 0.0, 1.6635918732966027E9, 0.0, 2022-09-19 17:51:13.296
123.0, -37220.79541931098, -30912.84256134541, -39548.6849008423, -36656.7491479813, -53713.90178369305, 187500.0, -37120.63725240675, -38701.196158074876, 0.77, -0.676, 0.14400000000000002, 192.0, 0.0, 0.0, 0.0, 0.0, 0.0, 0.0, 0.0, 0.0, 0.0, 1.6635918733016992E9, 0.0, 2022-09-19 17:51:13.301
124.0, -37203.45046561366, -30910.048593288495, -39533.35160414596, -36671.74716851082, -53715.24288836037, 187500.0, -37003.871739372225, -38721.02215540673, 0.77, -0.676, 0.14400000000000002, 192.0, 0.0, 0.0, 0.0, 0.0, 0.0, 0.0, 0.0, 0.0, 0.0, 1.6635918733046346E9, 0.0, 2022-09-19 17:51:13.304
125.0, -37199.27068940052, -30915.614177657866, -39524.96969997522, -36699.195110701934, -53730.28561237879, 187500.0, -36799.01800143933, -38755.98028373483, 0.776, -0.672, 0.146, 192.0, 24.0, 64.0, 235.0, 0.0, 4.0, 144.0, 0.0, 0.0, 0.0, 1.6635918733086605E9, 0.0, 2022-09-19 17:51:13.308
126.0, -37224.282291446005, -30938.189439557726, -39560.77719459262, -36720.809247590216, -53762.98621451691, 187500.0, -36789.33969609019, -38771.29122868672, 0.776, -0.672, 0.146, 192.0, 0.0, 0.0, 0.0, 0.0, 0.0, 0.0, 0.0, 0.0, 0.0, 1.6635918733126297E9, 0.0, 2022-09-19 17:51:13.312
127.0, -37240.55436140947, -30937.608294201887, -39584.02300882614, -36693.674229821474, -53753.30790916776, 187500.0, -37073.13979543922, -38727.079478154126, 0.776, -0.672, 0.146, 192.0, 0.0, 0.0, 0.0, 0.0, 0.0, 0.0, 0.0, 0.0, 0.0, 1.663591873316687E9, 0.0, 2022-09-19 17:51:13.316
128.0, -37226.740983336094, -30916.843523602907, -39558.139688746895, -36673.66941853397, -53727.06696117723, 187500.0, -37124.77232513098, -38710.18155934591, 0.776, -0.672, 0.146, 192.0, 0.0, 0.0, 0.0, 0.0, 0.0, 0.0, 0.0, 0.0, 0.0, 1.6635918733206866E9, 0.0, 2022-09-19 17:51:13.320
129.0, -37205.50682610355, -30910.227407244136, -39539.49833387117, -36678.69856103642, -53727.62575478861, 187500.0, -37007.93975686309, -38727.01242292076, 0.776, -0.672, 0.146, 192.0, 0.0, 0.0, 0.0, 0.0, 0.0, 0.0, 0.0, 0.0, 0.0, 1.6635918733246813E9, 0.0, 2022-09-19 17:51:13.324
130.0, -37197.14727367726, -30918.385793970323, -39535.78794429159, -36705.05126774922, -53741.19326367298, 187500.0, -36801.49904507388, -38763.49046987182, 0.776, -0.672, 0.146, 192.0, 0.0, 0.0, 0.0, 0.0, 0.0, 0.0, 0.0, 0.0, 0.0, 1.663591873329636E9, 0.0, 2022-09-19 17:51:13.329
131.0, -37215.00631749706, -30937.31772152397, -39566.521592917634, -36721.926834812984, -53765.8919412961, 187500.0, -36788.22210886742, -38778.3543799346, 0.776, -0.672, 0.146, 192.0, 0.0, 0.0, 0.0, 0.0, 0.0, 0.0, 0.0, 0.0, 0.0, 1.663591873332693E9, 0.0, 2022-09-19 17:51:13.332
132.0, -37224.12582923482, -30935.484878478634, -39575.30582848857, -36685.96287798439, -53749.86574052164, 187500.0, -37067.66361804767, -38730.29812935569, 0.776, -0.672, 0.146, 192.0, 0.0, 0.0, 0.0, 0.0, 0.0, 0.0, 0.0, 0.0, 0.0, 1.6635918733366847E9, 0.0, 2022-09-19 17:51:13.336
133.0, -37205.81975052592, -30916.038860802517, -39546.047394996574, -36663.09704340661, -53718.17096688402, 187500.0, -37116.16690351569, -38707.05231512217, 0.776, -0.672, 0.146, 192.0, 0.0, 0.0, 0.0, 0.0, 0.0, 0.0, 0.0, 0.0, 0.0, 1.6635918733407638E9, 0.0, 2022-09-19 17:51:13.340
134.0, -37193.90627073125, -30901.666689117756, -39531.80933377855, -36668.39440684252, -53716.40517907205, 187500.0, -37001.16717829313, -38716.41769604894, 0.776, -0.672, 0.146, 192.0, 0.0, 0.0, 0.0, 0.0, 0.0, 0.0, 0.0, 0.0, 0.0, 1.6635918733447225E9, 0.0, 2022-09-19 17:51:13.344
135.0, -37191.3805236078, -30908.595729898898, -39526.131990686896, -36694.54594785523, -53733.14663566907, 187500.0, -36799.465036328445, -38751.26406565477, 0.764, -0.668, 0.148, 192.0, 23.0, 224.0, 235.0, 32.0, 4.0, 160.0, 0.0, 0.0, 0.0, 1.663591873348735E9, 0.0, 2022-09-19 17:51:13.348
136.0, -37219.78959081049, -30932.78031739954, -39559.59255213649, -36713.72374459788, -53759.655804593065, 187500.0, -36794.25707987035, -38768.29609492971, 0.764, -0.668, 0.148, 192.0, 0.0, 0.0, 0.0, 0.0, 0.0, 0.0, 0.0, 0.0, 0.0, 1.6635918733526947E9, 0.0, 2022-09-19 17:51:13.352
137.0, -37232.261864216554, -30930.142811553815, -39575.14936627739, -36684.26414540579, -53746.088295708694, 187500.0, -37075.799653029404, -38724.129047886025, 0.764, -0.668, 0.148, 192.0, 0.0, 0.0, 0.0, 0.0, 0.0, 0.0, 0.0, 0.0, 0.0, 1.6635918733567555E9, 0.0, 2022-09-19 17:51:13.356
138.0, -37207.78670403799, -30907.656956631778, -39543.2310751952, -36663.968761440374, -53716.651048261054, 187500.0, -37121.2631012515, -38706.94055639989, 0.764, -0.668, 0.148, 192.0, 0.0, 0.0, 0.0, 0.0, 0.0, 0.0, 0.0, 0.0, 0.0, 1.6635918733607492E9, 0.0, 2022-09-19 17:51:13.360
139.0, -37196.99081146608, -30902.4937036626, -39524.6791272973, -36666.136880652535, -53715.198184871464, 187500.0, -37003.20118703857, -38715.724791970824, 0.764, -0.668, 0.148, 192.0, 0.0, 0.0, 0.0, 0.0, 0.0, 0.0, 0.0, 0.0, 0.0, 1.663591873363777E9, 0.0, 2022-09-19 17:51:13.363
140.0, -37196.744942277066, -30913.960148568174, -39520.946385973264, -36689.87443326407, -53730.375019356616, 187500.0, -36796.38049559361, -38748.00071096429, 0.764, -0.668, 0.148, 192.0, 0.0, 0.0, 0.0, 0.0, 0.0, 0.0, 0.0, 0.0, 0.0, 1.6635918733687437E9, 0.0, 2022-09-19 17:51:13.368
141.0, -37217.42030589823, -30932.31093076598, -39550.9871305212, -36704.850102049124, -53754.291385923796, 187500.0, -36791.15018739107, -38757.79077503571, 0.764, -0.668, 0.148, 192.0, 0.0, 0.0, 0.0, 0.0, 0.0, 0.0, 0.0, 0.0, 0.0, 1.6635918733727705E9, 0.0, 2022-09-19 17:51:13.372
142.0, -37230.47372466013, -30927.17002954126, -39567.59447665149, -36670.741340010325, -53734.979478714406, 187500.0, -37073.67623730615, -38709.39924828998, 0.764, -0.668, 0.148, 192.0, 0.0, 0.0, 0.0, 0.0, 0.0, 0.0, 0.0, 0.0, 0.0, 1.6635918733767984E9, 0.0, 2022-09-19 17:51:13.376
143.0, -37219.36490766584, -30912.21671250066, -39544.795697307076, -36656.45857530339, -53711.286629591785, 187500.0, -37124.92878734217, -38700.0338673632, 0.764, -0.668, 0.148, 192.0, 0.0, 0.0, 0.0, 0.0, 0.0, 0.0, 0.0, 0.0, 0.0, 1.6635918733807733E9, 0.0, 2022-09-19 17:51:13.380
144.0, -37207.6302418268, -30907.411087442768, -39529.23888316618, -36669.75786325429, -53712.87360344811, 187500.0, -37008.81147489685, -38721.15626587347, 0.764, -0.668, 0.148, 192.0, 0.0, 0.0, 0.0, 0.0, 0.0, 0.0, 0.0, 0.0, 0.0, 1.663591873385883E9, 0.0, 2022-09-19 17:51:13.385
145.0, -37188.36303810633, -30908.819247343454, -39517.75008651616, -36696.1105699671, -53726.28465012129, 187500.0, -36799.04035318379, -38753.38748137802, 0.764, -0.668, 0.148, 192.0, 0.0, 0.0, 0.0, 0.0, 0.0, 0.0, 0.0, 0.0, 0.0, 1.6635918733887832E9, 0.0, 2022-09-19 17:51:13.388
146.0, -37223.16470422324, -30931.59567494341, -39547.07557524152, -36710.75096258533, -53754.626662090624, 187500.0, -36804.85180674217, -38764.42924313894, 0.76, -0.672, 0.15, 192.0, 23.0, 192.0, 235.0, 0.0, 4.0, 176.0, 0.0, 0.0, 0.0, 1.663591873392824E9, 0.0, 2022-09-19 17:51:13.392
147.0, -37228.86439905935, -30926.678291163244, -39569.40496795237, -36678.02800870276, -53741.50618809536, 187500.0, -37088.450740391105, -38719.94927167288, 0.76, -0.672, 0.15, 192.0, 0.0, 0.0, 0.0, 0.0, 0.0, 0.0, 0.0, 0.0, 0.0, 1.6635918733969333E9, 0.0, 2022-09-19 17:51:13.396
148.0, -37203.76339003604, -30904.21478798566, -39543.946331017774, -36656.5032787923, -53711.7783679698, 187500.0, -37128.75093564403, -38701.17380633042, 0.76, -0.672, 0.15, 192.0, 0.0, 0.0, 0.0, 0.0, 0.0, 0.0, 0.0, 0.0, 0.0, 1.6635918734008682E9, 0.0, 2022-09-19 17:51:13.400
149.0, -37192.45340734165, -30895.899939048286, -39528.32246164352, -36661.08538640563, -53711.219574358416, 187500.0, -37010.37609700872, -38713.10963786956, 0.76, -0.672, 0.15, 192.0, 0.0, 0.0, 0.0, 0.0, 0.0, 0.0, 0.0, 0.0, 0.0, 1.6635918734048347E9, 0.0, 2022-09-19 17:51:13.404
150.0, -37189.905308473746, -30907.276976976038, -39522.980394718696, -36688.93565999695, -53729.14567341157, 187500.0, -36803.42129509703, -38752.29224589971, 0.76, -0.672, 0.15, 192.0, 0.0, 0.0, 0.0, 0.0, 0.0, 0.0, 0.0, 0.0, 0.0, 1.6635918734088929E9, 0.0, 2022-09-19 17:51:13.408
151.0, -37209.2842709165, -30928.6005411864, -39552.35058693297, -36701.05030549173, -53755.36426965765, 187500.0, -36805.09767593118, -38760.31652215916, 0.76, -0.672, 0.15, 192.0, 0.0, 0.0, 0.0, 0.0, 0.0, 0.0, 0.0, 0.0, 0.0, 1.6635918734128332E9, 0.0, 2022-09-19 17:51:13.412
152.0, -37227.791515325494, -30926.20890452968, -39570.50020343068, -36666.22628763036, -53736.11941768163, 187500.0, -37089.076589235854, -38710.002745390266, 0.76, -0.672, 0.15, 192.0, 0.0, 0.0, 0.0, 0.0, 0.0, 0.0, 0.0, 0.0, 0.0, 1.6635918734168732E9, 0.0, 2022-09-19 17:51:13.416
153.0, -37206.19973018167, -30903.901863563286, -39540.660624582844, -36646.86967693206, -53703.798795199255, 187500.0, -37125.04054606445, -38694.53533822719, 0.76, -0.672, 0.15, 192.0, 0.0, 0.0, 0.0, 0.0, 0.0, 0.0, 0.0, 0.0, 0.0, 1.6635918734198692E9, 0.0, 2022-09-19 17:51:13.419
154.0, -37193.83921549788, -30898.78331408302, -39523.56154007454, -36654.91630493597, -53702.43533878748, 187500.0, -37005.391657995184, -38711.58971924659, 0.76, -0.672, 0.15, 192.0, 0.0, 0.0, 0.0, 0.0, 0.0, 0.0, 0.0, 0.0, 0.0, 1.663591873424908E9, 0.0, 2022-09-19 17:51:13.424
155.0, -37194.442712598175, -30907.63460488732, -39518.33123187199, -36684.71118029489, -53723.445978575466, 187500.0, -36800.94025146249, -38750.124126687544, 0.76, -0.672, 0.15, 192.0, 0.0, 0.0, 0.0, 0.0, 0.0, 0.0, 0.0, 0.0, 0.0, 1.663591873428877E9, 0.0, 2022-09-19 17:51:13.428
156.0, -37212.614680840335, -30926.521828952056, -39548.841363053485, -36702.54787237023, -53751.005679488866, 187500.0, -36807.26579514334, -38764.36218790557, 0.756, -0.672, 0.148, 192.0, 23.0, 160.0, 235.0, 0.0, 4.0, 160.0, 0.0, 0.0, 0.0, 1.663591873432906E9, 0.0, 2022-09-19 17:51:13.432
157.0, -37219.32020417693, -30917.290558492015, -39564.286418472104, -36663.00763642879, -53732.76665601333, 187500.0, -37088.07076073537, -38708.77339944523, 0.756, -0.672, 0.148, 192.0, 0.0, 0.0, 0.0, 0.0, 0.0, 0.0, 0.0, 0.0, 0.0, 1.663591873436869E9, 0.0, 2022-09-19 17:51:13.436
158.0, -37196.29790738796, -30895.96699428165, -39535.02798498011, -36641.01351988477, -53703.15059461005, 187500.0, -37125.55463618692, -38689.21562304683, 0.756, -0.672, 0.148, 192.0, 0.0, 0.0, 0.0, 0.0, 0.0, 0.0, 0.0, 0.0, 0.0, 1.6635918734409115E9, 0.0, 2022-09-19 17:51:13.440
159.0, -37189.03359043999, -30893.217729713648, -39518.42063884981, -36653.418738057466, -53703.508222521334, 187500.0, -37006.35278300676, -38708.50517851176, 0.756, -0.672, 0.148, 192.0, 0.0, 0.0, 0.0, 0.0, 0.0, 0.0, 0.0, 0.0, 0.0, 1.663591873444899E9, 0.0, 2022-09-19 17:51:13.444
160.0, -37192.09577943037, -30903.879511818828, -39518.711211527734, -36687.795721029725, -53724.004772186854, 187500.0, -36798.548614805775, -38749.00653946478, 0.756, -0.672, 0.148, 192.0, 0.0, 0.0, 0.0, 0.0, 0.0, 0.0, 0.0, 0.0, 0.0, 1.6635918734479415E9, 0.0, 2022-09-19 17:51:13.447
161.0, -37221.9353582782, -30927.818230130462, -39552.57410437753, -36707.93464278396, -53761.04161274929, 187500.0, -36806.75170502087, -38767.49143212932, 0.756, -0.672, 0.148, 192.0, 0.0, 0.0, 0.0, 0.0, 0.0, 0.0, 0.0, 0.0, 0.0, 1.663591873451938E9, 0.0, 2022-09-19 17:51:13.451
162.0, -37222.89648328978, -30920.285692249025, -39567.661531884856, -36672.48477607784, -53746.98236548691, 187500.0, -37084.18155720014, -38720.79863796218, 0.756, -0.672, 0.148, 192.0, 0.0, 0.0, 0.0, 0.0, 0.0, 0.0, 0.0, 0.0, 0.0, 1.6635918734569464E9, 0.0, 2022-09-19 17:51:13.456
