%OpenBCI Raw EEG Data
%Number of channels = 8
%Sample Rate = 250 Hz
%Board = OpenBCI_GUI$BoardCytonSerial
Sample Index, EXG Channel 0, EXG Channel 1, EXG Channel 2, EXG Channel 3, EXG Channel 4, EXG Channel 5, EXG Channel 6, EXG Channel 7, Accel Channel 0, Accel Channel 1, Accel Channel 2, Other, Other, Other, Other, Other, Other, Other, Analog Channel 0, Analog Channel 1, Analog Channel 2, Timestamp, Other, Timestamp (Formatted)
29.0, -14821.128823891739, -12958.80382762001, -20554.999477267203, -17327.72050234324, 187500.0, 187500.0, -1598.1050250655444, -27942.72040637975, 0.0, 0.0, 0.0, 192.0, 0.0, 0.0, 0.0, 0.0, 0.0, 0.0, 0.0, 0.0, 0.0, 1.663587870227823E9, 0.0, 2022-09-19 16:44:30.227
30.0, -14806.17550685114, -12951.763028116588, -20555.267698200667, -17333.91193555736, 187500.0, 187500.0, -1572.244056730754, -27950.67762740584, 0.0, 0.0, 0.0, 192.0, 0.0, 0.0, 0.0, 0.0, 0.0, 0.0, 0.0, 0.0, 0.0, 1.663587870227857E9, 0.0, 2022-09-19 16:44:30.227
31.0, -14804.02973938343, -12947.6056036479, -20557.88285230194, -17333.19667973479, 187500.0, 187500.0, -1552.7533355657263, -27949.895316349903, 0.0, 0.0, 0.0, 192.0, 0.0, 0.0, 0.0, 0.0, 0.0, 0.0, 0.0, 0.0, 0.0, 1.6635878702278728E9, 0.0, 2022-09-19 16:44:30.227
0.0, 0.0, 0.0, 0.0, 0.0, 0.0, 0.0, 0.0, 0.0, 0.0, 0.0, 0.0, 192.0, 0.0, 0.0, 0.0, 0.0, 0.0, 0.0, 0.0, 0.0, 0.0, 1.6635878703237514E9, 0.0, 2022-09-19 16:44:30.323
1.0, -13777.458820040087, -12076.11108733548, -20775.410029340987, -17338.695208870795, 187500.0, 187500.0, 715.7252092033874, -27275.92316578903, 0.75, -0.562, 0.436, 192.0, 23.0, 112.0, 238.0, 112.0, 13.0, 160.0, 0.0, 0.0, 0.0, 1.6635878703408184E9, 0.0, 2022-09-19 16:44:30.340
2.0, -13774.083706627334, -12062.498874962197, -20774.91829096297, -17337.890546070405, 187500.0, 187500.0, 737.7640292363202, -27276.392552422592, 0.75, -0.562, 0.436, 192.0, 0.0, 0.0, 0.0, 0.0, 0.0, 0.0, 0.0, 0.0, 0.0, 1.6635878703438373E9, 0.0, 2022-09-19 16:44:30.343
3.0, -13780.744526475017, -12095.892381178426, -20781.579110810653, -17349.155825275877, 187500.0, 187500.0, 779.4276809010125, -27289.423619440036, 0.75, -0.562, 0.436, 192.0, 0.0, 0.0, 0.0, 0.0, 0.0, 0.0, 0.0, 0.0, 0.0, 1.6635878703468657E9, 0.0, 2022-09-19 16:44:30.346
4.0, -13780.744526475017, -12093.523096266163, -20787.39056436903, -17357.358915490975, 187500.0, 187500.0, 831.797818159797, -27295.927977076528, 0.75, -0.562, 0.436, 192.0, 0.0, 0.0, 0.0, 0.0, 0.0, 0.0, 0.0, 0.0, 0.0, 1.6635878703519208E9, 0.0, 2022-09-19 16:44:30.351
5.0, -13797.575390049862, -12114.265515120687, -20791.078602204158, -17355.838996868017, 187500.0, 187500.0, 831.7754664153417, -27291.278814229827, 0.75, -0.562, 0.436, 192.0, 0.0, 0.0, 0.0, 0.0, 0.0, 0.0, 0.0, 0.0, 0.0, 1.6635878703548353E9, 0.0, 2022-09-19 16:44:30.354
6.0, -13791.272198113465, -12051.278299245632, -20784.998927712313, -17346.898299085893, 187500.0, 187500.0, 815.7939691297971, -27286.070857771738, 0.75, -0.562, 0.436, 192.0, 0.0, 0.0, 0.0, 0.0, 0.0, 0.0, 0.0, 0.0, 0.0, 1.663587870358854E9, 0.0, 2022-09-19 16:44:30.358
7.0, -13791.16043939119, -12056.352145236988, -20781.82497999966, -17345.311325229566, 187500.0, 187500.0, 823.9076523670736, -27276.817235567243, 0.75, -0.562, 0.436, 192.0, 0.0, 0.0, 0.0, 0.0, 0.0, 0.0, 0.0, 0.0, 0.0, 1.6635878703628674E9, 0.0, 2022-09-19 16:44:30.362
8.0, -13789.148782390212, -12077.586302469528, -20789.178703925456, -17356.889528857413, 187500.0, 187500.0, 854.797763204308, -27284.819160082243, 0.756, -0.5700000000000001, 0.424, 192.0, 23.0, 160.0, 238.0, 48.0, 13.0, 64.0, 0.0, 0.0, 0.0, 1.6635878703678877E9, 0.0, 2022-09-19 16:44:30.367
9.0, -13788.254712611999, -12073.652395445395, -20793.02320397177, -17358.632964924927, 187500.0, 187500.0, 897.8472230252294, -27287.903700817074, 0.756, -0.5700000000000001, 0.424, 192.0, 0.0, 0.0, 0.0, 0.0, 0.0, 0.0, 0.0, 0.0, 0.0, 1.663587870371889E9, 0.0, 2022-09-19 16:44:30.371
10.0, -13791.629826024751, -12060.554273194584, -20783.16608466698, -17350.184005520823, 187500.0, 187500.0, 891.4099206221009, -27286.60729963867, 0.756, -0.5700000000000001, 0.424, 192.0, 0.0, 0.0, 0.0, 0.0, 0.0, 0.0, 0.0, 0.0, 0.0, 1.6635878703769252E9, 0.0, 2022-09-19 16:44:30.376
11.0, -13776.765915961972, -12046.606784654474, -20769.39741008251, -17339.790444349106, 187500.0, 187500.0, 868.6558447665984, -27275.274965199827, 0.756, -0.5700000000000001, 0.424, 192.0, 0.0, 0.0, 0.0, 0.0, 0.0, 0.0, 0.0, 0.0, 0.0, 1.6635878703809564E9, 0.0, 2022-09-19 16:44:30.380
12.0, -13783.113811387278, -12071.05959308858, -20764.882357702536, -17339.209298993268, 187500.0, 187500.0, 868.8793622111515, -27270.40228490857, 0.756, -0.5700000000000001, 0.424, 192.0, 0.0, 0.0, 0.0, 0.0, 0.0, 0.0, 0.0, 0.0, 0.0, 1.6635878703840475E9, 0.0, 2022-09-19 16:44:30.384
13.0, -13773.413154293676, -12053.155845779878, -20769.129189149047, -17345.043104296103, 187500.0, 187500.0, 891.6781415555647, -27277.376029178624, 0.756, -0.5700000000000001, 0.424, 192.0, 0.0, 0.0, 0.0, 0.0, 0.0, 0.0, 0.0, 0.0, 0.0, 1.6635878703879547E9, 0.0, 2022-09-19 16:44:30.387
14.0, -13777.659985740183, -12067.349203508998, -20764.725895491352, -17343.634944395417, 187500.0, 187500.0, 934.3252699762905, -27274.850282055177, 0.756, -0.5700000000000001, 0.424, 192.0, 0.0, 0.0, 0.0, 0.0, 0.0, 0.0, 0.0, 0.0, 0.0, 1.6635878703909476E9, 0.0, 2022-09-19 16:44:30.390
15.0, -13792.38978533623, -12074.188837312322, -20757.975668665847, -17338.56109840406, 187500.0, 187500.0, 928.0444297843493, -27277.890119301097, 0.756, -0.5700000000000001, 0.424, 192.0, 0.0, 0.0, 0.0, 0.0, 0.0, 0.0, 0.0, 0.0, 0.0, 1.6635878703949125E9, 0.0, 2022-09-19 16:44:30.394
16.0, -13790.10990740179, -12046.226804998732, -20745.883374915527, -17331.229726222722, 187500.0, 187500.0, 895.3661793906903, -27270.201119208472, 0.756, -0.5700000000000001, 0.424, 192.0, 0.0, 0.0, 0.0, 0.0, 0.0, 0.0, 0.0, 0.0, 0.0, 1.6635878703989916E9, 0.0, 2022-09-19 16:44:30.398
17.0, -13778.084668884834, -12044.930403820324, -20740.429549268432, -17326.982894776214, 187500.0, 187500.0, 893.5780398342657, -27262.44506388248, 0.756, -0.5700000000000001, 0.424, 192.0, 0.0, 0.0, 0.0, 0.0, 0.0, 0.0, 0.0, 0.0, 0.0, 1.663587870402969E9, 0.0, 2022-09-19 16:44:30.402
18.0, -13770.19450309211, -12057.246215015199, -20745.615153982064, -17331.922630300836, 187500.0, 187500.0, 921.1600924921147, -27270.469340141935, 0.75, -0.5720000000000001, 0.41600000000000004, 192.0, 23.0, 112.0, 238.0, 32.0, 13.0, 0.0, 0.0, 0.0, 0.0, 1.6635878704079473E9, 0.0, 2022-09-19 16:44:30.407
19.0, -13771.848532181804, -12070.67961343284, -20754.511148275276, -17341.824453094538, 187500.0, 187500.0, 965.0142151134271, -27282.181654236516, 0.75, -0.5720000000000001, 0.41600000000000004, 192.0, 0.0, 0.0, 0.0, 0.0, 0.0, 0.0, 0.0, 0.0, 0.0, 1.6635878704109023E9, 0.0, 2022-09-19 16:44:30.410
20.0, -13776.005956650491, -12083.710680450284, -20757.81920645466, -17341.10919727197, 187500.0, 187500.0, 970.5797994827985, -27276.370200678135, 0.75, -0.5720000000000001, 0.41600000000000004, 192.0, 0.0, 0.0, 0.0, 0.0, 0.0, 0.0, 0.0, 0.0, 0.0, 1.663587870414049E9, 0.0, 2022-09-19 16:44:30.414
21.0, -13782.242093353521, -12078.100392592001, -20758.378000066044, -17343.210261250766, 187500.0, 187500.0, 960.8791423891953, -27270.603450608665, 0.75, -0.5720000000000001, 0.41600000000000004, 192.0, 0.0, 0.0, 0.0, 0.0, 0.0, 0.0, 0.0, 0.0, 0.0, 1.6635878704189484E9, 0.0, 2022-09-19 16:44:30.418
22.0, -13775.380107805742, -12089.320968308564, -20762.647183257006, -17349.021714809147, 187500.0, 187500.0, 986.918924679628, -27275.29731694428, 0.75, -0.5720000000000001, 0.41600000000000004, 192.0, 0.0, 0.0, 0.0, 0.0, 0.0, 0.0, 0.0, 0.0, 0.0, 1.663587870423021E9, 0.0, 2022-09-19 16:44:30.423
23.0, -13757.319898285854, -12078.882703647936, -20761.507244289787, -17350.161653776366, 187500.0, 187500.0, 1044.9217015411498, -27278.717133845945, 0.75, -0.5720000000000001, 0.41600000000000004, 192.0, 0.0, 0.0, 0.0, 0.0, 0.0, 0.0, 0.0, 0.0, 0.0, 1.6635878704269598E9, 0.0, 2022-09-19 16:44:30.426
24.0, -13752.357811016776, -12076.558122224586, -20768.25747111529, -17357.202453279788, 187500.0, 187500.0, 1112.8039494519173, -27290.183578751516, 0.75, -0.5720000000000001, 0.41600000000000004, 192.0, 0.0, 0.0, 0.0, 0.0, 0.0, 0.0, 0.0, 0.0, 0.0, 1.6635878704309828E9, 0.0, 2022-09-19 16:44:30.430
25.0, -13772.720250215561, -12113.796128487127, -20779.545102065218, -17363.148017304902, 187500.0, 187500.0, 1137.659089286219, -27305.539227192312, 0.75, -0.5720000000000001, 0.41600000000000004, 192.0, 0.0, 0.0, 0.0, 0.0, 0.0, 0.0, 0.0, 0.0, 0.0, 1.6635878704360063E9, 0.0, 2022-09-19 16:44:30.436
26.0, -13789.34994809031, -12141.624050333983, -20779.947433465415, -17363.52799696064, 187500.0, 187500.0, 1136.3179846189005, -27308.73552664942, 0.75, -0.5720000000000001, 0.41600000000000004, 192.0, 0.0, 0.0, 0.0, 0.0, 0.0, 0.0, 0.0, 0.0, 0.0, 1.663587870438986E9, 0.0, 2022-09-19 16:44:30.438
27.0, -13767.802866435393, -12055.905110347881, -20775.208863640888, -17354.43083696733, 187500.0, 187500.0, 1167.5210198785092, -27296.665584643553, 0.75, -0.5720000000000001, 0.41600000000000004, 192.0, 0.0, 0.0, 0.0, 0.0, 0.0, 0.0, 0.0, 0.0, 0.0, 1.6635878704420135E9, 0.0, 2022-09-19 16:44:30.442
28.0, -13748.602717948284, -12031.51935714714, -20779.232177642843, -17358.789427136115, 187500.0, 187500.0, 1218.3488867698775, -27296.039735798808, 0.754, -0.5720000000000001, 0.41200000000000003, 192.0, 23.0, 144.0, 238.0, 32.0, 12.0, 224.0, 0.0, 0.0, 0.0, 1.663587870448037E9, 0.0, 2022-09-19 16:44:30.448
29.0, -13739.080874810325, -12034.536842648607, -20773.62188978456, -17361.918671359857, 187500.0, 187500.0, 1281.8501927674047, -27299.54895967829, 0.754, -0.5720000000000001, 0.41200000000000003, 192.0, 0.0, 0.0, 0.0, 0.0, 0.0, 0.0, 0.0, 0.0, 0.0, 1.6635878704509945E9, 0.0, 2022-09-19 16:44:30.450
30.0, -13740.824310877839, -12049.110180033467, -20764.18945362442, -17359.236462025223, 187500.0, 187500.0, 1301.87735579936, -27296.35266022118, 0.754, -0.5720000000000001, 0.41200000000000003, 192.0, 0.0, 0.0, 0.0, 0.0, 0.0, 0.0, 0.0, 0.0, 0.0, 1.6635878704550457E9, 0.0, 2022-09-19 16:44:30.455
31.0, -13738.276212009932, -12063.929386607337, -20760.322601833654, -17364.757342905683, 187500.0, 187500.0, 1295.6188673518739, -27303.5946254247, 0.754, -0.5720000000000001, 0.41200000000000003, 192.0, 0.0, 0.0, 0.0, 0.0, 0.0, 0.0, 0.0, 0.0, 0.0, 1.6635878704590316E9, 0.0, 2022-09-19 16:44:30.459
32.0, -13737.940935843104, -12078.033337358635, -20757.930965176936, -17365.606709194984, 187500.0, 187500.0, 1323.0891612874464, -27303.661680658064, 0.754, -0.5720000000000001, 0.41200000000000003, 192.0, 0.0, 0.0, 0.0, 0.0, 0.0, 0.0, 0.0, 0.0, 0.0, 1.6635878704630287E9, 0.0, 2022-09-19 16:44:30.463
33.0, -13743.260651023467, -12096.115898622978, -20764.457674557885, -17369.18298830783, 187500.0, 187500.0, 1378.6779497477949, -27300.30891898977, 0.754, -0.5720000000000001, 0.41200000000000003, 192.0, 0.0, 0.0, 0.0, 0.0, 0.0, 0.0, 0.0, 0.0, 0.0, 1.6635878704660525E9, 0.0, 2022-09-19 16:44:30.466
34.0, -13745.585232446818, -12094.953607911302, -20776.259395630288, -17376.670822700362, 187500.0, 187500.0, 1449.0188895486463, -27298.721945133442, 0.754, -0.5720000000000001, 0.41200000000000003, 192.0, 0.0, 0.0, 0.0, 0.0, 0.0, 0.0, 0.0, 0.0, 0.0, 1.6635878704700327E9, 0.0, 2022-09-19 16:44:30.470
35.0, -13757.364601774765, -12084.62710197295, -20768.212767626377, -17366.120799317458, 187500.0, 187500.0, 1472.5999799489953, -27294.765686364855, 0.754, -0.5720000000000001, 0.41200000000000003, 192.0, 0.0, 0.0, 0.0, 0.0, 0.0, 0.0, 0.0, 0.0, 0.0, 1.6635878704749892E9, 0.0, 2022-09-19 16:44:30.474
36.0, -13755.576462218341, -12080.357918781987, -20768.235119370835, -17362.879796371435, 187500.0, 187500.0, 1463.927503100336, -27297.559654421766, 0.754, -0.5720000000000001, 0.41200000000000003, 192.0, 0.0, 0.0, 0.0, 0.0, 0.0, 0.0, 0.0, 0.0, 0.0, 1.6635878704791303E9, 0.0, 2022-09-19 16:44:30.479
37.0, -13761.544377987908, -12102.776718470659, -20772.616061284072, -17367.59601445151, 187500.0, 187500.0, 1478.5902474630175, -27303.81814286925, 0.754, -0.5720000000000001, 0.41200000000000003, 192.0, 0.0, 0.0, 0.0, 0.0, 0.0, 0.0, 0.0, 0.0, 0.0, 1.6635878704830625E9, 0.0, 2022-09-19 16:44:30.483
38.0, -13758.705706442084, -12101.055634147602, -20772.861930473082, -17372.893377887416, 187500.0, 187500.0, 1513.4813205577518, -27312.624730184645, 0.748, -0.5720000000000001, 0.41200000000000003, 192.0, 23.0, 96.0, 238.0, 32.0, 12.0, 224.0, 0.0, 0.0, 0.0, 1.6635878704870558E9, 0.0, 2022-09-19 16:44:30.487
39.0, -13758.01280236397, -12105.794203972126, -20771.4537705724, -17375.754401177695, 187500.0, 187500.0, 1559.0341757576675, -27315.105773819185, 0.748, -0.5720000000000001, 0.41200000000000003, 192.0, 0.0, 0.0, 0.0, 0.0, 0.0, 0.0, 0.0, 0.0, 0.0, 1.6635878704910872E9, 0.0, 2022-09-19 16:44:30.491
40.0, -13761.834950665827, -12101.368558569975, -20767.318697848164, -17373.139247076422, 187500.0, 187500.0, 1555.9719867672904, -27317.45270698699, 0.748, -0.5720000000000001, 0.41200000000000003, 192.0, 0.0, 0.0, 0.0, 0.0, 0.0, 0.0, 0.0, 0.0, 0.0, 1.6635878704941084E9, 0.0, 2022-09-19 16:44:30.494
41.0, -13758.124561086246, -12101.547372525618, -20763.58595652413, -17366.9478138623, 187500.0, 187500.0, 1518.3540008490088, -27299.236035255915, 0.748, -0.5720000000000001, 0.41200000000000003, 192.0, 0.0, 0.0, 0.0, 0.0, 0.0, 0.0, 0.0, 0.0, 0.0, 1.663587870498088E9, 0.0, 2022-09-19 16:44:30.498
42.0, -13746.81457839186, -12108.58817202904, -20760.277898344746, -17360.95754634828, 187500.0, 187500.0, 1508.183957121844, -27296.531474176823, 0.748, -0.5720000000000001, 0.41200000000000003, 192.0, 0.0, 0.0, 0.0, 0.0, 0.0, 0.0, 0.0, 0.0, 0.0, 1.6635878705030775E9, 0.0, 2022-09-19 16:44:30.503
43.0, -13734.521118941442, -12083.934197894836, -20768.615099026574, -17363.25977602718, 187500.0, 187500.0, 1519.605698538506, -27300.465381200956, 0.748, -0.5720000000000001, 0.41200000000000003, 192.0, 0.0, 0.0, 0.0, 0.0, 0.0, 0.0, 0.0, 0.0, 0.0, 1.6635878705070844E9, 0.0, 2022-09-19 16:44:30.507
44.0, -13738.253860265479, -12099.20043935781, -20772.01256418378, -17365.11497081697, 187500.0, 187500.0, 1540.3257656485755, -27297.537302677312, 0.748, -0.5720000000000001, 0.41200000000000003, 192.0, 0.0, 0.0, 0.0, 0.0, 0.0, 0.0, 0.0, 0.0, 0.0, 1.663587870511114E9, 0.0, 2022-09-19 16:44:30.511
45.0, -13762.43844776612, -12140.506463111218, -20771.4537705724, -17365.137322561422, 187500.0, 187500.0, 1520.2986026166204, -27295.682107887522, 0.748, -0.5720000000000001, 0.41200000000000003, 192.0, 0.0, 0.0, 0.0, 0.0, 0.0, 0.0, 0.0, 0.0, 0.0, 1.6635878705150938E9, 0.0, 2022-09-19 16:44:30.515
46.0, -13775.58127350584, -12106.576515028062, -20765.083523402634, -17358.074171313547, 187500.0, 187500.0, 1478.0314538516348, -27292.083477030217, 0.748, -0.5720000000000001, 0.41200000000000003, 192.0, 0.0, 0.0, 0.0, 0.0, 0.0, 0.0, 0.0, 0.0, 0.0, 1.6635878705190752E9, 0.0, 2022-09-19 16:44:30.519
47.0, -13755.464703496064, -12045.802121854082, -20760.613174511574, -17349.401694464887, 187500.0, 187500.0, 1459.6359681649171, -27281.44404666949, 0.748, -0.5720000000000001, 0.41200000000000003, 192.0, 0.0, 0.0, 0.0, 0.0, 0.0, 0.0, 0.0, 0.0, 0.0, 1.663587870522232E9, 0.0, 2022-09-19 16:44:30.522
48.0, -13740.824310877839, -12044.416313697853, -20763.295383846213, -17347.25592699718, 187500.0, 187500.0, 1465.3356630010205, -27279.298279201783, 0.742, -0.5700000000000001, 0.41200000000000003, 192.0, 23.0, 48.0, 238.0, 48.0, 12.0, 224.0, 0.0, 0.0, 0.0, 1.6635878705281408E9, 0.0, 2022-09-19 16:44:30.528
49.0, -13726.072159537336, -12035.18504323781, -20761.06020940068, -17343.210261250766, 187500.0, 187500.0, 1489.9449336463135, -27272.235127953903, 0.742, -0.5700000000000001, 0.41200000000000003, 192.0, 0.0, 0.0, 0.0, 0.0, 0.0, 0.0, 0.0, 0.0, 0.0, 1.6635878705311773E9, 0.0, 2022-09-19 16:44:30.531
50.0, -13727.189746760101, -12048.618441655452, -20753.617078497064, -17341.355066460976, 187500.0, 187500.0, 1469.7166049142606, -27275.05144775527, 0.742, -0.5700000000000001, 0.41200000000000003, 192.0, 0.0, 0.0, 0.0, 0.0, 0.0, 0.0, 0.0, 0.0, 0.0, 1.6635878705361936E9, 0.0, 2022-09-19 16:44:30.536
51.0, -13746.568709202851, -12056.508607448175, -20747.35859004958, -17335.990647791703, 187500.0, 187500.0, 1426.4659793932415, -27273.419770410037, 0.742, -0.5700000000000001, 0.41200000000000003, 192.0, 0.0, 0.0, 0.0, 0.0, 0.0, 0.0, 0.0, 0.0, 0.0, 1.6635878705392263E9, 0.0, 2022-09-19 16:44:30.539
52.0, -13751.284927282923, -12064.398773240897, -20749.929040661937, -17337.33175245902, 187500.0, 187500.0, 1410.0374472185908, -27271.564575620247, 0.742, -0.5700000000000001, 0.41200000000000003, 192.0, 0.0, 0.0, 0.0, 0.0, 0.0, 0.0, 0.0, 0.0, 0.0, 1.6635878705431955E9, 0.0, 2022-09-19 16:44:30.543
53.0, -13731.660095651163, -12076.24519780221, -20746.643334227007, -17338.315229215055, 187500.0, 187500.0, 1425.0801712370123, -27273.19625296548, 0.742, -0.5700000000000001, 0.41200000000000003, 192.0, 0.0, 0.0, 0.0, 0.0, 0.0, 0.0, 0.0, 0.0, 0.0, 1.6635878705461411E9, 0.0, 2022-09-19 16:44:30.546
54.0, -13736.465720709053, -12085.476468262252, -20750.86781392906, -17341.980915305725, 187500.0, 187500.0, 1444.6602993798613, -27276.30314544477, 0.742, -0.5700000000000001, 0.41200000000000003, 192.0, 0.0, 0.0, 0.0, 0.0, 0.0, 0.0, 0.0, 0.0, 0.0, 1.6635878705502157E9, 0.0, 2022-09-19 16:44:30.550
55.0, -13736.868052109248, -12063.504703462686, -20748.20795633888, -17339.902203071382, 187500.0, 187500.0, 1427.2482904491771, -27278.515968145846, 0.742, -0.5700000000000001, 0.41200000000000003, 192.0, 0.0, 0.0, 0.0, 0.0, 0.0, 0.0, 0.0, 0.0, 0.0, 1.6635878705541892E9, 0.0, 2022-09-19 16:44:30.554
56.0, -13746.05461908038, -12065.091677319013, -20742.731778947327, -17333.28608671261, 187500.0, 187500.0, 1385.0705486620127, -27272.860976798653, 0.742, -0.5700000000000001, 0.41200000000000003, 192.0, 0.0, 0.0, 0.0, 0.0, 0.0, 0.0, 0.0, 0.0, 0.0, 1.66358787055824E9, 0.0, 2022-09-19 16:44:30.558
57.0, -13746.43459873612, -12071.461924488774, -20743.379979536534, -17335.52126115814, 187500.0, 187500.0, 1364.708109463228, -27277.73365708991, 0.742, -0.5700000000000001, 0.41200000000000003, 192.0, 0.0, 0.0, 0.0, 0.0, 0.0, 0.0, 0.0, 0.0, 0.0, 1.6635878705631485E9, 0.0, 2022-09-19 16:44:30.563
58.0, -13741.740732400505, -12073.160657067378, -20739.893107401505, -17335.3424472025, 187500.0, 187500.0, 1369.3349205654765, -27270.625802353123, 0.746, -0.578, 0.41000000000000003, 192.0, 23.0, 80.0, 237.0, 240.0, 12.0, 208.0, 0.0, 0.0, 0.0, 1.66358787056722E9, 0.0, 2022-09-19 16:44:30.567
59.0, -13753.67656393964, -12071.081944833035, -20740.697770201896, -17336.14711000289, 187500.0, 187500.0, 1388.2444963746664, -27266.24486043988, 0.746, -0.578, 0.41000000000000003, 192.0, 0.0, 0.0, 0.0, 0.0, 0.0, 0.0, 0.0, 0.0, 0.0, 1.6635878705712042E9, 0.0, 2022-09-19 16:44:30.571
60.0, -13754.235357551022, -12053.424066713342, -20738.797871923194, -17332.503775656674, 187500.0, 187500.0, 1366.1162693639124, -27265.328438917215, 0.746, -0.578, 0.41000000000000003, 192.0, 0.0, 0.0, 0.0, 0.0, 0.0, 0.0, 0.0, 0.0, 0.0, 1.6635878705741968E9, 0.0, 2022-09-19 16:44:30.574
61.0, -13737.203328276079, -12065.471656974752, -20729.879525885528, -17320.009150506157, 187500.0, 187500.0, 1318.8199780964826, -27248.028188708806, 0.746, -0.578, 0.41000000000000003, 192.0, 0.0, 0.0, 0.0, 0.0, 0.0, 0.0, 0.0, 0.0, 0.0, 1.663587870579258E9, 0.0, 2022-09-19 16:44:30.579
62.0, -13739.81848237735, -12081.721375193762, -20731.35474101958, -17316.835202793503, 187500.0, 187500.0, 1291.5284981165528, -27248.76579627583, 0.746, -0.578, 0.41000000000000003, 192.0, 0.0, 0.0, 0.0, 0.0, 0.0, 0.0, 0.0, 0.0, 0.0, 1.6635878705831952E9, 0.0, 2022-09-19 16:44:30.583
63.0, -13733.604697418774, -12037.57667989453, -20732.561735220163, -17313.191868447288, 187500.0, 187500.0, 1296.8035098080052, -27244.07192994022, 0.746, -0.578, 0.41000000000000003, 192.0, 0.0, 0.0, 0.0, 0.0, 0.0, 0.0, 0.0, 0.0, 0.0, 1.663587870586236E9, 0.0, 2022-09-19 16:44:30.586
64.0, -13739.617316677251, -12044.975107309236, -20740.787177179718, -17321.14908947338, 187500.0, 187500.0, 1311.5556611485079, -27247.24587765287, 0.746, -0.578, 0.41000000000000003, 192.0, 0.0, 0.0, 0.0, 0.0, 0.0, 0.0, 0.0, 0.0, 0.0, 1.6635878705902295E9, 0.0, 2022-09-19 16:44:30.590
65.0, -13756.247014552, -12087.957511896791, -20742.597668480597, -17319.67387433933, 187500.0, 187500.0, 1287.616942836874, -27254.621953323123, 0.746, -0.578, 0.41000000000000003, 192.0, 0.0, 0.0, 0.0, 0.0, 0.0, 0.0, 0.0, 0.0, 0.0, 1.663587870594277E9, 0.0, 2022-09-19 16:44:30.594
66.0, -13763.176055333144, -12098.619294001974, -20744.85519467058, -17321.484365640208, 187500.0, 187500.0, 1234.8668259223493, -27257.661790569044, 0.746, -0.578, 0.41000000000000003, 192.0, 0.0, 0.0, 0.0, 0.0, 0.0, 0.0, 0.0, 0.0, 0.0, 1.6635878705983045E9, 0.0, 2022-09-19 16:44:30.598
67.0, -13749.027401092935, -12056.396848725897, -20734.64044745451, -17313.929476014313, 187500.0, 187500.0, 1212.2245087891233, -27250.330418387704, 0.746, -0.578, 0.41000000000000003, 192.0, 0.0, 0.0, 0.0, 0.0, 0.0, 0.0, 0.0, 0.0, 0.0, 1.663587870603242E9, 0.0, 2022-09-19 16:44:30.603
68.0, -13737.918584098648, -12026.557269878063, -20727.711406673363, -17308.76622304514, 187500.0, 187500.0, 1210.90575586626, -27247.044711952774, 0.752, -0.578, 0.41600000000000004, 192.0, 23.0, 128.0, 237.0, 240.0, 13.0, 0.0, 0.0, 0.0, 0.0, 1.6635878706073406E9, 0.0, 2022-09-19 16:44:30.607
69.0, -13719.47839492302, -12023.137452976402, -20725.52093571674, -17309.928513756815, 187500.0, 187500.0, 1230.329421797922, -27251.515060843834, 0.752, -0.578, 0.41600000000000004, 192.0, 0.0, 0.0, 0.0, 0.0, 0.0, 0.0, 0.0, 0.0, 0.0, 1.663587870612268E9, 0.0, 2022-09-19 16:44:30.612
70.0, -13721.422996690631, -12024.61266811045, -20719.53066820272, -17300.406670618853, 187500.0, 187500.0, 1210.235203532601, -27243.781357262298, 0.752, -0.578, 0.41600000000000004, 192.0, 0.0, 0.0, 0.0, 0.0, 0.0, 0.0, 0.0, 0.0, 0.0, 1.663587870616255E9, 0.0, 2022-09-19 16:44:30.616
71.0, -13721.400644946176, -12023.293915187587, -20712.221647765833, -17295.913969983336, 187500.0, 187500.0, 1159.8990750192495, -27240.09331942717, 0.752, -0.578, 0.41600000000000004, 192.0, 0.0, 0.0, 0.0, 0.0, 0.0, 0.0, 0.0, 0.0, 0.0, 1.6635878706193123E9, 0.0, 2022-09-19 16:44:30.619
72.0, -13720.104243767768, -12027.026656511624, -20713.18277277741, -17299.244379907177, 187500.0, 187500.0, 1136.1168189188027, -27244.340150873682, 0.752, -0.578, 0.41600000000000004, 192.0, 0.0, 0.0, 0.0, 0.0, 0.0, 0.0, 0.0, 0.0, 0.0, 1.6635878706223576E9, 0.0, 2022-09-19 16:44:30.622
73.0, -13733.157662529668, -12042.650525885883, -20714.72504314483, -17311.18021144631, 187500.0, 187500.0, 1137.1002956748362, -27252.05150271076, 0.752, -0.578, 0.41600000000000004, 192.0, 0.0, 0.0, 0.0, 0.0, 0.0, 0.0, 0.0, 0.0, 0.0, 1.6635878706263435E9, 0.0, 2022-09-19 16:44:30.626
74.0, -13740.980773089024, -12071.439572744319, -20715.641464667497, -17316.56698186004, 187500.0, 187500.0, 1156.5910168398639, -27248.072892197717, 0.752, -0.578, 0.41600000000000004, 192.0, 0.0, 0.0, 0.0, 0.0, 0.0, 0.0, 0.0, 0.0, 0.0, 1.6635878706302848E9, 0.0, 2022-09-19 16:44:30.630
75.0, -13730.296639239388, -12048.52903467763, -20711.4393367099, -17313.795365547583, 187500.0, 187500.0, 1140.4530573431323, -27255.404264379056, 0.752, -0.578, 0.41600000000000004, 192.0, 0.0, 0.0, 0.0, 0.0, 0.0, 0.0, 0.0, 0.0, 0.0, 1.6635878706354344E9, 0.0, 2022-09-19 16:44:30.635
76.0, -13739.81848237735, -12055.1451510364, -20711.4393367099, -17308.98974048969, 187500.0, 187500.0, 1088.3287892733563, -27246.82119450822, 0.752, -0.578, 0.41600000000000004, 192.0, 0.0, 0.0, 0.0, 0.0, 0.0, 0.0, 0.0, 0.0, 0.0, 1.6635878706393485E9, 0.0, 2022-09-19 16:44:30.639
77.0, -13743.1935957901, -12078.100392592001, -20715.52970594522, -17313.90712426986, 187500.0, 187500.0, 1061.7078616270855, -27247.29058114178, 0.752, -0.578, 0.41600000000000004, 192.0, 0.0, 0.0, 0.0, 0.0, 0.0, 0.0, 0.0, 0.0, 0.0, 1.6635878706423404E9, 0.0, 2022-09-19 16:44:30.642
78.0, -13744.691162668607, -12088.896285163913, -20718.368377491042, -17320.34442667299, 187500.0, 187500.0, 1066.5358384294318, -27252.275020155314, 0.752, -0.578, 0.41600000000000004, 192.0, 0.0, 0.0, 0.0, 0.0, 0.0, 0.0, 0.0, 0.0, 0.0, 1.6635878706463127E9, 0.0, 2022-09-19 16:44:30.646
79.0, -13734.476415452531, -12062.43181972883, -20711.86401985455, -17316.276409182123, 187500.0, 187500.0, 1092.687379442141, -27249.81632826523, 0.752, -0.578, 0.418, 192.0, 23.0, 128.0, 237.0, 240.0, 13.0, 16.0, 0.0, 0.0, 0.0, 1.663587870650358E9, 0.0, 2022-09-19 16:44:30.650
80.0, -13755.82233140735, -12091.48908752073, -20710.925246587427, -17314.264752181145, 187500.0, 187500.0, 1080.4833269695434, -27245.569496818724, 0.752, -0.578, 0.418, 192.0, 0.0, 0.0, 0.0, 0.0, 0.0, 0.0, 0.0, 0.0, 0.0, 1.663587870654358E9, 0.0, 2022-09-19 16:44:30.654
81.0, -13750.904947627181, -12080.53673273763, -20708.377147719522, -17313.348330658475, 187500.0, 187500.0, 1038.596157860298, -27242.730825272898, 0.752, -0.578, 0.418, 192.0, 0.0, 0.0, 0.0, 0.0, 0.0, 0.0, 0.0, 0.0, 0.0, 1.6635878706583695E9, 0.0, 2022-09-19 16:44:30.658
82.0, -13720.260705978955, -12028.390112923398, -20703.90679882846, -17307.648635822374, 187500.0, 187500.0, 1023.82165477534, -27238.215772892927, 0.752, -0.578, 0.418, 192.0, 0.0, 0.0, 0.0, 0.0, 0.0, 0.0, 0.0, 0.0, 0.0, 1.6635878706633997E9, 0.0, 2022-09-19 16:44:30.663
83.0, -13719.210173989555, -12034.089807759501, -20705.29260698469, -17306.66515906634, 187500.0, 187500.0, 1036.6515560926862, -27235.466508324924, 0.752, -0.578, 0.418, 192.0, 0.0, 0.0, 0.0, 0.0, 0.0, 0.0, 0.0, 0.0, 0.0, 1.663587870667412E9, 0.0, 2022-09-19 16:44:30.667
84.0, -13717.62320013323, -12051.323002734543, -20708.265388997246, -17308.475650367218, 187500.0, 187500.0, 1065.664120395675, -27234.684197268987, 0.752, -0.578, 0.418, 192.0, 0.0, 0.0, 0.0, 0.0, 0.0, 0.0, 0.0, 0.0, 0.0, 1.6635878706704652E9, 0.0, 2022-09-19 16:44:30.670
85.0, -13708.906019795659, -12023.763301821149, -20713.115717544046, -17308.252132922666, 187500.0, 187500.0, 1049.9955475325046, -27237.29935137026, 0.752, -0.578, 0.418, 192.0, 0.0, 0.0, 0.0, 0.0, 0.0, 0.0, 0.0, 0.0, 0.0, 1.6635878706745272E9, 0.0, 2022-09-19 16:44:30.674
86.0, -13717.354979199765, -12019.650580841373, -20717.51901120174, -17307.42511837782, 187500.0, 187500.0, 1004.9567824550609, -27241.233258394393, 0.752, -0.578, 0.418, 192.0, 0.0, 0.0, 0.0, 0.0, 0.0, 0.0, 0.0, 0.0, 0.0, 1.6635878706794753E9, 0.0, 2022-09-19 16:44:30.679
87.0, -13717.243220477489, -12031.407598424865, -20721.452918225878, -17311.023749235126, 187500.0, 187500.0, 986.8965729351727, -27249.97279047642, 0.752, -0.578, 0.418, 192.0, 0.0, 0.0, 0.0, 0.0, 0.0, 0.0, 0.0, 0.0, 0.0, 1.663587870683411E9, 0.0, 2022-09-19 16:44:30.683
88.0, -13705.24033370499, -12041.197662496288, -20710.76878437624, -17300.049042707567, 187500.0, 187500.0, 997.1336718957034, -27232.29256061227, 0.752, -0.578, 0.418, 192.0, 0.0, 0.0, 0.0, 0.0, 0.0, 0.0, 0.0, 0.0, 0.0, 1.6635878706864922E9, 0.0, 2022-09-19 16:44:30.686
89.0, -13706.581438372308, -12057.38032548193, -20708.24303725279, -17303.22299042022, 187500.0, 187500.0, 1019.4630646065551, -27236.159412403038, 0.752, -0.5720000000000001, 0.418, 192.0, 23.0, 128.0, 238.0, 32.0, 13.0, 16.0, 0.0, 0.0, 0.0, 1.6635878706915195E9, 0.0, 2022-09-19 16:44:30.691
90.0, -13705.441499405088, -12044.729238120228, -20706.656063396462, -17303.401804375866, 187500.0, 187500.0, 1006.1190731667368, -27238.595752548666, 0.752, -0.5720000000000001, 0.418, 192.0, 0.0, 0.0, 0.0, 0.0, 0.0, 0.0, 0.0, 0.0, 0.0, 1.6635878706944559E9, 0.0, 2022-09-19 16:44:30.694
91.0, -13686.531923595898, -12022.578659365017, -20701.559865660653, -17295.533990327596, 187500.0, 187500.0, 967.2940930478685, -27235.7794327473, 0.752, -0.5720000000000001, 0.418, 192.0, 0.0, 0.0, 0.0, 0.0, 0.0, 0.0, 0.0, 0.0, 0.0, 1.6635878706975083E9, 0.0, 2022-09-19 16:44:30.697
92.0, -13685.548446839864, -12025.439682655298, -20704.33148197311, -17297.880923495402, 187500.0, 187500.0, 945.7917148818631, -27235.734729258387, 0.752, -0.5720000000000001, 0.418, 192.0, 0.0, 0.0, 0.0, 0.0, 0.0, 0.0, 0.0, 0.0, 0.0, 1.6635878707024543E9, 0.0, 2022-09-19 16:44:30.702
93.0, -13698.892438279681, -12055.301613247588, -20713.942732088894, -17308.721519556228, 187500.0, 187500.0, 947.2222265270027, -27240.33918861618, 0.752, -0.5720000000000001, 0.418, 192.0, 0.0, 0.0, 0.0, 0.0, 0.0, 0.0, 0.0, 0.0, 0.0, 1.6635878707064655E9, 0.0, 2022-09-19 16:44:30.706
94.0, -13714.561011142852, -12072.646566944906, -20729.49954622979, -17317.505755127164, 187500.0, 187500.0, 965.9306366360947, -27241.501479327857, 0.752, -0.5720000000000001, 0.418, 192.0, 0.0, 0.0, 0.0, 0.0, 0.0, 0.0, 0.0, 0.0, 0.0, 1.6635878707104435E9, 0.0, 2022-09-19 16:44:30.710
95.0, -13726.183918259612, -12058.833188871526, -20722.034063581716, -17308.98974048969, 187500.0, 187500.0, 955.6264824421982, -27234.304217613248, 0.752, -0.5720000000000001, 0.418, 192.0, 0.0, 0.0, 0.0, 0.0, 0.0, 0.0, 0.0, 0.0, 0.0, 1.6635878707144463E9, 0.0, 2022-09-19 16:44:30.714
96.0, -13729.916659583649, -12074.099430334501, -20707.90776108596, -17298.864400251437, 187500.0, 187500.0, 913.0911127437488, -27224.11182214163, 0.752, -0.5720000000000001, 0.418, 192.0, 0.0, 0.0, 0.0, 0.0, 0.0, 0.0, 0.0, 0.0, 0.0, 1.663587870719434E9, 0.0, 2022-09-19 16:44:30.719
97.0, -13698.80303130186, -12016.320170917532, -20699.302339470665, -17290.549551314063, 187500.0, 187500.0, 896.0367317243496, -27220.289673839772, 0.752, -0.5720000000000001, 0.418, 192.0, 0.0, 0.0, 0.0, 0.0, 0.0, 0.0, 0.0, 0.0, 0.0, 1.663587870722463E9, 0.0, 2022-09-19 16:44:30.722
98.0, -13682.218036916023, -11996.762394519139, -20696.463667924843, -17287.286196623587, 187500.0, 187500.0, 904.3292289172684, -27220.33437732868, 0.752, -0.5720000000000001, 0.418, 192.0, 0.0, 0.0, 0.0, 0.0, 0.0, 0.0, 0.0, 0.0, 0.0, 1.6635878707254908E9, 0.0, 2022-09-19 16:44:30.725
99.0, -13678.462943847531, -12011.671008070829, -20703.95150231737, -17293.276464137612, 187500.0, 187500.0, 927.1727117505923, -27227.978673932397, 0.756, -0.5720000000000001, 0.41200000000000003, 192.0, 23.0, 160.0, 238.0, 32.0, 12.0, 224.0, 0.0, 0.0, 0.0, 1.6635878707305188E9, 0.0, 2022-09-19 16:44:30.730
100.0, -13686.733089295994, -12033.374551936931, -20707.259560496757, -17301.2336851637, 187500.0, 187500.0, 910.9453452760393, -27238.193421148473, 0.756, -0.5720000000000001, 0.41200000000000003, 192.0, 0.0, 0.0, 0.0, 0.0, 0.0, 0.0, 0.0, 0.0, 0.0, 1.6635878707344697E9, 0.0, 2022-09-19 16:44:30.734
101.0, -13699.42888014661, -12057.492084204208, -20709.874714598027, -17303.133583442403, 187500.0, 187500.0, 864.8113447202855, -27244.720130529422, 0.756, -0.5720000000000001, 0.41200000000000003, 192.0, 0.0, 0.0, 0.0, 0.0, 0.0, 0.0, 0.0, 0.0, 0.0, 1.6635878707384725E9, 0.0, 2022-09-19 16:44:30.738
102.0, -13698.110127223747, -12053.535825435618, -20703.057432539157, -17296.361004872444, 187500.0, 187500.0, 848.2263503344477, -27228.269246610314, 0.756, -0.5720000000000001, 0.41200000000000003, 192.0, 0.0, 0.0, 0.0, 0.0, 0.0, 0.0, 0.0, 0.0, 0.0, 1.6635878707426481E9, 0.0, 2022-09-19 16:44:30.742
103.0, -13697.618388845729, -12035.073284515534, -20704.286778484202, -17302.910065997847, 187500.0, 187500.0, 853.0096236478835, -27238.126365915105, 0.756, -0.5720000000000001, 0.41200000000000003, 192.0, 0.0, 0.0, 0.0, 0.0, 0.0, 0.0, 0.0, 0.0, 0.0, 1.6635878707475915E9, 0.0, 2022-09-19 16:44:30.747
104.0, -13686.017833473425, -12031.362894935954, -20706.343138974087, -17309.61558933444, 187500.0, 187500.0, 878.4682605824781, -27241.657941539044, 0.756, -0.5720000000000001, 0.41200000000000003, 192.0, 0.0, 0.0, 0.0, 0.0, 0.0, 0.0, 0.0, 0.0, 0.0, 1.663587870750543E9, 0.0, 2022-09-19 16:44:30.750
105.0, -13690.912865509137, -12047.456150943775, -20705.24790349578, -17312.90129576937, 187500.0, 187500.0, 865.3254348427577, -27247.53645033079, 0.756, -0.5720000000000001, 0.41200000000000003, 192.0, 0.0, 0.0, 0.0, 0.0, 0.0, 0.0, 0.0, 0.0, 0.0, 1.6635878707556295E9, 0.0, 2022-09-19 16:44:30.755
106.0, -13692.94687425457, -12033.62042112594, -20707.259560496757, -17310.979045746215, 187500.0, 187500.0, 824.6005564451882, -27241.680293283498, 0.756, -0.5720000000000001, 0.41200000000000003, 192.0, 0.0, 0.0, 0.0, 0.0, 0.0, 0.0, 0.0, 0.0, 0.0, 1.6635878707585337E9, 0.0, 2022-09-19 16:44:30.758
107.0, -13701.507592380953, -12016.56604010654, -20706.633711652008, -17312.163688202345, 187500.0, 187500.0, 806.6297539031212, -27243.848412495663, 0.756, -0.5720000000000001, 0.41200000000000003, 192.0, 0.0, 0.0, 0.0, 0.0, 0.0, 0.0, 0.0, 0.0, 0.0, 1.663587870763622E9, 0.0, 2022-09-19 16:44:30.763
108.0, -13701.082909236302, -12036.280278716122, -20705.963159318348, -17311.00139749067, 187500.0, 187500.0, 815.5928034296994, -27241.38972060558, 0.756, -0.5720000000000001, 0.41200000000000003, 192.0, 0.0, 0.0, 0.0, 0.0, 0.0, 0.0, 0.0, 0.0, 0.0, 1.6635878707685783E9, 0.0, 2022-09-19 16:44:30.768
109.0, -13684.073231705814, -12046.092694532, -20713.696862899884, -17316.209353948754, 187500.0, 187500.0, 841.2079025754813, -27245.569496818724, 0.756, -0.5720000000000001, 0.41600000000000004, 192.0, 23.0, 160.0, 238.0, 32.0, 13.0, 0.0, 0.0, 0.0, 0.0, 1.6635878707715852E9, 0.0, 2022-09-19 16:44:30.771
110.0, -13682.933292738593, -12053.893453346904, -20714.546229189185, -17312.253095180167, 187500.0, 187500.0, 829.6296989476323, -27244.340150873682, 0.756, -0.5720000000000001, 0.41600000000000004, 192.0, 0.0, 0.0, 0.0, 0.0, 0.0, 0.0, 0.0, 0.0, 0.0, 1.6635878707755713E9, 0.0, 2022-09-19 16:44:30.775
111.0, -13679.580531070296, -12024.746778577182, -20703.90679882846, -17302.57478983102, 187500.0, 187500.0, 791.0058845288617, -27240.92033397202, 0.756, -0.5720000000000001, 0.41600000000000004, 192.0, 0.0, 0.0, 0.0, 0.0, 0.0, 0.0, 0.0, 0.0, 0.0, 1.6635878707785842E9, 0.0, 2022-09-19 16:44:30.778
112.0, -13681.525132837909, -12015.783729050605, -20705.04673779568, -17301.837182263993, 187500.0, 187500.0, 777.0360442442948, -27244.00487470685, 0.756, -0.5720000000000001, 0.41600000000000004, 192.0, 0.0, 0.0, 0.0, 0.0, 0.0, 0.0, 0.0, 0.0, 0.0, 1.6635878707816348E9, 0.0, 2022-09-19 16:44:30.781
113.0, -13683.872066005715, -12044.259851486666, -20710.858191354062, -17307.71569105574, 187500.0, 187500.0, 789.7541868393645, -27254.599601578666, 0.756, -0.5720000000000001, 0.41600000000000004, 192.0, 0.0, 0.0, 0.0, 0.0, 0.0, 0.0, 0.0, 0.0, 0.0, 1.6635878707866273E9, 0.0, 2022-09-19 16:44:30.786
114.0, -13695.00323474446, -12075.552293724097, -20718.10015655758, -17313.460089380755, 187500.0, 187500.0, 817.604460430677, -27244.027226451308, 0.756, -0.5720000000000001, 0.41600000000000004, 192.0, 0.0, 0.0, 0.0, 0.0, 0.0, 0.0, 0.0, 0.0, 0.0, 1.6635878707906935E9, 0.0, 2022-09-19 16:44:30.790
115.0, -13705.217981960534, -12060.084886561024, -20710.34410123159, -17310.66612132384, 187500.0, 187500.0, 812.3294487392246, -27241.97086596142, 0.756, -0.5720000000000001, 0.41600000000000004, 192.0, 0.0, 0.0, 0.0, 0.0, 0.0, 0.0, 0.0, 0.0, 0.0, 1.6635878707946095E9, 0.0, 2022-09-19 16:44:30.794
116.0, -13691.829287031806, -12017.035426740102, -20703.504467428265, -17306.240475921688, 187500.0, 187500.0, 771.8057360417529, -27237.656979281543, 0.756, -0.5720000000000001, 0.41600000000000004, 192.0, 0.0, 0.0, 0.0, 0.0, 0.0, 0.0, 0.0, 0.0, 0.0, 1.6635878707986205E9, 0.0, 2022-09-19 16:44:30.798
117.0, -13684.050879961358, -12031.765226336149, -20708.53360993071, -17314.421214392332, 187500.0, 187500.0, 749.8786747310967, -27245.681255541, 0.756, -0.5720000000000001, 0.41600000000000004, 192.0, 0.0, 0.0, 0.0, 0.0, 0.0, 0.0, 0.0, 0.0, 0.0, 1.663587870802634E9, 0.0, 2022-09-19 16:44:30.802
118.0, -13683.693252050072, -12052.373534723942, -20712.154592532468, -17320.411481906354, 187500.0, 187500.0, 759.3781661246021, -27250.665694554533, 0.756, -0.5720000000000001, 0.41600000000000004, 192.0, 0.0, 0.0, 0.0, 0.0, 0.0, 0.0, 0.0, 0.0, 0.0, 1.66358787080664E9, 0.0, 2022-09-19 16:44:30.806
119.0, -13678.84292350327, -12050.183063767323, -20710.76878437624, -17321.819641807037, 187500.0, 187500.0, 791.2070502289594, -27248.832851509196, 0.76, -0.5700000000000001, 0.41400000000000003, 192.0, 23.0, 192.0, 238.0, 48.0, 12.0, 240.0, 0.0, 0.0, 0.0, 1.6635878708096569E9, 0.0, 2022-09-19 16:44:30.809
120.0, -13693.706833566052, -12051.367706223453, -20714.121546044535, -17328.435758165808, 187500.0, 187500.0, 783.3392361806913, -27259.896965014574, 0.76, -0.5700000000000001, 0.41400000000000003, 192.0, 0.0, 0.0, 0.0, 0.0, 0.0, 0.0, 0.0, 0.0, 0.0, 1.6635878708137045E9, 0.0, 2022-09-19 16:44:30.813
121.0, -13724.216964747546, -12070.187875054822, -20709.807659364662, -17328.502813399176, 187500.0, 187500.0, 741.3403083491694, -27261.01455223734, 0.76, -0.5700000000000001, 0.41400000000000003, 192.0, 0.0, 0.0, 0.0, 0.0, 0.0, 0.0, 0.0, 0.0, 0.0, 1.663587870818676E9, 0.0, 2022-09-19 16:44:30.818
122.0, -13711.588229130297, -12042.38230495242, -20701.96219706085, -17325.082996497513, 187500.0, 187500.0, 731.483189044379, -27257.907659758053, 0.76, -0.5700000000000001, 0.41400000000000003, 192.0, 0.0, 0.0, 0.0, 0.0, 0.0, 0.0, 0.0, 0.0, 0.0, 1.6635878708226368E9, 0.0, 2022-09-19 16:44:30.822
123.0, -13685.771964284417, -12007.737101046694, -20704.95733081786, -17325.082996497513, 187500.0, 187500.0, 751.6891660319765, -27255.87365101262, 0.76, -0.5700000000000001, 0.41400000000000003, 192.0, 0.0, 0.0, 0.0, 0.0, 0.0, 0.0, 0.0, 0.0, 0.0, 1.6635878708267393E9, 0.0, 2022-09-19 16:44:30.826
124.0, -13673.61261530073, -12006.843031268481, -20709.070051797637, -17325.708845342262, 187500.0, 187500.0, 784.1215472366271, -27260.165185948037, 0.76, -0.5700000000000001, 0.41400000000000003, 192.0, 0.0, 0.0, 0.0, 0.0, 0.0, 0.0, 0.0, 0.0, 0.0, 1.663587870830685E9, 0.0, 2022-09-19 16:44:30.830
125.0, -13675.80308625735, -12009.346426647477, -20709.89706634248, -17320.634999350907, 187500.0, 187500.0, 783.3615879251466, -27256.879479513107, 0.76, -0.5700000000000001, 0.41400000000000003, 192.0, 0.0, 0.0, 0.0, 0.0, 0.0, 0.0, 0.0, 0.0, 0.0, 1.663587870833743E9, 0.0, 2022-09-19 16:44:30.833
126.0, -13692.231618432, -12036.727313605228, -20701.5375139162, -17313.415385891843, 187500.0, 187500.0, 750.6386340425771, -27253.90669750055, 0.76, -0.5700000000000001, 0.41400000000000003, 192.0, 0.0, 0.0, 0.0, 0.0, 0.0, 0.0, 0.0, 0.0, 0.0, 1.663587870837697E9, 0.0, 2022-09-19 16:44:30.837
127.0, -13687.962435241037, -12016.81190929555, -20699.48115342631, -17312.90129576937, 187500.0, 187500.0, 741.5414740492671, -27254.800767278764, 0.76, -0.5700000000000001, 0.41400000000000003, 192.0, 0.0, 0.0, 0.0, 0.0, 0.0, 0.0, 0.0, 0.0, 0.0, 1.6635878708437157E9, 0.0, 2022-09-19 16:44:30.843
128.0, -13675.154885668146, -12010.32990340351, -20697.089516769593, -17307.291007911088, 187500.0, 187500.0, 762.8873900040853, -27241.859107239143, 0.76, -0.5700000000000001, 0.41400000000000003, 192.0, 0.0, 0.0, 0.0, 0.0, 0.0, 0.0, 0.0, 0.0, 0.0, 1.6635878708476863E9, 0.0, 2022-09-19 16:44:30.847
129.0, -13681.860409004737, -12046.271508487644, -20700.419926693434, -17313.728310314218, 187500.0, 187500.0, 797.733759609909, -27247.87172649762, 0.76, -0.5640000000000001, 0.41600000000000004, 192.0, 23.0, 192.0, 238.0, 96.0, 13.0, 0.0, 0.0, 0.0, 0.0, 1.663587870850696E9, 0.0, 2022-09-19 16:44:30.850
130.0, -13685.727260795506, -12048.57373816654, -20700.66579588244, -17317.4386998938, 187500.0, 187500.0, 800.7288933669203, -27252.833813766698, 0.76, -0.5640000000000001, 0.41600000000000004, 192.0, 0.0, 0.0, 0.0, 0.0, 0.0, 0.0, 0.0, 0.0, 0.0, 1.6635878708547187E9, 0.0, 2022-09-19 16:44:30.854
131.0, -13695.89730452267, -12055.48042720323, -20704.15266801747, -17317.86338303845, 187500.0, 187500.0, 763.9379219934848, -27254.197270178473, 0.76, -0.5640000000000001, 0.41600000000000004, 192.0, 0.0, 0.0, 0.0, 0.0, 0.0, 0.0, 0.0, 0.0, 0.0, 1.6635878708577473E9, 0.0, 2022-09-19 16:44:30.857
132.0, -13691.426955631609, -12028.367761178943, -20701.425755193923, -17311.269618424132, 187500.0, 187500.0, 756.9194742345184, -27248.51992708682, 0.76, -0.5640000000000001, 0.41600000000000004, 192.0, 0.0, 0.0, 0.0, 0.0, 0.0, 0.0, 0.0, 0.0, 0.0, 1.6635878708616652E9, 0.0, 2022-09-19 16:44:30.861
133.0, -13681.368670626722, -12014.643790083384, -20698.318862714634, -17310.442603879288, 187500.0, 187500.0, 773.6832825759986, -27242.663770039533, 0.76, -0.5640000000000001, 0.41600000000000004, 192.0, 0.0, 0.0, 0.0, 0.0, 0.0, 0.0, 0.0, 0.0, 0.0, 1.6635878708657653E9, 0.0, 2022-09-19 16:44:30.865
134.0, -13676.943025224571, -12031.988743780703, -20701.29164472719, -17317.86338303845, 187500.0, 187500.0, 808.641410904099, -27247.15647067505, 0.76, -0.5640000000000001, 0.41600000000000004, 192.0, 0.0, 0.0, 0.0, 0.0, 0.0, 0.0, 0.0, 0.0, 0.0, 1.6635878708697796E9, 0.0, 2022-09-19 16:44:30.869
135.0, -13681.480429348998, -12055.48042720323, -20701.269292982735, -17318.824508050027, 187500.0, 187500.0, 808.7084661374648, -27247.000008463863, 0.76, -0.5640000000000001, 0.41600000000000004, 192.0, 0.0, 0.0, 0.0, 0.0, 0.0, 0.0, 0.0, 0.0, 0.0, 1.6635878708747177E9, 0.0, 2022-09-19 16:44:30.874
136.0, -13692.94687425457, -12074.255892545689, -20697.693013869884, -17320.52324062863, 187500.0, 187500.0, 769.6823203184987, -27247.022360208317, 0.76, -0.5640000000000001, 0.41600000000000004, 192.0, 0.0, 0.0, 0.0, 0.0, 0.0, 0.0, 0.0, 0.0, 0.0, 1.6635878708789597E9, 0.0, 2022-09-19 16:44:30.878
137.0, -13698.311292923843, -12058.520264449153, -20693.602644634564, -17322.95958077426, 187500.0, 187500.0, 759.6910905469764, -27249.95043873196, 0.76, -0.5640000000000001, 0.41600000000000004, 192.0, 0.0, 0.0, 0.0, 0.0, 0.0, 0.0, 0.0, 0.0, 0.0, 1.6635878708827608E9, 0.0, 2022-09-19 16:44:30.882
138.0, -13707.296694194878, -12051.948851579291, -20694.608473135053, -17320.612647606453, 187500.0, 187500.0, 778.1983349559707, -27250.308066643247, 0.76, -0.5640000000000001, 0.41600000000000004, 192.0, 0.0, 0.0, 0.0, 0.0, 0.0, 0.0, 0.0, 0.0, 0.0, 1.663587870885726E9, 0.0, 2022-09-19 16:44:30.885
139.0, -13694.600903344262, -12055.48042720323, -20700.442278437888, -17329.888621555405, 187500.0, 187500.0, 811.2789167498252, -27264.54612786128, 0.76, -0.5740000000000001, 0.41400000000000003, 192.0, 23.0, 192.0, 238.0, 16.0, 12.0, 240.0, 0.0, 0.0, 0.0, 1.6635878708897989E9, 0.0, 2022-09-19 16:44:30.889
140.0, -13688.342414896777, -12063.281186018132, -20698.408269692456, -17325.86530755345, 187500.0, 187500.0, 813.8493673621855, -27254.040807967285, 0.76, -0.5740000000000001, 0.41400000000000003, 192.0, 0.0, 0.0, 0.0, 0.0, 0.0, 0.0, 0.0, 0.0, 0.0, 1.6635878708937995E9, 0.0, 2022-09-19 16:44:30.893
141.0, -13696.053766733858, -12037.621383383439, -20693.937920801392, -17316.61168534895, 187500.0, 187500.0, 773.0127302423394, -27247.424691608514, 0.76, -0.5740000000000001, 0.41400000000000003, 192.0, 0.0, 0.0, 0.0, 0.0, 0.0, 0.0, 0.0, 0.0, 0.0, 1.6635878708977916E9, 0.0, 2022-09-19 16:44:30.897
142.0, -13678.015908958425, -12010.598124336973, -20696.57542664712, -17314.421214392332, 187500.0, 187500.0, 760.026366713806, -27245.122461929615, 0.76, -0.5740000000000001, 0.41400000000000003, 192.0, 0.0, 0.0, 0.0, 0.0, 0.0, 0.0, 0.0, 0.0, 0.0, 1.6635878709018147E9, 0.0, 2022-09-19 16:44:30.901
143.0, -13664.001365184948, -12022.243383198189, -20693.96027254585, -17310.86728702394, 187500.0, 187500.0, 778.7347768228981, -27240.6297612941, 0.76, -0.5740000000000001, 0.41400000000000003, 192.0, 0.0, 0.0, 0.0, 0.0, 0.0, 0.0, 0.0, 0.0, 0.0, 1.6635878709068885E9, 0.0, 2022-09-19 16:44:30.906
144.0, -13653.384286568677, -12011.42513888182, -20697.67066212543, -17307.670987566828, 187500.0, 187500.0, 809.5578324267665, -27237.72403451491, 0.76, -0.5740000000000001, 0.41400000000000003, 192.0, 0.0, 0.0, 0.0, 0.0, 0.0, 0.0, 0.0, 0.0, 0.0, 1.6635878709107444E9, 0.0, 2022-09-19 16:44:30.910
145.0, -13677.211246158035, -12017.773034307127, -20693.267368467736, -17301.501906097164, 187500.0, 187500.0, 804.5286899243224, -27237.411110092537, 0.76, -0.5740000000000001, 0.41400000000000003, 192.0, 0.0, 0.0, 0.0, 0.0, 0.0, 0.0, 0.0, 0.0, 0.0, 1.6635878709138768E9, 0.0, 2022-09-19 16:44:30.913
146.0, -13685.794316028872, -12033.463958914752, -20685.779534075205, -17301.278388652612, 187500.0, 187500.0, 762.0380237147837, -27237.075833925705, 0.76, -0.5740000000000001, 0.41400000000000003, 192.0, 0.0, 0.0, 0.0, 0.0, 0.0, 0.0, 0.0, 0.0, 0.0, 1.6635878709178643E9, 0.0, 2022-09-19 16:44:30.917
147.0, -13677.077135691303, -12055.279261503132, -20683.65611835195, -17308.56505734504, 187500.0, 187500.0, 745.4083258400352, -27237.43346183699, 0.76, -0.5740000000000001, 0.41400000000000003, 192.0, 0.0, 0.0, 0.0, 0.0, 0.0, 0.0, 0.0, 0.0, 0.0, 1.6635878709218717E9, 0.0, 2022-09-19 16:44:30.921
148.0, -13657.385248826176, -12012.118042959935, -20679.72221132782, -17307.46982186673, 187500.0, 187500.0, 760.2722359028144, -27239.646284538067, 0.76, -0.5740000000000001, 0.41400000000000003, 192.0, 0.0, 0.0, 0.0, 0.0, 0.0, 0.0, 0.0, 0.0, 0.0, 1.6635878709258957E9, 0.0, 2022-09-19 16:44:30.925
149.0, -13657.56406278182, -12025.372627421932, -20691.56863588913, -17313.169516702834, 187500.0, 187500.0, 792.6152101296437, -27246.977656719406, 0.758, -0.5760000000000001, 0.41600000000000004, 192.0, 23.0, 176.0, 238.0, 0.0, 13.0, 0.0, 0.0, 0.0, 0.0, 1.663587870929866E9, 0.0, 2022-09-19 16:44:30.929
150.0, -13670.572778054808, -12039.901261317882, -20701.89514182748, -17321.08203424001, 187500.0, 187500.0, 792.4587479184567, -27254.979581234405, 0.758, -0.5760000000000001, 0.41600000000000004, 192.0, 0.0, 0.0, 0.0, 0.0, 0.0, 0.0, 0.0, 0.0, 0.0, 1.6635878709348755E9, 0.0, 2022-09-19 16:44:30.934
151.0, -13666.549464052852, -12022.556307620564, -20692.775630089716, -17311.694301568783, 187500.0, 187500.0, 760.7639742808312, -27243.893115984574, 0.758, -0.5760000000000001, 0.41600000000000004, 192.0, 0.0, 0.0, 0.0, 0.0, 0.0, 0.0, 0.0, 0.0, 0.0, 1.6635878709388423E9, 0.0, 2022-09-19 16:44:30.938
152.0, -13672.539731566874, -12042.0917322745, -20694.29554871268, -17317.86338303845, 187500.0, 187500.0, 749.6551572865436, -27242.57436306171, 0.758, -0.5760000000000001, 0.41600000000000004, 192.0, 0.0, 0.0, 0.0, 0.0, 0.0, 0.0, 0.0, 0.0, 0.0, 1.66358787094188E9, 0.0, 2022-09-19 16:44:30.941
153.0, -13665.878911719194, -12044.215147997755, -20701.313996471643, -17321.841993551494, 187500.0, 187500.0, 768.6317883290993, -27250.330418387704, 0.758, -0.5760000000000001, 0.41600000000000004, 192.0, 0.0, 0.0, 0.0, 0.0, 0.0, 0.0, 0.0, 0.0, 0.0, 1.6635878709459212E9, 0.0, 2022-09-19 16:44:30.945
154.0, -13653.004306912937, -12039.990668295703, -20702.275121483224, -17324.211278463757, 187500.0, 187500.0, 809.7813498713195, -27257.326514402215, 0.758, -0.5760000000000001, 0.41600000000000004, 192.0, 0.0, 0.0, 0.0, 0.0, 0.0, 0.0, 0.0, 0.0, 0.0, 1.663587870949886E9, 0.0, 2022-09-19 16:44:30.949
155.0, -13654.479522046986, -12032.1899094808, -20699.570560404132, -17316.36581615994, 187500.0, 187500.0, 819.5937656871994, -27241.121499672117, 0.758, -0.5760000000000001, 0.41600000000000004, 192.0, 0.0, 0.0, 0.0, 0.0, 0.0, 0.0, 0.0, 0.0, 0.0, 1.6635878709538836E9, 0.0, 2022-09-19 16:44:30.953
156.0, -13663.666089018117, -12036.1908717383, -20691.56863588913, -17313.348330658475, 187500.0, 187500.0, 790.2235734729259, -27235.15358390255, 0.758, -0.5760000000000001, 0.41600000000000004, 192.0, 0.0, 0.0, 0.0, 0.0, 0.0, 0.0, 0.0, 0.0, 0.0, 1.663587870957884E9, 0.0, 2022-09-19 16:44:30.957
157.0, -13665.118952407713, -12041.28706947411, -20696.19544699138, -17318.221010949732, 187500.0, 187500.0, 778.7347768228981, -27245.971828218917, 0.758, -0.5760000000000001, 0.41600000000000004, 192.0, 0.0, 0.0, 0.0, 0.0, 0.0, 0.0, 0.0, 0.0, 0.0, 1.6635878709628956E9, 0.0, 2022-09-19 16:44:30.962
158.0, -13653.920728435603, -12010.508717359153, -20701.604569149564, -17321.819641807037, 187500.0, 187500.0, 802.1147015231493, -27250.62099106562, 0.758, -0.5760000000000001, 0.41600000000000004, 192.0, 0.0, 0.0, 0.0, 0.0, 0.0, 0.0, 0.0, 0.0, 0.0, 1.663587870966993E9, 0.0, 2022-09-19 16:44:30.966
159.0, -13656.51353079242, -12026.400807666876, -20709.47238319783, -17332.682589612315, 187500.0, 187500.0, 842.1243240981489, -27259.762854547844, 0.758, -0.5700000000000001, 0.41200000000000003, 192.0, 23.0, 176.0, 238.0, 48.0, 12.0, 224.0, 0.0, 0.0, 0.0, 1.6635878709699087E9, 0.0, 2022-09-19 16:44:30.969
160.0, -13653.049010401846, -12019.337656418998, -20711.886371599005, -17335.72242685824, 187500.0, 187500.0, 848.8969026681069, -27265.753122061866, 0.758, -0.5700000000000001, 0.41200000000000003, 192.0, 0.0, 0.0, 0.0, 0.0, 0.0, 0.0, 0.0, 0.0, 0.0, 1.6635878709739363E9, 0.0, 2022-09-19 16:44:30.973
161.0, -13652.646679001651, -12018.845918040983, -20706.1866767629, -17326.535859887106, 187500.0, 187500.0, 824.1311698116267, -27260.50046211487, 0.758, -0.5700000000000001, 0.41200000000000003, 192.0, 0.0, 0.0, 0.0, 0.0, 0.0, 0.0, 0.0, 0.0, 0.0, 1.6635878709779446E9, 0.0, 2022-09-19 16:44:30.977
162.0, -13666.169484397113, -12025.730255333216, -20701.71632787184, -17324.323037186034, 187500.0, 187500.0, 819.5267104538334, -27249.905735243054, 0.758, -0.5700000000000001, 0.41200000000000003, 192.0, 0.0, 0.0, 0.0, 0.0, 0.0, 0.0, 0.0, 0.0, 0.0, 1.6635878709819396E9, 0.0, 2022-09-19 16:44:30.981
163.0, -13668.047030931359, -12051.926499834837, -20704.264426739745, -17332.123796000935, 187500.0, 187500.0, 842.0125653758723, -27252.811462022244, 0.758, -0.5700000000000001, 0.41200000000000003, 192.0, 0.0, 0.0, 0.0, 0.0, 0.0, 0.0, 0.0, 0.0, 0.0, 1.6635878709858792E9, 0.0, 2022-09-19 16:44:30.985
164.0, -13659.75453373844, -12043.701057875283, -20707.997168063783, -17332.749644845684, 187500.0, 187500.0, 887.2748478978691, -27255.046636467774, 0.758, -0.5700000000000001, 0.41200000000000003, 192.0, 0.0, 0.0, 0.0, 0.0, 0.0, 0.0, 0.0, 0.0, 0.0, 1.6635878709899037E9, 0.0, 2022-09-19 16:44:30.989
165.0, -13665.2754146189, -12030.312362946554, -20714.72504314483, -17337.95760130377, 187500.0, 187500.0, 894.9861997349501, -27262.7356365604, 0.758, -0.5700000000000001, 0.41200000000000003, 192.0, 0.0, 0.0, 0.0, 0.0, 0.0, 0.0, 0.0, 0.0, 0.0, 1.6635878709950292E9, 0.0, 2022-09-19 16:44:30.995
166.0, -13674.461981590031, -12043.1422642639, -20714.210953022357, -17334.694246613293, 187500.0, 187500.0, 863.2020191195035, -27258.421749880523, 0.758, -0.5700000000000001, 0.41200000000000003, 192.0, 0.0, 0.0, 0.0, 0.0, 0.0, 0.0, 0.0, 0.0, 0.0, 1.6635878709979527E9, 0.0, 2022-09-19 16:44:30.997
167.0, -13657.497007548453, -12035.00622928217, -20711.171115776437, -17330.849746566983, 187500.0, 187500.0, 856.831771949741, -27256.16422369054, 0.758, -0.5700000000000001, 0.41200000000000003, 192.0, 0.0, 0.0, 0.0, 0.0, 0.0, 0.0, 0.0, 0.0, 0.0, 1.6635878710019228E9, 0.0, 2022-09-19 16:44:31.001
168.0, -13655.08301914728, -12036.280278716122, -20717.496659457287, -17333.86723206845, 187500.0, 187500.0, 880.0328826943497, -27264.188499949993, 0.758, -0.5700000000000001, 0.41200000000000003, 192.0, 0.0, 0.0, 0.0, 0.0, 0.0, 0.0, 0.0, 0.0, 0.0, 1.6635878710059874E9, 0.0, 2022-09-19 16:44:31.005
169.0, -13665.834208230282, -12061.090715061513, -20725.52093571674, -17340.10336877148, 187500.0, 187500.0, 920.7801128363744, -27268.100055229672, 0.758, -0.5700000000000001, 0.41200000000000003, 192.0, 0.0, 0.0, 0.0, 0.0, 0.0, 0.0, 0.0, 0.0, 0.0, 1.663587871009982E9, 0.0, 2022-09-19 16:44:31.009
170.0, -13652.266699345912, -12054.273433002643, -20722.794022893195, -17335.700075113782, 187500.0, 187500.0, 934.5934909097542, -27260.276944670313, 0.752, -0.5700000000000001, 0.41400000000000003, 192.0, 23.0, 128.0, 238.0, 48.0, 12.0, 240.0, 0.0, 0.0, 0.0, 1.6635878710140777E9, 0.0, 2022-09-19 16:44:31.014
171.0, -13642.588393996764, -12019.963505263748, -20714.61328442255, -17321.797290062583, 187500.0, 187500.0, 908.441949897045, -27247.379988119603, 0.752, -0.5700000000000001, 0.41400000000000003, 192.0, 0.0, 0.0, 0.0, 0.0, 0.0, 0.0, 0.0, 0.0, 0.0, 1.663587871019053E9, 0.0, 2022-09-19 16:44:31.019
172.0, -13638.430969528077, -12025.216165210744, -20716.0884995566, -17324.85947905296, 187500.0, 187500.0, 900.1047492152154, -27247.96113347544, 0.752, -0.5700000000000001, 0.41400000000000003, 192.0, 0.0, 0.0, 0.0, 0.0, 0.0, 0.0, 0.0, 0.0, 0.0, 1.6635878710220077E9, 0.0, 2022-09-19 16:44:31.022
173.0, -13641.001420140437, -12056.843883615004, -20719.105985058068, -17335.029522780125, 187500.0, 187500.0, 918.6790488575756, -27254.06315971174, 0.752, -0.5700000000000001, 0.41400000000000003, 192.0, 0.0, 0.0, 0.0, 0.0, 0.0, 0.0, 0.0, 0.0, 0.0, 1.6635878710250103E9, 0.0, 2022-09-19 16:44:31.025
174.0, -13619.901373374627, -12033.531014148119, -20714.85915361156, -17333.084921012512, 187500.0, 187500.0, 965.7518226804523, -27254.10786320065, 0.752, -0.5700000000000001, 0.41400000000000003, 192.0, 0.0, 0.0, 0.0, 0.0, 0.0, 0.0, 0.0, 0.0, 0.0, 1.663587871030042E9, 0.0, 2022-09-19 16:44:31.030
175.0, -13620.393111752643, -12010.061682470046, -20714.30036000018, -17336.661200125363, 187500.0, 187500.0, 975.3854245406897, -27261.394531893082, 0.752, -0.5700000000000001, 0.41400000000000003, 192.0, 0.0, 0.0, 0.0, 0.0, 0.0, 0.0, 0.0, 0.0, 0.0, 1.6635878710340116E9, 0.0, 2022-09-19 16:44:31.034
176.0, -13635.569946237798, -12018.689455829795, -20712.62397916603, -17338.024656537134, 187500.0, 187500.0, 940.4943514459553, -27260.232241181406, 0.752, -0.5700000000000001, 0.41400000000000003, 192.0, 0.0, 0.0, 0.0, 0.0, 0.0, 0.0, 0.0, 0.0, 0.0, 1.6635878710380692E9, 0.0, 2022-09-19 16:44:31.038
177.0, -13635.547594493342, -12031.049970513579, -20708.15363027497, -17333.86723206845, 187500.0, 187500.0, 931.3748397081899, -27255.49367135688, 0.752, -0.5700000000000001, 0.41400000000000003, 192.0, 0.0, 0.0, 0.0, 0.0, 0.0, 0.0, 0.0, 0.0, 0.0, 1.6635878710420303E9, 0.0, 2022-09-19 16:44:31.042
178.0, -13637.492196260953, -12053.044087057602, -20717.51901120174, -17342.137377516912, 187500.0, 187500.0, 946.886950360173, -27263.227374938415, 0.752, -0.5700000000000001, 0.41400000000000003, 192.0, 0.0, 0.0, 0.0, 0.0, 0.0, 0.0, 0.0, 0.0, 0.0, 1.6635878710470583E9, 0.0, 2022-09-19 16:44:31.047
179.0, -13641.113178862714, -12056.888587103915, -20720.87177287004, -17341.802101350084, 187500.0, 187500.0, 982.8732589332175, -27261.171014448526, 0.752, -0.5700000000000001, 0.41400000000000003, 192.0, 0.0, 0.0, 0.0, 0.0, 0.0, 0.0, 0.0, 0.0, 0.0, 1.6635878710500581E9, 0.0, 2022-09-19 16:44:31.050
180.0, -13657.631118015184, -12076.982805369236, -20722.794022893195, -17342.629115894928, 187500.0, 187500.0, 986.4048345571559, -27261.90862201555, 0.754, -0.5680000000000001, 0.41600000000000004, 192.0, 23.0, 144.0, 238.0, 64.0, 13.0, 0.0, 0.0, 0.0, 0.0, 1.6635878710530562E9, 0.0, 2022-09-19 16:44:31.053
181.0, -13661.475618061499, -12057.492084204208, -20718.48013621332, -17337.890546070405, 187500.0, 187500.0, 952.5866451962764, -27258.600563836168, 0.754, -0.5680000000000001, 0.41600000000000004, 192.0, 0.0, 0.0, 0.0, 0.0, 0.0, 0.0, 0.0, 0.0, 0.0, 1.663587871058028E9, 0.0, 2022-09-19 16:44:31.058
182.0, -13662.257929117433, -12064.219959285256, -20716.624941423528, -17337.018828036646, 187500.0, 187500.0, 937.5215694333995, -27254.823119023218, 0.754, -0.5680000000000001, 0.41600000000000004, 192.0, 0.0, 0.0, 0.0, 0.0, 0.0, 0.0, 0.0, 0.0, 0.0, 1.66358787106206E9, 0.0, 2022-09-19 16:44:31.062
183.0, -13657.117027892713, -12075.753459424193, -20727.711406673363, -17344.90899382937, 187500.0, 187500.0, 947.1551712936367, -27259.762854547844, 0.754, -0.5680000000000001, 0.41600000000000004, 192.0, 0.0, 0.0, 0.0, 0.0, 0.0, 0.0, 0.0, 0.0, 0.0, 1.663587871066082E9, 0.0, 2022-09-19 16:44:31.066
184.0, -13640.867309673706, -12011.80511853756, -20728.560772962664, -17339.946906560293, 187500.0, 187500.0, 983.9461426670722, -27254.465491111936, 0.754, -0.5680000000000001, 0.41600000000000004, 192.0, 0.0, 0.0, 0.0, 0.0, 0.0, 0.0, 0.0, 0.0, 0.0, 1.663587871070057E9, 0.0, 2022-09-19 16:44:31.070
185.0, -13647.125798121191, -12008.13943244689, -20727.510240973264, -17339.276354226633, 187500.0, 187500.0, 986.1366136236923, -27256.991238235383, 0.754, -0.5680000000000001, 0.41600000000000004, 192.0, 0.0, 0.0, 0.0, 0.0, 0.0, 0.0, 0.0, 0.0, 0.0, 1.6635878710740857E9, 0.0, 2022-09-19 16:44:31.074
186.0, -13655.664164503118, -12022.310438431554, -20720.067110069645, -17331.073264011535, 187500.0, 187500.0, 950.1056015617373, -27249.77162477632, 0.754, -0.5680000000000001, 0.41600000000000004, 192.0, 0.0, 0.0, 0.0, 0.0, 0.0, 0.0, 0.0, 0.0, 0.0, 1.6635878710781107E9, 0.0, 2022-09-19 16:44:31.078
187.0, -13655.261833102923, -12058.833188871526, -20714.926208844925, -17328.212240721256, 187500.0, 187500.0, 933.7217728759972, -27243.289618884282, 0.754, -0.5680000000000001, 0.41600000000000004, 192.0, 0.0, 0.0, 0.0, 0.0, 0.0, 0.0, 0.0, 0.0, 0.0, 1.6635878710811348E9, 0.0, 2022-09-19 16:44:31.081
188.0, -13644.085960875269, -12061.20247378379, -20718.10015655758, -17336.77295884764, 187500.0, 187500.0, 945.4340869705782, -27247.804671264254, 0.754, -0.5680000000000001, 0.41600000000000004, 192.0, 0.0, 0.0, 0.0, 0.0, 0.0, 0.0, 0.0, 0.0, 0.0, 1.6635878710851543E9, 0.0, 2022-09-19 16:44:31.085
189.0, -13632.708922947517, -12042.024677041136, -20719.39655773599, -17338.851671081982, 187500.0, 187500.0, 979.7216629650192, -27249.97279047642, 0.754, -0.5680000000000001, 0.41600000000000004, 192.0, 0.0, 0.0, 0.0, 0.0, 0.0, 0.0, 0.0, 0.0, 0.0, 1.663587871090098E9, 0.0, 2022-09-19 16:44:31.090
190.0, -13645.158844609125, -12039.163653750857, -20717.429604223922, -17335.878889069427, 187500.0, 187500.0, 980.1016426207594, -27254.823119023218, 0.754, -0.5640000000000001, 0.41600000000000004, 192.0, 23.0, 144.0, 238.0, 96.0, 13.0, 0.0, 0.0, 0.0, 0.0, 1.663587871094137E9, 0.0, 2022-09-19 16:44:31.094
191.0, -13648.13162662168, -12024.09857798798, -20709.47238319783, -17326.200583720278, 187500.0, 187500.0, 942.148380535648, -27246.083586941193, 0.754, -0.5640000000000001, 0.41600000000000004, 192.0, 0.0, 0.0, 0.0, 0.0, 0.0, 0.0, 0.0, 0.0, 0.0, 1.6635878710991848E9, 0.0, 2022-09-19 16:44:31.099
192.0, -13629.244402556946, -12030.647639113384, -20701.001072049272, -17325.775900575627, 187500.0, 187500.0, 922.9929355374499, -27242.976694461908, 0.754, -0.5640000000000001, 0.41600000000000004, 192.0, 0.0, 0.0, 0.0, 0.0, 0.0, 0.0, 0.0, 0.0, 0.0, 1.6635878711041784E9, 0.0, 2022-09-19 16:44:31.104
193.0, -13624.17055656559, -12024.165633221344, -20704.219723250833, -17330.268601211144, 187500.0, 187500.0, 931.2407292414581, -27245.591848563177, 0.754, -0.5640000000000001, 0.41600000000000004, 192.0, 0.0, 0.0, 0.0, 0.0, 0.0, 0.0, 0.0, 0.0, 0.0, 1.6635878711071708E9, 0.0, 2022-09-19 16:44:31.107
194.0, -13616.88388787316, -12012.743891804683, -20704.912627328948, -17333.62136287944, 187500.0, 187500.0, 963.2260755570026, -27245.63655205209, 0.754, -0.5640000000000001, 0.41600000000000004, 192.0, 0.0, 0.0, 0.0, 0.0, 0.0, 0.0, 0.0, 0.0, 0.0, 1.663587871111164E9, 0.0, 2022-09-19 16:44:31.111
195.0, -13626.539841477854, -12042.0917322745, -20708.265388997246, -17337.62232513694, 187500.0, 187500.0, 963.6284069571981, -27248.92225848702, 0.754, -0.5640000000000001, 0.41600000000000004, 192.0, 0.0, 0.0, 0.0, 0.0, 0.0, 0.0, 0.0, 0.0, 0.0, 1.663587871114211E9, 0.0, 2022-09-19 16:44:31.114
196.0, -13627.009228111414, -12051.09948528999, -20701.582217405106, -17333.688418112804, 187500.0, 187500.0, 922.1882727370588, -27251.15743293255, 0.754, -0.5640000000000001, 0.41600000000000004, 192.0, 0.0, 0.0, 0.0, 0.0, 0.0, 0.0, 0.0, 0.0, 0.0, 1.6635878711182032E9, 0.0, 2022-09-19 16:44:31.118
197.0, -13614.760472149906, -12035.050932771079, -20699.05647028166, -17329.10631049947, 187500.0, 187500.0, 899.8588800262071, -27253.079682955708, 0.754, -0.5640000000000001, 0.41600000000000004, 192.0, 0.0, 0.0, 0.0, 0.0, 0.0, 0.0, 0.0, 0.0, 0.0, 1.66358787112219E9, 0.0, 2022-09-19 16:44:31.122
198.0, -13610.200716281024, -12022.466900642741, -20694.452010923866, -17326.04412150909, 187500.0, 187500.0, 911.3029731873243, -27241.121499672117, 0.754, -0.5640000000000001, 0.41600000000000004, 192.0, 0.0, 0.0, 0.0, 0.0, 0.0, 0.0, 0.0, 0.0, 0.0, 1.6635878711262233E9, 0.0, 2022-09-19 16:44:31.126
199.0, -13605.193925523035, -12017.95184826277, -20698.564731903643, -17328.77103433264, 187500.0, 187500.0, 942.66247065812, -27239.042787437775, 0.754, -0.5640000000000001, 0.41600000000000004, 192.0, 0.0, 0.0, 0.0, 0.0, 0.0, 0.0, 0.0, 0.0, 0.0, 1.663587871130281E9, 0.0, 2022-09-19 16:44:31.130
200.0, -13613.97816109397, -12044.595127653496, -20703.32565347262, -17330.58152563352, 187500.0, 187500.0, 943.8247613697961, -27243.289618884282, 0.754, -0.5660000000000001, 0.41600000000000004, 192.0, 23.0, 144.0, 238.0, 80.0, 13.0, 0.0, 0.0, 0.0, 0.0, 1.6635878711342216E9, 0.0, 2022-09-19 16:44:31.134
201.0, -13621.443643742043, -12031.832281569516, -20703.77268836173, -17320.992627262192, 187500.0, 187500.0, 906.1620719626036, -27236.360578103137, 0.754, -0.5660000000000001, 0.41600000000000004, 192.0, 0.0, 0.0, 0.0, 0.0, 0.0, 0.0, 0.0, 0.0, 0.0, 1.663587871137249E9, 0.0, 2022-09-19 16:44:31.137
202.0, -13623.45530074302, -12028.792444323593, -20702.543342416688, -17317.259885938154, 187500.0, 187500.0, 888.1689176760815, -27233.29838911276, 0.754, -0.5660000000000001, 0.41600000000000004, 192.0, 0.0, 0.0, 0.0, 0.0, 0.0, 0.0, 0.0, 0.0, 0.0, 1.6635878711412756E9, 0.0, 2022-09-19 16:44:31.141
203.0, -13625.668123444097, -12026.33375243351, -20706.164325018446, -17322.043159251592, 187500.0, 187500.0, 897.4001881361232, -27235.62297053611, 0.754, -0.5660000000000001, 0.41600000000000004, 192.0, 0.0, 0.0, 0.0, 0.0, 0.0, 0.0, 0.0, 0.0, 0.0, 1.6635878711461868E9, 0.0, 2022-09-19 16:44:31.146
204.0, -13616.705073917517, -12011.223973181723, -20710.657025653964, -17327.184060476313, 187500.0, 187500.0, 930.7042873745307, -27241.34501711667, 0.754, -0.5660000000000001, 0.41600000000000004, 192.0, 0.0, 0.0, 0.0, 0.0, 0.0, 0.0, 0.0, 0.0, 0.0, 1.6635878711502128E9, 0.0, 2022-09-19 16:44:31.150
205.0, -13614.3134372608, -12017.773034307127, -20707.61718840804, -17322.557249374062, 187500.0, 187500.0, 934.5487874208436, -27240.67446478301, 0.754, -0.5660000000000001, 0.41600000000000004, 192.0, 0.0, 0.0, 0.0, 0.0, 0.0, 0.0, 0.0, 0.0, 0.0, 1.6635878711542468E9, 0.0, 2022-09-19 16:44:31.154
206.0, -13634.474710759487, -12044.550424164585, -20708.801830864173, -17320.679702839818, 187500.0, 187500.0, 895.1650136905926, -27238.394586848568, 0.754, -0.5660000000000001, 0.41600000000000004, 192.0, 0.0, 0.0, 0.0, 0.0, 0.0, 0.0, 0.0, 0.0, 0.0, 1.663587871157323E9, 0.0, 2022-09-19 16:44:31.157
207.0, -13641.31434456281, -12053.491121946709, -20707.90776108596, -17315.829374293015, 187500.0, 187500.0, 875.0484436808161, -27231.44319432297, 0.754, -0.5660000000000001, 0.41600000000000004, 192.0, 0.0, 0.0, 0.0, 0.0, 0.0, 0.0, 0.0, 0.0, 0.0, 1.66358787116123E9, 0.0, 2022-09-19 16:44:31.161
208.0, -13631.211356069012, -12032.212261225255, -20704.107964528557, -17315.00235974817, 187500.0, 187500.0, 884.7491007744195, -27229.409185577537, 0.754, -0.5660000000000001, 0.41600000000000004, 192.0, 0.0, 0.0, 0.0, 0.0, 0.0, 0.0, 0.0, 0.0, 0.0, 1.6635878711672115E9, 0.0, 2022-09-19 16:44:31.167
209.0, -13629.825547912784, -12021.975162264725, -20705.85140059607, -17318.600990605475, 187500.0, 187500.0, 914.3204586887907, -27234.43832807998, 0.754, -0.5660000000000001, 0.41600000000000004, 192.0, 0.0, 0.0, 0.0, 0.0, 0.0, 0.0, 0.0, 0.0, 0.0, 1.6635878711703131E9, 0.0, 2022-09-19 16:44:31.170
210.0, -13637.000457882938, -12006.552458590562, -20703.52681917272, -17315.270580681634, 187500.0, 187500.0, 919.6848773580645, -27233.611313535133, 0.754, -0.5720000000000001, 0.41600000000000004, 192.0, 23.0, 144.0, 238.0, 32.0, 13.0, 0.0, 0.0, 0.0, 0.0, 1.6635878711742125E9, 0.0, 2022-09-19 16:44:31.174
211.0, -13635.592297982252, -12009.480537114208, -20697.80477259216, -17313.728310314218, 187500.0, 187500.0, 878.9376472160396, -27234.974769946908, 0.754, -0.5720000000000001, 0.41600000000000004, 192.0, 0.0, 0.0, 0.0, 0.0, 0.0, 0.0, 0.0, 0.0, 0.0, 1.6635878711782606E9, 0.0, 2022-09-19 16:44:31.178
212.0, -13619.655504185619, -12014.844955783481, -20692.2838917117, -17311.67194982433, 187500.0, 187500.0, 857.7705452168639, -27239.825098493708, 0.754, -0.5720000000000001, 0.41600000000000004, 192.0, 0.0, 0.0, 0.0, 0.0, 0.0, 0.0, 0.0, 0.0, 0.0, 1.66358787118326E9, 0.0, 2022-09-19 16:44:31.183
213.0, -13621.22012629749, -12028.568926879041, -20692.261539967247, -17308.743871300685, 187500.0, 187500.0, 867.0465191658162, -27227.933970443486, 0.754, -0.5720000000000001, 0.41600000000000004, 192.0, 0.0, 0.0, 0.0, 0.0, 0.0, 0.0, 0.0, 0.0, 0.0, 1.6635878711873472E9, 0.0, 2022-09-19 16:44:31.187
214.0, -13621.734216419962, -12039.700095617784, -20693.24501672328, -17315.00235974817, 187500.0, 187500.0, 899.0989207147265, -27236.025301936308, 0.754, -0.5720000000000001, 0.41600000000000004, 192.0, 0.0, 0.0, 0.0, 0.0, 0.0, 0.0, 0.0, 0.0, 0.0, 1.6635878711902878E9, 0.0, 2022-09-19 16:44:31.190
215.0, -13637.916879405604, -12049.847787600493, -20694.04967952367, -17318.86921153894, 187500.0, 187500.0, 901.6917230715422, -27236.96407520343, 0.754, -0.5720000000000001, 0.41600000000000004, 192.0, 0.0, 0.0, 0.0, 0.0, 0.0, 0.0, 0.0, 0.0, 0.0, 1.6635878711932836E9, 0.0, 2022-09-19 16:44:31.193
216.0, -13633.424178770088, -12033.151034492379, -20692.306243456154, -17316.1870022043, 187500.0, 187500.0, 860.3633475736794, -27237.075833925705, 0.754, -0.5720000000000001, 0.41600000000000004, 192.0, 0.0, 0.0, 0.0, 0.0, 0.0, 0.0, 0.0, 0.0, 0.0, 1.6635878711973407E9, 0.0, 2022-09-19 16:44:31.197
217.0, -13612.324132004278, -12020.410540152854, -20685.310147441643, -17315.337635915, 187500.0, 187500.0, 843.1748560875483, -27234.95241820245, 0.754, -0.5720000000000001, 0.41600000000000004, 192.0, 0.0, 0.0, 0.0, 0.0, 0.0, 0.0, 0.0, 0.0, 0.0, 1.6635878712014E9, 0.0, 2022-09-19 16:44:31.201
218.0, -13608.03259706886, -12016.52133661763, -20685.91364454194, -17320.322074928532, 187500.0, 187500.0, 850.796800946808, -27234.371272846613, 0.754, -0.5720000000000001, 0.41600000000000004, 192.0, 0.0, 0.0, 0.0, 0.0, 0.0, 0.0, 0.0, 0.0, 0.0, 1.6635878712062805E9, 0.0, 2022-09-19 16:44:31.206
219.0, -13607.451451713021, -12023.830357054516, -20693.066202767637, -17328.56986863254, 187500.0, 187500.0, 879.8093652497967, -27236.67350252551, 0.754, -0.5720000000000001, 0.41600000000000004, 192.0, 0.0, 0.0, 0.0, 0.0, 0.0, 0.0, 0.0, 0.0, 0.0, 1.663587871210317E9, 0.0, 2022-09-19 16:44:31.210
220.0, -13623.231783298468, -12041.935270063314, -20697.514199914243, -17330.849746566983, 187500.0, 187500.0, 882.6927402845312, -27238.640456037578, 0.754, -0.5700000000000001, 0.41400000000000003, 192.0, 23.0, 144.0, 238.0, 48.0, 12.0, 240.0, 0.0, 0.0, 0.0, 1.6635878712133813E9, 0.0, 2022-09-19 16:44:31.213
221.0, -13647.103446376736, -12057.737953393216, -20695.34608070208, -17324.211278463757, 187500.0, 187500.0, 844.7394781994199, -27234.505383313346, 0.754, -0.5700000000000001, 0.41400000000000003, 192.0, 0.0, 0.0, 0.0, 0.0, 0.0, 0.0, 0.0, 0.0, 0.0, 1.6635878712173913E9, 0.0, 2022-09-19 16:44:31.217
222.0, -13629.624382212685, -12028.680685601317, -20686.29362419768, -17312.566019602542, 187500.0, 187500.0, 827.9309663690289, -27225.184705875483, 0.754, -0.5700000000000001, 0.41400000000000003, 192.0, 0.0, 0.0, 0.0, 0.0, 0.0, 0.0, 0.0, 0.0, 0.0, 1.6635878712215755E9, 0.0, 2022-09-19 16:44:31.221
223.0, -13624.416425754598, -12014.017941238635, -20686.114810242034, -17307.738042800196, 187500.0, 187500.0, 836.6928501955093, -27222.793069218766, 0.754, -0.5700000000000001, 0.41400000000000003, 192.0, 0.0, 0.0, 0.0, 0.0, 0.0, 0.0, 0.0, 0.0, 0.0, 1.6635878712255504E9, 0.0, 2022-09-19 16:44:31.225
224.0, -13628.126815334179, -12030.737046091206, -20692.261539967247, -17313.929476014313, 187500.0, 187500.0, 864.4984202979113, -27227.486935554378, 0.754, -0.5700000000000001, 0.41400000000000003, 192.0, 0.0, 0.0, 0.0, 0.0, 0.0, 0.0, 0.0, 0.0, 0.0, 1.6635878712293727E9, 0.0, 2022-09-19 16:44:31.229
225.0, -13643.013077141415, -12035.72148510474, -20690.786324833196, -17313.169516702834, 187500.0, 187500.0, 869.6393215226319, -27224.73767098638, 0.754, -0.5700000000000001, 0.41400000000000003, 192.0, 0.0, 0.0, 0.0, 0.0, 0.0, 0.0, 0.0, 0.0, 0.0, 1.6635878712344525E9, 0.0, 2022-09-19 16:44:31.234
226.0, -13653.049010401846, -12043.254022986177, -20690.383993433, -17310.017920734637, 187500.0, 187500.0, 829.8755681366406, -27225.989368675873, 0.754, -0.5700000000000001, 0.41400000000000003, 192.0, 0.0, 0.0, 0.0, 0.0, 0.0, 0.0, 0.0, 0.0, 0.0, 1.6635878712383075E9, 0.0, 2022-09-19 16:44:31.238
227.0, -13638.676838717085, -12048.976069566736, -20693.803810334663, -17315.337635915, 187500.0, 187500.0, 809.0437423042945, -27236.919371714517, 0.754, -0.5700000000000001, 0.41400000000000003, 192.0, 0.0, 0.0, 0.0, 0.0, 0.0, 0.0, 0.0, 0.0, 0.0, 1.663587871242366E9, 0.0, 2022-09-19 16:44:31.242
228.0, -13633.31242004781, -12051.43476145682, -20696.843647580583, -17314.264752181145, 187500.0, 187500.0, 815.0340098183167, -27222.61425526312, 0.754, -0.5700000000000001, 0.41400000000000003, 192.0, 0.0, 0.0, 0.0, 0.0, 0.0, 0.0, 0.0, 0.0, 0.0, 1.663587871245443E9, 0.0, 2022-09-19 16:44:31.245
229.0, -13625.846937399738, -12006.105423701458, -20701.492810427288, -17314.75649055916, 187500.0, 187500.0, 844.0912776102159, -27224.983540175384, 0.754, -0.5700000000000001, 0.41400000000000003, 192.0, 0.0, 0.0, 0.0, 0.0, 0.0, 0.0, 0.0, 0.0, 0.0, 1.6635878712493317E9, 0.0, 2022-09-19 16:44:31.249
230.0, -13625.757530421917, -11992.85083923946, -20708.690072141897, -17315.024711492624, 187500.0, 187500.0, 850.2156555909701, -27226.19053437597, 0.758, -0.5660000000000001, 0.422, 192.0, 23.0, 176.0, 238.0, 80.0, 13.0, 48.0, 0.0, 0.0, 0.0, 1.6635878712534049E9, 0.0, 2022-09-19 16:44:31.253
231.0, -13642.253117829934, -12007.066548713035, -20708.377147719522, -17313.303627169567, 187500.0, 187500.0, 813.4246842175346, -27225.4752785534, 0.758, -0.5660000000000001, 0.422, 192.0, 0.0, 0.0, 0.0, 0.0, 0.0, 0.0, 0.0, 0.0, 0.0, 1.663587871257396E9, 0.0, 2022-09-19 16:44:31.257
232.0, -13641.850786429739, -12025.126758232924, -20706.790173863195, -17313.728310314218, 187500.0, 187500.0, 794.2468874748812, -27220.8261157067, 0.758, -0.5660000000000001, 0.422, 192.0, 0.0, 0.0, 0.0, 0.0, 0.0, 0.0, 0.0, 0.0, 0.0, 1.6635878712635276E9, 0.0, 2022-09-19 16:44:31.263
233.0, -13620.79544315284, -12011.112214459446, -20701.001072049272, -17306.66515906634, 187500.0, 187500.0, 809.3119632377582, -27208.376194045093, 0.758, -0.5660000000000001, 0.422, 192.0, 0.0, 0.0, 0.0, 0.0, 0.0, 0.0, 0.0, 0.0, 0.0, 1.6635878712664483E9, 0.0, 2022-09-19 16:44:31.266
234.0, -13621.130719319668, -12020.142319219389, -20711.104060543068, -17313.840069036494, 187500.0, 187500.0, 842.5266554983444, -27214.411165048026, 0.758, -0.5660000000000001, 0.422, 192.0, 0.0, 0.0, 0.0, 0.0, 0.0, 0.0, 0.0, 0.0, 0.0, 1.6635878712705224E9, 0.0, 2022-09-19 16:44:31.270
235.0, -13632.038370613858, -12042.672877630339, -20711.640502409995, -17313.57184810303, 187500.0, 187500.0, 852.0037951473946, -27215.506400526334, 0.758, -0.5660000000000001, 0.422, 192.0, 0.0, 0.0, 0.0, 0.0, 0.0, 0.0, 0.0, 0.0, 0.0, 1.663587871273402E9, 0.0, 2022-09-19 16:44:31.273
236.0, -13643.41540854161, -12041.756456107672, -20708.600665164075, -17306.843973021983, 187500.0, 187500.0, 819.8172831317524, -27208.71147021192, 0.758, -0.5660000000000001, 0.422, 192.0, 0.0, 0.0, 0.0, 0.0, 0.0, 0.0, 0.0, 0.0, 0.0, 1.663587871277398E9, 0.0, 2022-09-19 16:44:31.277
237.0, -13642.096655618747, -12023.562136121052, -20708.33244423061, -17300.60783631895, 187500.0, 187500.0, 800.6171346446437, -27200.083696852173, 0.758, -0.5660000000000001, 0.422, 192.0, 0.0, 0.0, 0.0, 0.0, 0.0, 0.0, 0.0, 0.0, 0.0, 1.663587871281406E9, 0.0, 2022-09-19 16:44:31.281
238.0, -13638.900356161637, -12053.580528924529, -20707.14780177448, -17302.351272386466, 187500.0, 187500.0, 807.7920446147972, -27199.86017940762, 0.758, -0.5660000000000001, 0.422, 192.0, 0.0, 0.0, 0.0, 0.0, 0.0, 0.0, 0.0, 0.0, 0.0, 1.6635878712854536E9, 0.0, 2022-09-19 16:44:31.285
239.0, -13632.395998525144, -12032.86046181446, -20708.846534353084, -17308.654464322863, 187500.0, 187500.0, 841.1408473421154, -27202.452981764436, 0.758, -0.5660000000000001, 0.422, 192.0, 0.0, 0.0, 0.0, 0.0, 0.0, 0.0, 0.0, 0.0, 0.0, 1.6635878712904196E9, 0.0, 2022-09-19 16:44:31.290
240.0, -13638.74389395045, -12027.831319312016, -20710.52291518723, -17311.67194982433, 187500.0, 187500.0, 845.6335479776321, -27203.52586549829, 0.754, -0.5720000000000001, 0.42, 192.0, 23.0, 144.0, 238.0, 32.0, 13.0, 32.0, 0.0, 0.0, 0.0, 1.6635878712944512E9, 0.0, 2022-09-19 16:44:31.294
241.0, -13648.042219643858, -12046.852653843482, -20703.884447084005, -17306.88867651089, 187500.0, 187500.0, 806.3838847141129, -27194.7192781829, 0.754, -0.5720000000000001, 0.42, 192.0, 0.0, 0.0, 0.0, 0.0, 0.0, 0.0, 0.0, 0.0, 0.0, 1.6635878712974553E9, 0.0, 2022-09-19 16:44:31.297
242.0, -13627.545669978343, -12016.1860604508, -20697.223627236322, -17304.13941194289, 187500.0, 187500.0, 788.770710083331, -27193.71344968241, 0.754, -0.5720000000000001, 0.42, 192.0, 0.0, 0.0, 0.0, 0.0, 0.0, 0.0, 0.0, 0.0, 0.0, 1.6635878713014617E9, 0.0, 2022-09-19 16:44:31.301
243.0, -13613.464070971499, -12015.180231950311, -20708.824182608627, -17315.963484759748, 187500.0, 187500.0, 796.6385241315991, -27208.86793242311, 0.754, -0.5720000000000001, 0.42, 192.0, 0.0, 0.0, 0.0, 0.0, 0.0, 0.0, 0.0, 0.0, 0.0, 1.6635878713055382E9, 0.0, 2022-09-19 16:44:31.305
244.0, -13608.412576724599, -12012.587429593495, -20710.72408088733, -17318.221010949732, 187500.0, 187500.0, 827.4168762465569, -27201.178932330484, 0.754, -0.5720000000000001, 0.42, 192.0, 0.0, 0.0, 0.0, 0.0, 0.0, 0.0, 0.0, 0.0, 0.0, 1.663587871309486E9, 0.0, 2022-09-19 16:44:31.309
245.0, -13610.021902325381, -12011.156917948356, -20704.353833717567, -17315.71761557074, 187500.0, 187500.0, 835.4188007615568, -27200.933063141474, 0.754, -0.5720000000000001, 0.42, 192.0, 0.0, 0.0, 0.0, 0.0, 0.0, 0.0, 0.0, 0.0, 0.0, 1.663587871313449E9, 0.0, 2022-09-19 16:44:31.313
246.0, -13615.45337622802, -12015.157880205856, -20700.196409248878, -17314.95765625926, 187500.0, 187500.0, 798.7842915993085, -27203.95054864294, 0.754, -0.5720000000000001, 0.42, 192.0, 0.0, 0.0, 0.0, 0.0, 0.0, 0.0, 0.0, 0.0, 0.0, 1.6635878713184743E9, 0.0, 2022-09-19 16:44:31.318
247.0, -13596.074413785269, -12012.98976099369, -20696.173095246922, -17313.303627169567, 187500.0, 187500.0, 776.5666576107333, -27205.693984710455, 0.754, -0.5720000000000001, 0.42, 192.0, 0.0, 0.0, 0.0, 0.0, 0.0, 0.0, 0.0, 0.0, 0.0, 1.6635878713214743E9, 0.0, 2022-09-19 16:44:31.321
248.0, -13598.890733586639, -12034.536842648607, -20699.0341185372, -17320.34442667299, 187500.0, 187500.0, 785.4403001594902, -27210.410202790525, 0.754, -0.5720000000000001, 0.42, 192.0, 0.0, 0.0, 0.0, 0.0, 0.0, 0.0, 0.0, 0.0, 0.0, 1.6635878713265316E9, 0.0, 2022-09-19 16:44:31.326
249.0, -13612.413538982099, -12062.208302284278, -20708.645368652986, -17329.28512445511, 187500.0, 187500.0, 814.9669545849508, -27219.485011039378, 0.754, -0.5720000000000001, 0.42, 192.0, 0.0, 0.0, 0.0, 0.0, 0.0, 0.0, 0.0, 0.0, 0.0, 1.6635878713294775E9, 0.0, 2022-09-19 16:44:31.329
250.0, -13626.606896711219, -12069.62908144344, -20715.73087164532, -17337.443511181296, 187500.0, 187500.0, 823.1700448000485, -27226.212886120426, 0.748, -0.5680000000000001, 0.42, 192.0, 23.0, 96.0, 238.0, 64.0, 13.0, 32.0, 0.0, 0.0, 0.0, 1.6635878713335028E9, 0.0, 2022-09-19 16:44:31.333
251.0, -13627.992704867447, -12022.37749366492, -20708.310092486157, -17332.079092512024, 187500.0, 187500.0, 789.7541868393645, -27223.351862830146, 0.748, -0.5680000000000001, 0.42, 192.0, 0.0, 0.0, 0.0, 0.0, 0.0, 0.0, 0.0, 0.0, 0.0, 1.6635878713374972E9, 0.0, 2022-09-19 16:44:31.337
252.0, -13631.099597346736, -12023.942115776792, -20709.114755286548, -17331.587354134008, 187500.0, 187500.0, 771.5375151082892, -27222.23427560738, 0.748, -0.5680000000000001, 0.42, 192.0, 0.0, 0.0, 0.0, 0.0, 0.0, 0.0, 0.0, 0.0, 0.0, 1.6635878713415136E9, 0.0, 2022-09-19 16:44:31.341
253.0, -13636.195795082545, -12053.602880668985, -20714.52387744473, -17335.387150691407, 187500.0, 187500.0, 779.5841431121997, -27218.635644750077, 0.748, -0.5680000000000001, 0.42, 192.0, 0.0, 0.0, 0.0, 0.0, 0.0, 0.0, 0.0, 0.0, 0.0, 1.6635878713474975E9, 0.0, 2022-09-19 16:44:31.347
254.0, -13628.126815334179, -12041.28706947411, -20715.797926878684, -17336.70590361427, 187500.0, 187500.0, 813.670553406543, -27220.781412217788, 0.748, -0.5680000000000001, 0.42, 192.0, 0.0, 0.0, 0.0, 0.0, 0.0, 0.0, 0.0, 0.0, 0.0, 1.6635878713505452E9, 0.0, 2022-09-19 16:44:31.350
255.0, -13639.660315473118, -12027.652505356373, -20725.699749672385, -17339.499871671185, 187500.0, 187500.0, 820.7784081433307, -27227.33047334319, 0.748, -0.5680000000000001, 0.42, 192.0, 0.0, 0.0, 0.0, 0.0, 0.0, 0.0, 0.0, 0.0, 0.0, 1.663587871354535E9, 0.0, 2022-09-19 16:44:31.354
0.0, -13644.667106231107, -12027.406636167365, -20718.547191446687, -17328.994551777192, 187500.0, 187500.0, 784.479175147912, -27219.261493594826, 0.748, -0.5680000000000001, 0.42, 192.0, 0.0, 0.0, 0.0, 0.0, 0.0, 0.0, 0.0, 0.0, 0.0, 1.6635878713575296E9, 0.0, 2022-09-19 16:44:31.357
1.0, -13631.904260147126, -12018.845918040983, -20707.30426398567, -17324.300685441576, 187500.0, 187500.0, 766.5977795836664, -27224.96118843093, 0.748, -0.5680000000000001, 0.42, 192.0, 0.0, 0.0, 0.0, 0.0, 0.0, 0.0, 0.0, 0.0, 0.0, 1.6635878713615592E9, 0.0, 2022-09-19 16:44:31.361
2.0, -13619.83431814126, -12010.843993525981, -20698.363566203545, -17316.56698186004, 187500.0, 187500.0, 780.3664541681355, -27209.42672603449, 0.748, -0.5680000000000001, 0.42, 192.0, 0.0, 0.0, 0.0, 0.0, 0.0, 0.0, 0.0, 0.0, 0.0, 1.6635878713655262E9, 0.0, 2022-09-19 16:44:31.365
3.0, -13627.433911256065, -12045.645659642894, -20699.10117377057, -17320.031502250615, 187500.0, 187500.0, 815.0116580738614, -27204.419935276503, 0.748, -0.5680000000000001, 0.42, 192.0, 0.0, 0.0, 0.0, 0.0, 0.0, 0.0, 0.0, 0.0, 0.0, 1.663587871369556E9, 0.0, 2022-09-19 16:44:31.369
4.0, -13635.03350437087, -12065.069325574557, -20701.559865660653, -17321.08203424001, 187500.0, 187500.0, 827.282765779825, -27207.929159155985, 0.748, -0.5720000000000001, 0.42, 192.0, 23.0, 96.0, 238.0, 32.0, 13.0, 32.0, 0.0, 0.0, 0.0, 1.66358787137359E9, 0.0, 2022-09-19 16:44:31.373
5.0, -13634.519414248398, -12034.827415326527, -20698.989415048294, -17316.924609771326, 187500.0, 187500.0, 795.3644746976465, -27206.096316110652, 0.748, -0.5720000000000001, 0.42, 192.0, 0.0, 0.0, 0.0, 0.0, 0.0, 0.0, 0.0, 0.0, 0.0, 1.6635878713775675E9, 0.0, 2022-09-19 16:44:31.377
6.0, -13629.847899657238, -12018.980028507714, -20695.167266746434, -17312.968351002735, 187500.0, 187500.0, 783.9427332809846, -27198.697888695944, 0.748, -0.5720000000000001, 0.42, 192.0, 0.0, 0.0, 0.0, 0.0, 0.0, 0.0, 0.0, 0.0, 0.0, 1.6635878713806622E9, 0.0, 2022-09-19 16:44:31.380
7.0, -13631.345466535744, -12039.029543284125, -20699.123525515024, -17318.176307460824, 187500.0, 187500.0, 794.9174398085404, -27201.33539454167, 0.748, -0.5720000000000001, 0.42, 192.0, 0.0, 0.0, 0.0, 0.0, 0.0, 0.0, 0.0, 0.0, 0.0, 1.663587871384605E9, 0.0, 2022-09-19 16:44:31.384
8.0, -13618.962600107503, -12029.932383290814, -20706.29843548518, -17324.99358951969, 187500.0, 187500.0, 830.7249344259423, -27207.52682775579, 0.748, -0.5720000000000001, 0.42, 192.0, 0.0, 0.0, 0.0, 0.0, 0.0, 0.0, 0.0, 0.0, 0.0, 1.6635878713896065E9, 0.0, 2022-09-19 16:44:31.389
9.0, -13628.350332778733, -12035.676781615828, -20708.824182608627, -17332.23555472321, 187500.0, 187500.0, 845.4100305330791, -27214.277054581293, 0.748, -0.5720000000000001, 0.42, 192.0, 0.0, 0.0, 0.0, 0.0, 0.0, 0.0, 0.0, 0.0, 0.0, 1.6635878713935983E9, 0.0, 2022-09-19 16:44:31.393
10.0, -13635.480539259976, -12026.512566389152, -20704.599702906573, -17332.034389023112, 187500.0, 187500.0, 814.6093266736659, -27217.026319149296, 0.748, -0.5720000000000001, 0.42, 192.0, 0.0, 0.0, 0.0, 0.0, 0.0, 0.0, 0.0, 0.0, 0.0, 1.6635878713976383E9, 0.0, 2022-09-19 16:44:31.397
11.0, -13622.158899564613, -12022.221031453733, -20702.833915094605, -17328.368702932443, 187500.0, 187500.0, 800.3265619667247, -27211.550141757747, 0.748, -0.5720000000000001, 0.42, 192.0, 0.0, 0.0, 0.0, 0.0, 0.0, 0.0, 0.0, 0.0, 0.0, 1.663587871401714E9, 0.0, 2022-09-19 16:44:31.401
12.0, -13615.878059372671, -12036.503796160674, -20704.75616511776, -17328.10048199898, 187500.0, 187500.0, 816.0845418077162, -27209.784353945775, 0.748, -0.5720000000000001, 0.42, 192.0, 0.0, 0.0, 0.0, 0.0, 0.0, 0.0, 0.0, 0.0, 0.0, 1.663587871405599E9, 0.0, 2022-09-19 16:44:31.405
13.0, -13601.192963265536, -12034.916822304347, -20708.868886097538, -17328.94984828828, 187500.0, 187500.0, 851.9143881695734, -27211.214865590915, 0.748, -0.5720000000000001, 0.42, 192.0, 0.0, 0.0, 0.0, 0.0, 0.0, 0.0, 0.0, 0.0, 0.0, 1.6635878714106455E9, 0.0, 2022-09-19 16:44:31.410
14.0, -13605.037463311848, -12034.46978741524, -20703.95150231737, -17326.692322098294, 187500.0, 187500.0, 869.8404872227296, -27209.873760923598, 0.748, -0.5720000000000001, 0.42, 192.0, 0.0, 0.0, 0.0, 0.0, 0.0, 0.0, 0.0, 0.0, 0.0, 1.6635878714137695E9, 0.0, 2022-09-19 16:44:31.413
15.0, -13621.287181530855, -12044.349258464486, -20696.664833624942, -17321.551420873573, 187500.0, 187500.0, 838.8833211521294, -27206.85627542213, 0.746, -0.5720000000000001, 0.41600000000000004, 192.0, 23.0, 80.0, 238.0, 32.0, 13.0, 0.0, 0.0, 0.0, 0.0, 1.66358787141865E9, 0.0, 2022-09-19 16:44:31.418
16.0, -13608.524335446875, -12013.347388904976, -20694.541417901688, -17315.985836504202, 187500.0, 187500.0, 826.2098820459703, -27209.00204288984, 0.746, -0.5720000000000001, 0.41600000000000004, 192.0, 0.0, 0.0, 0.0, 0.0, 0.0, 0.0, 0.0, 0.0, 0.0, 1.6635878714227116E9, 0.0, 2022-09-19 16:44:31.422
17.0, -13608.099652302224, -12021.371665164432, -20695.837819080094, -17316.276409182123, 187500.0, 187500.0, 841.476123508945, -27207.43742077797, 0.746, -0.5720000000000001, 0.41600000000000004, 192.0, 0.0, 0.0, 0.0, 0.0, 0.0, 0.0, 0.0, 0.0, 0.0, 1.6635878714267223E9, 0.0, 2022-09-19 16:44:31.426
18.0, -13612.257076770911, -12040.705924118272, -20700.71049937135, -17322.981932518713, 187500.0, 187500.0, 877.2836181263469, -27204.95637714343, 0.746, -0.5720000000000001, 0.41600000000000004, 192.0, 0.0, 0.0, 0.0, 0.0, 0.0, 0.0, 0.0, 0.0, 0.0, 1.6635878714297674E9, 0.0, 2022-09-19 16:44:31.429
19.0, -13613.106443060213, -12053.71463939126, -20708.2877407417, -17327.944019787792, 187500.0, 187500.0, 889.957057232506, -27214.344109814658, 0.746, -0.5720000000000001, 0.41600000000000004, 192.0, 0.0, 0.0, 0.0, 0.0, 0.0, 0.0, 0.0, 0.0, 0.0, 1.6635878714327402E9, 0.0, 2022-09-19 16:44:31.432
20.0, -13613.464070971499, -12020.410540152854, -20696.53072315821, -17313.884772525405, 187500.0, 187500.0, 863.6267022641542, -27203.32469979819, 0.746, -0.5720000000000001, 0.41600000000000004, 192.0, 0.0, 0.0, 0.0, 0.0, 0.0, 0.0, 0.0, 0.0, 0.0, 1.663587871436696E9, 0.0, 2022-09-19 16:44:31.436
21.0, -13617.576791951275, -12022.71276983175, -20695.94957780237, -17313.750662058672, 187500.0, 187500.0, 849.3215858127578, -27205.649281221544, 0.746, -0.5720000000000001, 0.41600000000000004, 192.0, 0.0, 0.0, 0.0, 0.0, 0.0, 0.0, 0.0, 0.0, 0.0, 1.6635878714406772E9, 0.0, 2022-09-19 16:44:31.440
22.0, -13615.341617505745, -12035.565022893552, -20703.348005217078, -17318.958618516757, 187500.0, 187500.0, 861.7938592188191, -27212.690080724966, 0.746, -0.5720000000000001, 0.41600000000000004, 192.0, 0.0, 0.0, 0.0, 0.0, 0.0, 0.0, 0.0, 0.0, 0.0, 1.6635878714457817E9, 0.0, 2022-09-19 16:44:31.445
23.0, -13608.010245324404, -12015.828432539516, -20710.835839609605, -17329.173365732833, 187500.0, 187500.0, 899.4565486260115, -27223.62008376361, 0.746, -0.5720000000000001, 0.41600000000000004, 192.0, 0.0, 0.0, 0.0, 0.0, 0.0, 0.0, 0.0, 0.0, 0.0, 1.6635878714497375E9, 0.0, 2022-09-19 16:44:31.449
24.0, -13611.586524437253, -12012.52037436013, -20713.071014055135, -17327.184060476313, 187500.0, 187500.0, 914.052237755327, -27219.75323197284, 0.746, -0.5720000000000001, 0.41600000000000004, 192.0, 0.0, 0.0, 0.0, 0.0, 0.0, 0.0, 0.0, 0.0, 0.0, 1.663587871453755E9, 0.0, 2022-09-19 16:44:31.453
25.0, -13624.416425754598, -12036.794368838593, -20706.320787229633, -17320.90322028437, 187500.0, 187500.0, 881.9774844619614, -27213.606502247632, 0.75, -0.5720000000000001, 0.422, 192.0, 23.0, 112.0, 238.0, 32.0, 13.0, 48.0, 0.0, 0.0, 0.0, 1.6635878714577348E9, 0.0, 2022-09-19 16:44:31.457
26.0, -13632.306591547322, -12051.188892267812, -20701.269292982735, -17318.600990605475, 187500.0, 187500.0, 863.5819987752436, -27212.75713595833, 0.75, -0.5720000000000001, 0.422, 192.0, 0.0, 0.0, 0.0, 0.0, 0.0, 0.0, 0.0, 0.0, 0.0, 1.6635878714607868E9, 0.0, 2022-09-19 16:44:31.460
27.0, -13633.22301306999, -12039.43187468432, -20700.24111273779, -17314.689435325796, 187500.0, 187500.0, 875.0707954252715, -27207.415069033515, 0.75, -0.5720000000000001, 0.422, 192.0, 0.0, 0.0, 0.0, 0.0, 0.0, 0.0, 0.0, 0.0, 0.0, 1.6635878714647937E9, 0.0, 2022-09-19 16:44:31.464
28.0, -13641.090827118258, -12038.38134269492, -20708.734775630808, -17323.51837438564, 187500.0, 187500.0, 908.7772260638745, -27212.667728980512, 0.75, -0.5720000000000001, 0.422, 192.0, 0.0, 0.0, 0.0, 0.0, 0.0, 0.0, 0.0, 0.0, 0.0, 1.6635878714688082E9, 0.0, 2022-09-19 16:44:31.468
29.0, -13641.22493758499, -12053.826398113537, -20714.72504314483, -17333.86723206845, 187500.0, 187500.0, 922.2553279704247, -27222.524848285302, 0.75, -0.5720000000000001, 0.422, 192.0, 0.0, 0.0, 0.0, 0.0, 0.0, 0.0, 0.0, 0.0, 0.0, 1.6635878714727533E9, 0.0, 2022-09-19 16:44:31.472
30.0, -13636.396960782644, -12028.479519901219, -20701.738679616294, -17323.920705785837, 187500.0, 187500.0, 894.5615165902992, -27217.138077871572, 0.75, -0.5720000000000001, 0.422, 192.0, 0.0, 0.0, 0.0, 0.0, 0.0, 0.0, 0.0, 0.0, 0.0, 1.6635878714778292E9, 0.0, 2022-09-19 16:44:31.477
31.0, -13625.154033321624, -12007.625342324418, -20690.04871726617, -17312.05192948007, 187500.0, 187500.0, 881.7092635284977, -27209.158505101026, 0.75, -0.5720000000000001, 0.422, 192.0, 0.0, 0.0, 0.0, 0.0, 0.0, 0.0, 0.0, 0.0, 0.0, 1.663587871481778E9, 0.0, 2022-09-19 16:44:31.481
32.0, -13621.398940253132, -12008.765281291639, -20698.072993525624, -17315.829374293015, 187500.0, 187500.0, 892.1922316780367, -27202.54238874226, 0.75, -0.5720000000000001, 0.422, 192.0, 0.0, 0.0, 0.0, 0.0, 0.0, 0.0, 0.0, 0.0, 0.0, 1.6635878714857762E9, 0.0, 2022-09-19 16:44:31.485
33.0, -13606.199754023524, -12024.724426832727, -20703.169191261433, -17320.411481906354, 187500.0, 187500.0, 925.8986623166397, -27208.19738008945, 0.75, -0.5720000000000001, 0.422, 192.0, 0.0, 0.0, 0.0, 0.0, 0.0, 0.0, 0.0, 0.0, 0.0, 1.6635878714898107E9, 0.0, 2022-09-19 16:44:31.489
34.0, -13603.964579577992, -12024.14328147689, -20696.083688269104, -17318.66804583884, 187500.0, 187500.0, 939.1532467786368, -27211.058403379728, 0.75, -0.5720000000000001, 0.422, 192.0, 0.0, 0.0, 0.0, 0.0, 0.0, 0.0, 0.0, 0.0, 0.0, 1.6635878714938483E9, 0.0, 2022-09-19 16:44:31.493
35.0, -13624.50583273242, -12038.358990950464, -20691.27806321121, -17319.3385981725, 187500.0, 187500.0, 905.1785952065701, -27209.560836501223, 0.748, -0.5740000000000001, 0.42, 192.0, 23.0, 96.0, 238.0, 16.0, 13.0, 32.0, 0.0, 0.0, 0.0, 1.663587871496856E9, 0.0, 2022-09-19 16:44:31.496
36.0, -13636.84399567175, -12060.397810983397, -20692.66387136744, -17321.75258657367, 187500.0, 187500.0, 882.4245193510675, -27212.28774932477, 0.748, -0.5740000000000001, 0.42, 192.0, 0.0, 0.0, 0.0, 0.0, 0.0, 0.0, 0.0, 0.0, 0.0, 1.6635878715008056E9, 0.0, 2022-09-19 16:44:31.500
37.0, -13624.371722265689, -12050.071305045047, -20689.42286842142, -17317.86338303845, 187500.0, 187500.0, 891.4769758554669, -27210.164333601515, 0.748, -0.5740000000000001, 0.42, 192.0, 0.0, 0.0, 0.0, 0.0, 0.0, 0.0, 0.0, 0.0, 0.0, 1.663587871505864E9, 0.0, 2022-09-19 16:44:31.505
38.0, -13617.666198929097, -12037.442569427798, -20690.98749053329, -17319.115080727945, 187500.0, 187500.0, 922.8141215818074, -27212.57832200269, 0.748, -0.5740000000000001, 0.42, 192.0, 0.0, 0.0, 0.0, 0.0, 0.0, 0.0, 0.0, 0.0, 0.0, 1.663587871509898E9, 0.0, 2022-09-19 16:44:31.509
39.0, -13612.257076770911, -12027.00430476717, -20696.977758047316, -17322.669008096338, 187500.0, 187500.0, 935.8004851103408, -27214.00883364783, 0.748, -0.5740000000000001, 0.42, 192.0, 0.0, 0.0, 0.0, 0.0, 0.0, 0.0, 0.0, 0.0, 0.0, 1.6635878715128148E9, 0.0, 2022-09-19 16:44:31.512
40.0, -13610.737158147951, -12008.228839424712, -20694.675528368418, -17318.511583627653, 187500.0, 187500.0, 901.4458538825338, -27212.555970258236, 0.748, -0.5740000000000001, 0.42, 192.0, 0.0, 0.0, 0.0, 0.0, 0.0, 0.0, 0.0, 0.0, 0.0, 1.6635878715168347E9, 0.0, 2022-09-19 16:44:31.516
41.0, -13607.11617554619, -12000.293970143077, -20684.4831328968, -17309.481478867707, 187500.0, 187500.0, 882.5809815622547, -27205.291653310258, 0.748, -0.5740000000000001, 0.42, 192.0, 0.0, 0.0, 0.0, 0.0, 0.0, 0.0, 0.0, 0.0, 0.0, 1.6635878715208695E9, 0.0, 2022-09-19 16:44:31.520
42.0, -13614.760472149906, -12028.121891989935, -20687.634728864996, -17315.538801615097, 187500.0, 187500.0, 887.2301444089585, -27206.789220188766, 0.748, -0.5740000000000001, 0.42, 192.0, 0.0, 0.0, 0.0, 0.0, 0.0, 0.0, 0.0, 0.0, 0.0, 1.6635878715248995E9, 0.0, 2022-09-19 16:44:31.524
43.0, -13615.274562272378, -12031.988743780703, -20694.407307434954, -17326.155880231367, 187500.0, 187500.0, 915.3262871892795, -27218.255665094337, 0.748, -0.5740000000000001, 0.42, 192.0, 0.0, 0.0, 0.0, 0.0, 0.0, 0.0, 0.0, 0.0, 0.0, 1.6635878715288675E9, 0.0, 2022-09-19 16:44:31.528
44.0, -13619.78961465235, -12040.348296206987, -20692.552112645164, -17324.658313352862, 187500.0, 187500.0, 930.1901972520587, -27212.57832200269, 0.748, -0.5740000000000001, 0.42, 192.0, 0.0, 0.0, 0.0, 0.0, 0.0, 0.0, 0.0, 0.0, 0.0, 1.6635878715339148E9, 0.0, 2022-09-19 16:44:31.533
45.0, -13622.74004492045, -12025.439682655298, -20685.176036974914, -17314.689435325796, 187500.0, 187500.0, 898.7412928034416, -27202.85531316463, 0.752, -0.5680000000000001, 0.422, 192.0, 23.0, 128.0, 238.0, 64.0, 13.0, 48.0, 0.0, 0.0, 0.0, 1.6635878715378537E9, 0.0, 2022-09-19 16:44:31.537
46.0, -13626.3163240333, -12011.335731903999, -20687.90294979846, -17316.1870022043, 187500.0, 187500.0, 876.0095686923944, -27207.035089377772, 0.752, -0.5680000000000001, 0.422, 192.0, 0.0, 0.0, 0.0, 0.0, 0.0, 0.0, 0.0, 0.0, 0.0, 1.6635878715409312E9, 0.0, 2022-09-19 16:44:31.540
47.0, -13622.181251309068, -12014.532031361108, -20689.869903310526, -17319.360949916954, 187500.0, 187500.0, 881.7986705063189, -27205.269301565804, 0.752, -0.5680000000000001, 0.422, 192.0, 0.0, 0.0, 0.0, 0.0, 0.0, 0.0, 0.0, 0.0, 0.0, 1.6635878715448828E9, 0.0, 2022-09-19 16:44:31.544
48.0, -13604.724538889473, -12018.555345363064, -20693.04385102318, -17322.51254588515, 187500.0, 187500.0, 909.8054063088186, -27209.024394634296, 0.752, -0.5680000000000001, 0.422, 192.0, 0.0, 0.0, 0.0, 0.0, 0.0, 0.0, 0.0, 0.0, 0.0, 1.6635878715489151E9, 0.0, 2022-09-19 16:44:31.548
49.0, -13613.709940160506, -12039.945964806791, -20696.307205713656, -17324.56890637504, 187500.0, 187500.0, 919.7072291025197, -27213.83001969219, 0.752, -0.5680000000000001, 0.422, 192.0, 0.0, 0.0, 0.0, 0.0, 0.0, 0.0, 0.0, 0.0, 0.0, 1.6635878715529697E9, 0.0, 2022-09-19 16:44:31.552
50.0, -13627.277449044877, -12035.028581026625, -20698.63178713701, -17324.077167997024, 187500.0, 187500.0, 881.1951734060257, -27211.304272568737, 0.752, -0.5680000000000001, 0.422, 192.0, 0.0, 0.0, 0.0, 0.0, 0.0, 0.0, 0.0, 0.0, 0.0, 1.6635878715569472E9, 0.0, 2022-09-19 16:44:31.556
51.0, -13620.862498386205, -11987.374661847909, -20695.435487679897, -17322.95958077426, 187500.0, 187500.0, 856.4741440384561, -27209.29261556776, 0.752, -0.5680000000000001, 0.422, 192.0, 0.0, 0.0, 0.0, 0.0, 0.0, 0.0, 0.0, 0.0, 0.0, 1.663587871561031E9, 0.0, 2022-09-19 16:44:31.561
52.0, -13615.386320994654, -11997.790574764083, -20702.43158369441, -17330.782691333618, 187500.0, 187500.0, 855.8482951937075, -27215.48404878188, 0.752, -0.5680000000000001, 0.422, 192.0, 0.0, 0.0, 0.0, 0.0, 0.0, 0.0, 0.0, 0.0, 0.0, 1.6635878715659976E9, 0.0, 2022-09-19 16:44:31.565
53.0, -13615.140451805646, -12016.09665347298, -20709.941769831392, -17336.28122046962, 187500.0, 187500.0, 882.8492024957184, -27219.797935461753, 0.752, -0.5680000000000001, 0.422, 192.0, 0.0, 0.0, 0.0, 0.0, 0.0, 0.0, 0.0, 0.0, 0.0, 1.6635878715699625E9, 0.0, 2022-09-19 16:44:31.569
54.0, -13622.293010031344, -12016.722502317727, -20701.001072049272, -17333.28608671261, 187500.0, 187500.0, 897.8025195363188, -27218.56858951671, 0.752, -0.5680000000000001, 0.422, 192.0, 0.0, 0.0, 0.0, 0.0, 0.0, 0.0, 0.0, 0.0, 0.0, 1.6635878715729556E9, 0.0, 2022-09-19 16:44:31.572
55.0, -13641.403751540633, -12033.352200192476, -20697.80477259216, -17325.977066275726, 187500.0, 187500.0, 861.637397007632, -27212.935949913975, 0.754, -0.5720000000000001, 0.426, 192.0, 23.0, 144.0, 238.0, 32.0, 13.0, 80.0, 0.0, 0.0, 0.0, 1.663587871577964E9, 0.0, 2022-09-19 16:44:31.577
56.0, -13632.440702014053, -12025.909069288859, -20697.693013869884, -17323.76424357465, 187500.0, 187500.0, 840.5597019862774, -27214.657034237032, 0.754, -0.5720000000000001, 0.426, 192.0, 0.0, 0.0, 0.0, 0.0, 0.0, 0.0, 0.0, 0.0, 0.0, 1.663587871582014E9, 0.0, 2022-09-19 16:44:31.582
57.0, -13614.983989594459, -12012.855650526959, -20696.731888858307, -17324.94888603078, 187500.0, 187500.0, 848.7851439458304, -27219.32854882819, 0.754, -0.5720000000000001, 0.426, 192.0, 0.0, 0.0, 0.0, 0.0, 0.0, 0.0, 0.0, 0.0, 0.0, 1.6635878715849545E9, 0.0, 2022-09-19 16:44:31.584
58.0, -13616.302742517322, -12029.395941423887, -20705.225551751322, -17335.610668135963, 187500.0, 187500.0, 873.5508768023107, -27225.318816342213, 0.754, -0.5720000000000001, 0.426, 192.0, 0.0, 0.0, 0.0, 0.0, 0.0, 0.0, 0.0, 0.0, 0.0, 1.6635878715900326E9, 0.0, 2022-09-19 16:44:31.590
59.0, -13625.019922854892, -12050.764209123161, -20702.00690054976, -17331.56500238955, 187500.0, 187500.0, 882.312760628791, -27210.633720235077, 0.754, -0.5720000000000001, 0.426, 192.0, 0.0, 0.0, 0.0, 0.0, 0.0, 0.0, 0.0, 0.0, 0.0, 1.6635878715930965E9, 0.0, 2022-09-19 16:44:31.593
60.0, -13625.399902510633, -12056.776828381639, -20690.518103899733, -17328.301647699078, 187500.0, 187500.0, 843.666594465565, -27212.734784213877, 0.754, -0.5720000000000001, 0.426, 192.0, 0.0, 0.0, 0.0, 0.0, 0.0, 0.0, 0.0, 0.0, 0.0, 1.6635878715960095E9, 0.0, 2022-09-19 16:44:31.596
61.0, -13622.561230964808, -12004.026711467113, -20684.304318941155, -17318.757452816662, 187500.0, 187500.0, 817.4703499639452, -27203.436458520468, 0.754, -0.5720000000000001, 0.426, 192.0, 0.0, 0.0, 0.0, 0.0, 0.0, 0.0, 0.0, 0.0, 0.0, 1.6635878716010451E9, 0.0, 2022-09-19 16:44:31.601
62.0, -13613.50877446041, -12003.534973089096, -20684.550188130164, -17315.985836504202, 187500.0, 187500.0, 822.4994924663893, -27201.693022452953, 0.754, -0.5720000000000001, 0.426, 192.0, 0.0, 0.0, 0.0, 0.0, 0.0, 0.0, 0.0, 0.0, 0.0, 1.6635878716050284E9, 0.0, 2022-09-19 16:44:31.605
63.0, -13603.40578596661, -12011.983932493202, -20687.165342231434, -17320.746758073183, 187500.0, 187500.0, 854.2836730818359, -27207.348013800147, 0.754, -0.5720000000000001, 0.426, 192.0, 0.0, 0.0, 0.0, 0.0, 0.0, 0.0, 0.0, 0.0, 0.0, 1.66358787160898E9, 0.0, 2022-09-19 16:44:31.608
64.0, -13607.384396479654, -12026.914897789347, -20686.80771432015, -17320.009150506157, 187500.0, 187500.0, 867.605312777199, -27205.314005054715, 0.754, -0.5720000000000001, 0.426, 192.0, 0.0, 0.0, 0.0, 0.0, 0.0, 0.0, 0.0, 0.0, 0.0, 1.6635878716130133E9, 0.0, 2022-09-19 16:44:31.613
65.0, -13600.298893487323, -12005.099595200969, -20678.694031082872, -17311.560191102053, 187500.0, 187500.0, 835.3517455281908, -27197.468542750903, 0.758, -0.5720000000000001, 0.426, 192.0, 23.0, 176.0, 238.0, 32.0, 13.0, 80.0, 0.0, 0.0, 0.0, 1.6635878716180396E9, 0.0, 2022-09-19 16:44:31.618
66.0, -13610.737158147951, -12012.363912148943, -20685.3324991861, -17310.397900390377, 187500.0, 187500.0, 809.7813498713195, -27198.094391595652, 0.758, -0.5720000000000001, 0.426, 192.0, 0.0, 0.0, 0.0, 0.0, 0.0, 0.0, 0.0, 0.0, 0.0, 1.6635878716210475E9, 0.0, 2022-09-19 16:44:31.621
67.0, -13614.782823894362, -12026.71373208925, -20692.70857485635, -17314.15299345887, 187500.0, 187500.0, 817.3362394972133, -27200.03899336326, 0.758, -0.5720000000000001, 0.426, 192.0, 0.0, 0.0, 0.0, 0.0, 0.0, 0.0, 0.0, 0.0, 0.0, 1.6635878716240742E9, 0.0, 2022-09-19 16:44:31.624
68.0, -13609.954847092014, -12033.799235081582, -20693.3344237011, -17314.778842303615, 187500.0, 187500.0, 849.6568619795873, -27197.356784028627, 0.758, -0.5720000000000001, 0.426, 192.0, 0.0, 0.0, 0.0, 0.0, 0.0, 0.0, 0.0, 0.0, 0.0, 1.6635878716290283E9, 0.0, 2022-09-19 16:44:31.629
69.0, -13606.557381934808, -12018.510641874152, -20695.010804535246, -17315.00235974817, 187500.0, 187500.0, 864.0513854088051, -27195.94862412794, 0.758, -0.5720000000000001, 0.426, 192.0, 0.0, 0.0, 0.0, 0.0, 0.0, 0.0, 0.0, 0.0, 0.0, 1.6635878716330533E9, 0.0, 2022-09-19 16:44:31.633
70.0, -13605.17157377858, -12000.293970143077, -20689.109943999047, -17309.392071889888, 187500.0, 187500.0, 832.4236670045457, -27188.259624035316, 0.758, -0.5720000000000001, 0.426, 192.0, 0.0, 0.0, 0.0, 0.0, 0.0, 0.0, 0.0, 0.0, 0.0, 1.6635878716370685E9, 0.0, 2022-09-19 16:44:31.637
71.0, -13608.010245324404, -12020.790519808594, -20690.09342075508, -17308.3862433894, 187500.0, 187500.0, 808.2167277594481, -27187.47731297938, 0.758, -0.5720000000000001, 0.426, 192.0, 0.0, 0.0, 0.0, 0.0, 0.0, 0.0, 0.0, 0.0, 0.0, 1.6635878716410632E9, 0.0, 2022-09-19 16:44:31.641
72.0, -13612.704111660018, -12041.868214829949, -20701.693976127386, -17317.058720238056, 187500.0, 187500.0, 810.3848469716129, -27199.211978818417, 0.758, -0.5720000000000001, 0.426, 192.0, 0.0, 0.0, 0.0, 0.0, 0.0, 0.0, 0.0, 0.0, 0.0, 1.663587871645058E9, 0.0, 2022-09-19 16:44:31.645
73.0, -13618.40380649612, -12040.415351440353, -20702.856266839062, -17319.942095272792, 187500.0, 187500.0, 839.1738938300483, -27198.85435090713, 0.758, -0.5720000000000001, 0.426, 192.0, 0.0, 0.0, 0.0, 0.0, 0.0, 0.0, 0.0, 0.0, 0.0, 1.663587871649117E9, 0.0, 2022-09-19 16:44:31.649
74.0, -13597.370814963677, -11997.812926508537, -20691.85920856705, -17311.29197016859, 187500.0, 187500.0, 860.7433272294197, -27194.451057249436, 0.758, -0.5720000000000001, 0.426, 192.0, 0.0, 0.0, 0.0, 0.0, 0.0, 0.0, 0.0, 0.0, 0.0, 1.6635878716521122E9, 0.0, 2022-09-19 16:44:31.652
75.0, -13601.081204543258, -12003.602028322463, -20690.60751087755, -17309.392071889888, 187500.0, 187500.0, 828.8920913806071, -27195.211016560916, 0.756, -0.5680000000000001, 0.426, 192.0, 23.0, 160.0, 238.0, 64.0, 13.0, 80.0, 0.0, 0.0, 0.0, 1.6635878716571832E9, 0.0, 2022-09-19 16:44:31.657
76.0, -13608.703149402518, -11993.856667739949, -20685.444257908377, -17306.553400344063, 187500.0, 187500.0, 804.1263585241269, -27191.165350814506, 0.756, -0.5680000000000001, 0.426, 192.0, 0.0, 0.0, 0.0, 0.0, 0.0, 0.0, 0.0, 0.0, 0.0, 1.6635878716611483E9, 0.0, 2022-09-19 16:44:31.661
77.0, -13575.801381564306, -11977.674004754306, -20680.77274331722, -17308.587409089498, 187500.0, 187500.0, 808.9990388153839, -27193.04289734875, 0.756, -0.5680000000000001, 0.426, 192.0, 0.0, 0.0, 0.0, 0.0, 0.0, 0.0, 0.0, 0.0, 0.0, 1.6635878716651473E9, 0.0, 2022-09-19 16:44:31.665
78.0, -13569.721707072462, -12000.517487587631, -20687.90294979846, -17311.89546726888, 187500.0, 187500.0, 837.2069403179813, -27185.532711211767, 0.756, -0.5680000000000001, 0.426, 192.0, 0.0, 0.0, 0.0, 0.0, 0.0, 0.0, 0.0, 0.0, 0.0, 1.6635878716691363E9, 0.0, 2022-09-19 16:44:31.669
79.0, -13579.109439743692, -12016.141356961889, -20693.24501672328, -17313.862420780948, 187500.0, 187500.0, 851.1097253691823, -27190.539501969757, 0.756, -0.5680000000000001, 0.426, 192.0, 0.0, 0.0, 0.0, 0.0, 0.0, 0.0, 0.0, 0.0, 0.0, 1.6635878716731172E9, 0.0, 2022-09-19 16:44:31.673
80.0, -13595.381509707155, -12018.577697107517, -20692.172132989424, -17313.48244112521, 187500.0, 187500.0, 816.7550941413754, -27194.875740394087, 0.756, -0.5680000000000001, 0.426, 192.0, 0.0, 0.0, 0.0, 0.0, 0.0, 0.0, 0.0, 0.0, 0.0, 1.6635878716771047E9, 0.0, 2022-09-19 16:44:31.677
81.0, -13584.07152701277, -11984.312472857533, -20684.885464296993, -17302.306568897555, 187500.0, 187500.0, 799.4324921885124, -27186.29267052325, 0.756, -0.5680000000000001, 0.426, 192.0, 0.0, 0.0, 0.0, 0.0, 0.0, 0.0, 0.0, 0.0, 0.0, 1.6635878716801164E9, 0.0, 2022-09-19 16:44:31.680
82.0, -13567.665346582575, -11975.438830308776, -20679.252824694257, -17295.60104556096, 187500.0, 187500.0, 810.250736504881, -27176.79317912974, 0.756, -0.5680000000000001, 0.426, 192.0, 0.0, 0.0, 0.0, 0.0, 0.0, 0.0, 0.0, 0.0, 0.0, 1.663587871684134E9, 0.0, 2022-09-19 16:44:31.684
83.0, -13584.607968879696, -12015.604915094962, -20688.797019576672, -17309.101499211967, 187500.0, 187500.0, 838.9727281299506, -27188.460789735414, 0.756, -0.5680000000000001, 0.426, 192.0, 0.0, 0.0, 0.0, 0.0, 0.0, 0.0, 0.0, 0.0, 0.0, 1.663587871689162E9, 0.0, 2022-09-19 16:44:31.689
84.0, -13609.105480802713, -12035.09563625999, -20697.80477259216, -17319.360949916954, 187500.0, 187500.0, 854.9542254154951, -27199.279034051782, 0.756, -0.5680000000000001, 0.426, 192.0, 0.0, 0.0, 0.0, 0.0, 0.0, 0.0, 0.0, 0.0, 0.0, 1.6635878716931581E9, 0.0, 2022-09-19 16:44:31.693
85.0, -13605.2609807564, -12007.84885976897, -20687.925301542917, -17309.168554445336, 187500.0, 187500.0, 827.8862628801182, -27189.265452535805, 0.758, -0.5740000000000001, 0.428, 192.0, 23.0, 176.0, 238.0, 16.0, 13.0, 96.0, 0.0, 0.0, 0.0, 1.6635878716971836E9, 0.0, 2022-09-19 16:44:31.697
86.0, -13597.482573685953, -12014.308513916554, -20684.66194685244, -17310.442603879288, 187500.0, 187500.0, 804.5286899243224, -27188.14786531304, 0.758, -0.5740000000000001, 0.428, 192.0, 0.0, 0.0, 0.0, 0.0, 0.0, 0.0, 0.0, 0.0, 0.0, 1.6635878717011943E9, 0.0, 2022-09-19 16:44:31.701
87.0, -13588.608931137196, -12028.52422339013, -20686.651252108964, -17311.560191102053, 187500.0, 187500.0, 808.8202248597414, -27190.740667669856, 0.758, -0.5740000000000001, 0.428, 192.0, 0.0, 0.0, 0.0, 0.0, 0.0, 0.0, 0.0, 0.0, 0.0, 1.6635878717051685E9, 0.0, 2022-09-19 16:44:31.705
88.0, -13577.634224609641, -12015.224935439222, -20691.836856822596, -17313.61655159194, 187500.0, 187500.0, 841.2302543199366, -27195.501589238836, 0.758, -0.5740000000000001, 0.428, 192.0, 0.0, 0.0, 0.0, 0.0, 0.0, 0.0, 0.0, 0.0, 0.0, 1.6635878717081604E9, 0.0, 2022-09-19 16:44:31.708
89.0, -13572.515675129376, -12001.344502132477, -20690.942787044383, -17314.57767660352, 187500.0, 187500.0, 861.9056179410957, -27199.770772429798, 0.758, -0.5740000000000001, 0.428, 192.0, 0.0, 0.0, 0.0, 0.0, 0.0, 0.0, 0.0, 0.0, 0.0, 1.6635878717121549E9, 0.0, 2022-09-19 16:44:31.712
90.0, -13577.097782742714, -12001.411557365842, -20686.740659086783, -17307.782746289104, 187500.0, 187500.0, 830.5908239592104, -27188.57254845769, 0.758, -0.5740000000000001, 0.428, 192.0, 0.0, 0.0, 0.0, 0.0, 0.0, 0.0, 0.0, 0.0, 0.0, 1.6635878717172513E9, 0.0, 2022-09-19 16:44:31.717
91.0, -13570.660480339586, -11988.782821748593, -20678.805789805152, -17300.00433921866, 187500.0, 187500.0, 805.0204283023392, -27182.20230128793, 0.758, -0.5740000000000001, 0.428, 192.0, 0.0, 0.0, 0.0, 0.0, 0.0, 0.0, 0.0, 0.0, 0.0, 1.663587871721178E9, 0.0, 2022-09-19 16:44:31.721
92.0, -13566.681869826542, -11989.431022337798, -20684.05844975215, -17298.350310128964, 187500.0, 187500.0, 811.2342132609145, -27173.28395525026, 0.758, -0.5740000000000001, 0.428, 192.0, 0.0, 0.0, 0.0, 0.0, 0.0, 0.0, 0.0, 0.0, 0.0, 1.6635878717252395E9, 0.0, 2022-09-19 16:44:31.725
93.0, -13563.619680836164, -11991.822658994515, -20689.892255054983, -17303.334749142497, 187500.0, 187500.0, 841.5208269978556, -27181.934080354462, 0.758, -0.5740000000000001, 0.428, 192.0, 0.0, 0.0, 0.0, 0.0, 0.0, 0.0, 0.0, 0.0, 0.0, 1.663587871728268E9, 0.0, 2022-09-19 16:44:31.728
94.0, -13575.466105397476, -12013.347388904976, -20691.367470189034, -17308.56505734504, 187500.0, 187500.0, 858.8881324396292, -27188.34903101314, 0.758, -0.5740000000000001, 0.428, 192.0, 0.0, 0.0, 0.0, 0.0, 0.0, 0.0, 0.0, 0.0, 0.0, 1.6635878717322168E9, 0.0, 2022-09-19 16:44:31.732
95.0, -13596.856724841206, -12019.739987819194, -20694.29554871268, -17312.700130069272, 187500.0, 187500.0, 827.0816000797272, -27192.48410373737, 0.752, -0.5640000000000001, 0.422, 192.0, 23.0, 128.0, 238.0, 96.0, 13.0, 48.0, 0.0, 0.0, 0.0, 1.6635878717362168E9, 0.0, 2022-09-19 16:44:31.736
96.0, -13597.370814963677, -12017.683627329307, -20691.635691122498, -17319.271542939132, 187500.0, 187500.0, 805.4004079580794, -27198.474371251392, 0.752, -0.5640000000000001, 0.422, 192.0, 0.0, 0.0, 0.0, 0.0, 0.0, 0.0, 0.0, 0.0, 0.0, 1.66358787174221E9, 0.0, 2022-09-19 16:44:31.742
97.0, -13586.597274136218, -12038.180176994823, -20689.489923654786, -17322.065510996046, 187500.0, 187500.0, 814.1399400401044, -27196.172141572493, 0.752, -0.5640000000000001, 0.422, 192.0, 0.0, 0.0, 0.0, 0.0, 0.0, 0.0, 0.0, 0.0, 0.0, 1.6635878717451952E9, 0.0, 2022-09-19 16:44:31.745
98.0, -13579.332957188244, -12028.054836756568, -20692.2838917117, -17323.294856941087, 187500.0, 187500.0, 846.2593968223807, -27195.389830516557, 0.752, -0.5640000000000001, 0.422, 192.0, 0.0, 0.0, 0.0, 0.0, 0.0, 0.0, 0.0, 0.0, 0.0, 1.6635878717502346E9, 0.0, 2022-09-19 16:44:31.750
99.0, -13591.40289919411, -12013.079167971513, -20696.75424060276, -17323.63013310792, 187500.0, 187500.0, 866.2418563654252, -27194.384002016068, 0.752, -0.5640000000000001, 0.422, 192.0, 0.0, 0.0, 0.0, 0.0, 0.0, 0.0, 0.0, 0.0, 0.0, 1.663587871754217E9, 0.0, 2022-09-19 16:44:31.754
100.0, -13594.554495162309, -12025.104406488468, -20687.925301542917, -17311.80606029106, 187500.0, 187500.0, 835.4858559949226, -27184.325717011183, 0.752, -0.5640000000000001, 0.422, 192.0, 0.0, 0.0, 0.0, 0.0, 0.0, 0.0, 0.0, 0.0, 0.0, 1.663587871758288E9, 0.0, 2022-09-19 16:44:31.758
101.0, -13590.039442782336, -12024.85853729946, -20690.24988296627, -17312.409557391355, 187500.0, 187500.0, 811.7035998944759, -27187.34320251265, 0.752, -0.5640000000000001, 0.422, 192.0, 0.0, 0.0, 0.0, 0.0, 0.0, 0.0, 0.0, 0.0, 0.0, 1.6635878717612867E9, 0.0, 2022-09-19 16:44:31.761
102.0, -13588.698338115018, -12001.478612599209, -20696.19544699138, -17319.316246428043, 187500.0, 187500.0, 815.7045621519759, -27194.406353760525, 0.752, -0.5640000000000001, 0.422, 192.0, 0.0, 0.0, 0.0, 0.0, 0.0, 0.0, 0.0, 0.0, 0.0, 1.6635878717643423E9, 0.0, 2022-09-19 16:44:31.764
103.0, -13590.039442782336, -12011.067510970535, -20693.870865568028, -17317.595162104986, 187500.0, 187500.0, 846.6617282225762, -27194.00402236033, 0.752, -0.5640000000000001, 0.422, 192.0, 0.0, 0.0, 0.0, 0.0, 0.0, 0.0, 0.0, 0.0, 0.0, 1.6635878717682693E9, 0.0, 2022-09-19 16:44:31.768
104.0, -13595.515620173886, -12002.23857191069, -20697.983586547805, -17319.51741212814, 187500.0, 187500.0, 864.8113447202855, -27200.798952674744, 0.752, -0.5640000000000001, 0.422, 192.0, 0.0, 0.0, 0.0, 0.0, 0.0, 0.0, 0.0, 0.0, 0.0, 1.6635878717732863E9, 0.0, 2022-09-19 16:44:31.773
105.0, -13585.680852613552, -11992.783784006095, -20691.143952744478, -17314.935304514802, 187500.0, 187500.0, 831.5966524596993, -27197.33443228417, 0.75, -0.5660000000000001, 0.422, 192.0, 23.0, 112.0, 238.0, 80.0, 13.0, 48.0, 0.0, 0.0, 0.0, 1.6635878717772577E9, 0.0, 2022-09-19 16:44:31.777
106.0, -13580.629358366652, -11997.388243363886, -20684.259615452243, -17312.27544692462, 187500.0, 187500.0, 806.4062364585682, -27196.507417739325, 0.75, -0.5660000000000001, 0.422, 192.0, 0.0, 0.0, 0.0, 0.0, 0.0, 0.0, 0.0, 0.0, 0.0, 1.663587871781402E9, 0.0, 2022-09-19 16:44:31.781
107.0, -13577.142486231623, -12006.23953416819, -20683.65611835195, -17311.18021144631, 187500.0, 187500.0, 811.7706551278419, -27196.239196805862, 0.75, -0.5660000000000001, 0.422, 192.0, 0.0, 0.0, 0.0, 0.0, 0.0, 0.0, 0.0, 0.0, 0.0, 1.6635878717842696E9, 0.0, 2022-09-19 16:44:31.784
108.0, -13565.988965748425, -11999.221086409223, -20689.109943999047, -17313.348330658475, 187500.0, 187500.0, 839.9562048859841, -27200.150752085538, 0.75, -0.5660000000000001, 0.422, 192.0, 0.0, 0.0, 0.0, 0.0, 0.0, 0.0, 0.0, 0.0, 0.0, 1.6635878717883172E9, 0.0, 2022-09-19 16:44:31.788
109.0, -13573.700317585508, -12003.982007978202, -20697.491848169786, -17320.299723184078, 187500.0, 187500.0, 857.7258417279533, -27212.37715630259, 0.75, -0.5660000000000001, 0.422, 192.0, 0.0, 0.0, 0.0, 0.0, 0.0, 0.0, 0.0, 0.0, 0.0, 1.6635878717922845E9, 0.0, 2022-09-19 16:44:31.792
110.0, -13582.953939790004, -11993.767260762128, -20688.39468817648, -17312.923647513824, 187500.0, 187500.0, 828.7132774249646, -27188.99723160234, 0.75, -0.5660000000000001, 0.422, 192.0, 0.0, 0.0, 0.0, 0.0, 0.0, 0.0, 0.0, 0.0, 0.0, 1.6635878717963328E9, 0.0, 2022-09-19 16:44:31.796
111.0, -13580.741117088928, -11999.064624198036, -20690.205179477358, -17318.064548738545, 187500.0, 187500.0, 799.8348235887079, -27191.880606637074, 0.75, -0.5660000000000001, 0.422, 192.0, 0.0, 0.0, 0.0, 0.0, 0.0, 0.0, 0.0, 0.0, 0.0, 1.6635878718003204E9, 0.0, 2022-09-19 16:44:31.800
112.0, -13580.271730455368, -12013.101519715969, -20692.730926600805, -17321.2384964512, 187500.0, 187500.0, 801.6453148895878, -27196.172141572493, 0.75, -0.5660000000000001, 0.422, 192.0, 0.0, 0.0, 0.0, 0.0, 0.0, 0.0, 0.0, 0.0, 0.0, 1.6635878718053267E9, 0.0, 2022-09-19 16:44:31.805
113.0, -13581.746945589417, -12030.04414201309, -20690.316938199634, -17325.351217430976, 187500.0, 187500.0, 827.796855902297, -27198.943757884954, 0.75, -0.5660000000000001, 0.422, 192.0, 0.0, 0.0, 0.0, 0.0, 0.0, 0.0, 0.0, 0.0, 0.0, 1.6635878718093288E9, 0.0, 2022-09-19 16:44:31.809
114.0, -13585.144410746625, -12040.348296206987, -20697.469496425332, -17328.1898889768, 187500.0, 187500.0, 841.9678618869617, -27205.984557388372, 0.75, -0.5660000000000001, 0.422, 192.0, 0.0, 0.0, 0.0, 0.0, 0.0, 0.0, 0.0, 0.0, 0.0, 1.6635878718122993E9, 0.0, 2022-09-19 16:44:31.812
115.0, -13589.078317770758, -12031.117025746946, -20694.183789990402, -17324.300685441576, 187500.0, 187500.0, 809.960163826962, -27204.53169399878, 0.75, -0.5660000000000001, 0.422, 192.0, 0.0, 0.0, 0.0, 0.0, 0.0, 0.0, 0.0, 0.0, 0.0, 1.6635878718173716E9, 0.0, 2022-09-19 16:44:31.817
116.0, -13589.12302125967, -12010.03933072559, -20690.80867657765, -17321.57377261803, 187500.0, 187500.0, 779.5841431121997, -27205.783391688277, 0.756, -0.5640000000000001, 0.424, 192.0, 23.0, 160.0, 238.0, 96.0, 13.0, 64.0, 0.0, 0.0, 0.0, 1.6635878718203936E9, 0.0, 2022-09-19 16:44:31.820
117.0, -13596.364986463188, -12038.224880483733, -20693.84851382357, -17327.608743620964, 187500.0, 187500.0, 773.9515035094623, -27210.030223134785, 0.756, -0.5640000000000001, 0.424, 192.0, 0.0, 0.0, 0.0, 0.0, 0.0, 0.0, 0.0, 0.0, 0.0, 1.6635878718244295E9, 0.0, 2022-09-19 16:44:31.824
118.0, -13595.269750984879, -12041.421179940842, -20700.419926693434, -17334.224859979735, 187500.0, 187500.0, 799.9912857998951, -27216.57928426019, 0.756, -0.5640000000000001, 0.424, 192.0, 0.0, 0.0, 0.0, 0.0, 0.0, 0.0, 0.0, 0.0, 0.0, 1.663587871830473E9, 0.0, 2022-09-19 16:44:31.830
119.0, -13585.524390402365, -12008.541763847084, -20699.391746448488, -17330.96150528926, 187500.0, 187500.0, 818.4985302088893, -27217.696871482956, 0.756, -0.5640000000000001, 0.424, 192.0, 0.0, 0.0, 0.0, 0.0, 0.0, 0.0, 0.0, 0.0, 0.0, 1.6635878718333905E9, 0.0, 2022-09-19 16:44:31.833
120.0, -13586.507867158398, -12002.596199821974, -20692.976795789815, -17325.91001104236, 187500.0, 187500.0, 789.6647798615433, -27206.409240533027, 0.756, -0.5640000000000001, 0.424, 192.0, 0.0, 0.0, 0.0, 0.0, 0.0, 0.0, 0.0, 0.0, 0.0, 1.6635878718385444E9, 0.0, 2022-09-19 16:44:31.838
121.0, -13587.200771236512, -12012.363912148943, -20689.914606799437, -17328.34635118799, 187500.0, 187500.0, 759.7134422914318, -27206.073964366195, 0.756, -0.5640000000000001, 0.424, 192.0, 0.0, 0.0, 0.0, 0.0, 0.0, 0.0, 0.0, 0.0, 0.0, 1.6635878718414273E9, 0.0, 2022-09-19 16:44:31.841
122.0, -13590.620588138174, -12034.738008348706, -20688.864074810037, -17332.1908512343, 187500.0, 187500.0, 760.9874917253843, -27205.783391688277, 0.756, -0.5640000000000001, 0.424, 192.0, 0.0, 0.0, 0.0, 0.0, 0.0, 0.0, 0.0, 0.0, 0.0, 1.663587871845436E9, 0.0, 2022-09-19 16:44:31.845
123.0, -13592.632245139152, -12022.66806634284, -20693.24501672328, -17337.37645594793, 187500.0, 187500.0, 786.8037565712639, -27212.891246425064, 0.756, -0.5640000000000001, 0.424, 192.0, 0.0, 0.0, 0.0, 0.0, 0.0, 0.0, 0.0, 0.0, 0.0, 1.663587871848402E9, 0.0, 2022-09-19 16:44:31.848
124.0, -13587.245474725423, -11998.058795697547, -20694.452010923866, -17333.934287301814, 187500.0, 187500.0, 803.4558061904677, -27203.436458520468, 0.756, -0.5640000000000001, 0.424, 192.0, 0.0, 0.0, 0.0, 0.0, 0.0, 0.0, 0.0, 0.0, 0.0, 1.6635878718524237E9, 0.0, 2022-09-19 16:44:31.852
125.0, -13585.613797380185, -11997.455298597253, -20690.98749053329, -17333.375493690433, 187500.0, 187500.0, 766.9554074949513, -27209.158505101026, 0.756, -0.5640000000000001, 0.424, 192.0, 0.0, 0.0, 0.0, 0.0, 0.0, 0.0, 0.0, 0.0, 0.0, 1.663587871856496E9, 0.0, 2022-09-19 16:44:31.856
126.0, -13602.958751077504, -12026.937249533803, -20697.558903403155, -17339.075188526534, 187500.0, 187500.0, 731.3937820665577, -27210.76783070181, 0.754, -0.5640000000000001, 0.422, 192.0, 23.0, 144.0, 238.0, 96.0, 13.0, 48.0, 0.0, 0.0, 0.0, 1.6635878718604016E9, 0.0, 2022-09-19 16:44:31.860
127.0, -13624.751701921428, -12062.364764495465, -20708.95829307536, -17349.066418298058, 187500.0, 187500.0, 726.5881570086667, -27217.406298805035, 0.754, -0.5640000000000001, 0.422, 192.0, 0.0, 0.0, 0.0, 0.0, 0.0, 0.0, 0.0, 0.0, 0.0, 1.6635878718654132E9, 0.0, 2022-09-19 16:44:31.865
128.0, -13617.59914369573, -12037.487272916707, -20713.696862899884, -17350.00519156518, 187500.0, 187500.0, 751.8903317320743, -27216.646339493556, 0.754, -0.5640000000000001, 0.422, 192.0, 0.0, 0.0, 0.0, 0.0, 0.0, 0.0, 0.0, 0.0, 0.0, 1.663587871868405E9, 0.0, 2022-09-19 16:44:31.868
129.0, -13612.726463404473, -12019.672932585829, -20714.09919430008, -17347.121816530445, 187500.0, 187500.0, 772.7668610533311, -27215.931083670985, 0.754, -0.5640000000000001, 0.422, 192.0, 0.0, 0.0, 0.0, 0.0, 0.0, 0.0, 0.0, 0.0, 0.0, 1.66358787187251E9, 0.0, 2022-09-19 16:44:31.872
130.0, -13626.673951944585, -12040.23653748471, -20713.786269877706, -17346.33950547451, 187500.0, 187500.0, 738.255767614337, -27213.494743525356, 0.754, -0.5640000000000001, 0.422, 192.0, 0.0, 0.0, 0.0, 0.0, 0.0, 0.0, 0.0, 0.0, 0.0, 1.6635878718764212E9, 0.0, 2022-09-19 16:44:31.876
131.0, -13615.095748316735, -12036.347333949487, -20711.260522754255, -17343.97022056225, 187500.0, 187500.0, 711.4783777568791, -27210.566665001712, 0.754, -0.5640000000000001, 0.422, 192.0, 0.0, 0.0, 0.0, 0.0, 0.0, 0.0, 0.0, 0.0, 0.0, 1.6635878718805585E9, 0.0, 2022-09-19 16:44:31.880
132.0, -13589.860628826695, -12005.345464389977, -20703.32565347262, -17335.990647791703, 187500.0, 187500.0, 715.8816714145746, -27204.799914932242, 0.754, -0.5640000000000001, 0.422, 192.0, 0.0, 0.0, 0.0, 0.0, 0.0, 0.0, 0.0, 0.0, 0.0, 1.6635878718845065E9, 0.0, 2022-09-19 16:44:31.884
133.0, -13570.660480339586, -12003.534973089096, -20703.213894750344, -17337.935249559316, 187500.0, 187500.0, 740.2674246153146, -27211.125458613096, 0.754, -0.5640000000000001, 0.422, 192.0, 0.0, 0.0, 0.0, 0.0, 0.0, 0.0, 0.0, 0.0, 0.0, 1.6635878718895776E9, 0.0, 2022-09-19 16:44:31.889
134.0, -13561.608023835186, -12003.266752155632, -20697.737717358796, -17342.696171128293, 187500.0, 187500.0, 760.7192707919206, -27213.00300514734, 0.754, -0.5640000000000001, 0.422, 192.0, 0.0, 0.0, 0.0, 0.0, 0.0, 0.0, 0.0, 0.0, 0.0, 1.6635878718925107E9, 0.0, 2022-09-19 16:44:31.892
135.0, -13568.224140193957, -11991.50973457214, -20695.591949891084, -17340.282182727122, 187500.0, 187500.0, 730.7902849662644, -27205.96220564392, 0.754, -0.5640000000000001, 0.422, 192.0, 0.0, 0.0, 0.0, 0.0, 0.0, 0.0, 0.0, 0.0, 0.0, 1.6635878718975737E9, 0.0, 2022-09-19 16:44:31.897
136.0, -13571.621605351163, -12022.936287276303, -20697.76006910325, -17344.48431068472, 187500.0, 187500.0, 701.5765549631781, -27213.38298480308, 0.75, -0.5680000000000001, 0.42, 192.0, 23.0, 112.0, 238.0, 64.0, 13.0, 32.0, 0.0, 0.0, 0.0, 1.66358787190154E9, 0.0, 2022-09-19 16:44:31.901
137.0, -13570.168741961568, -12036.123816504934, -20701.157534260456, -17348.57467992004, 187500.0, 187500.0, 703.4988049863344, -27215.90873192653, 0.75, -0.5680000000000001, 0.42, 192.0, 0.0, 0.0, 0.0, 0.0, 0.0, 0.0, 0.0, 0.0, 0.0, 1.6635878719046233E9, 0.0, 2022-09-19 16:44:31.904
138.0, -13570.816942550773, -12012.654484826862, -20705.091441284592, -17349.0440665536, 187500.0, 187500.0, 729.5609390212226, -27217.607464505134, 0.75, -0.5680000000000001, 0.42, 192.0, 0.0, 0.0, 0.0, 0.0, 0.0, 0.0, 0.0, 0.0, 0.0, 1.6635878719104795E9, 0.0, 2022-09-19 16:44:31.910
139.0, -13578.863570554682, -12003.289103900088, -20709.025348308725, -17349.200528764788, 187500.0, 187500.0, 746.8388374851748, -27224.201229119448, 0.75, -0.5680000000000001, 0.42, 192.0, 0.0, 0.0, 0.0, 0.0, 0.0, 0.0, 0.0, 0.0, 0.0, 1.663587871913607E9, 0.0, 2022-09-19 16:44:31.913
140.0, -13604.009283066904, -12036.347333949487, -20712.266351254744, -17350.407522965375, 187500.0, 187500.0, 711.9254126459853, -27225.51998204231, 0.75, -0.5680000000000001, 0.42, 192.0, 0.0, 0.0, 0.0, 0.0, 0.0, 0.0, 0.0, 0.0, 0.0, 1.6635878719165072E9, 0.0, 2022-09-19 16:44:31.916
141.0, -13599.49423068693, -12024.81383381055, -20701.47045868283, -17336.437682680807, 187500.0, 187500.0, 687.3608454896028, -27204.28582480977, 0.75, -0.5680000000000001, 0.42, 192.0, 0.0, 0.0, 0.0, 0.0, 0.0, 0.0, 0.0, 0.0, 0.0, 1.663587871920632E9, 0.0, 2022-09-19 16:44:31.920
142.0, -13585.859666569195, -12000.003397465158, -20700.03994703769, -17331.922630300836, 187500.0, 187500.0, 691.1829937914603, -27202.497685253347, 0.75, -0.5680000000000001, 0.42, 192.0, 0.0, 0.0, 0.0, 0.0, 0.0, 0.0, 0.0, 0.0, 0.0, 1.663587871923543E9, 0.0, 2022-09-19 16:44:31.923
143.0, -13590.464125926987, -12018.577697107517, -20705.650234895973, -17337.599973392484, 187500.0, 187500.0, 719.6591162275215, -27209.449077778947, 0.75, -0.5680000000000001, 0.42, 192.0, 0.0, 0.0, 0.0, 0.0, 0.0, 0.0, 0.0, 0.0, 0.0, 1.6635878719285643E9, 0.0, 2022-09-19 16:44:31.928
144.0, -13606.423271468077, -12031.407598424865, -20710.701729142875, -17339.56692690455, 187500.0, 187500.0, 741.966157193918, -27217.071022638207, 0.75, -0.5680000000000001, 0.42, 192.0, 0.0, 0.0, 0.0, 0.0, 0.0, 0.0, 0.0, 0.0, 0.0, 1.6635878719326057E9, 0.0, 2022-09-19 16:44:31.932
145.0, -13605.193925523035, -12009.569944092029, -20698.47532492582, -17325.887659297903, 187500.0, 187500.0, 719.2344330828706, -27199.033164862773, 0.75, -0.5680000000000001, 0.42, 192.0, 0.0, 0.0, 0.0, 0.0, 0.0, 0.0, 0.0, 0.0, 0.0, 1.6635878719366004E9, 0.0, 2022-09-19 16:44:31.936
146.0, -13585.92672180256, -11988.447545581765, -20690.696917855374, -17321.95375227377, 187500.0, 187500.0, 695.2957147712368, -27196.641528206055, 0.752, -0.5720000000000001, 0.418, 192.0, 23.0, 128.0, 238.0, 32.0, 13.0, 16.0, 0.0, 0.0, 0.0, 1.6635878719406168E9, 0.0, 2022-09-19 16:44:31.940
147.0, -13587.491343914431, -12013.906182516359, -20699.503505170764, -17333.599011134986, 187500.0, 187500.0, 695.2510112823262, -27208.219731833906, 0.752, -0.5720000000000001, 0.418, 192.0, 0.0, 0.0, 0.0, 0.0, 0.0, 0.0, 0.0, 0.0, 0.0, 1.6635878719455771E9, 0.0, 2022-09-19 16:44:31.945
148.0, -13594.398032951121, -12048.350220721988, -20703.39270870599, -17343.165557761855, 187500.0, 187500.0, 721.3131453172142, -27215.506400526334, 0.752, -0.5720000000000001, 0.418, 192.0, 0.0, 0.0, 0.0, 0.0, 0.0, 0.0, 0.0, 0.0, 0.0, 1.6635878719485989E9, 0.0, 2022-09-19 16:44:31.948
