%OpenBCI Raw EEG Data
%Number of channels = 8
%Sample Rate = 250 Hz
%Board = OpenBCI_GUI$BoardCytonSerial
Sample Index, EXG Channel 0, EXG Channel 1, EXG Channel 2, EXG Channel 3, EXG Channel 4, EXG Channel 5, EXG Channel 6, EXG Channel 7, Accel Channel 0, Accel Channel 1, Accel Channel 2, Other, Other, Other, Other, Other, Other, Other, Analog Channel 0, Analog Channel 1, Analog Channel 2, Timestamp, Other, Timestamp (Formatted)
5.0, 23823.33860675557, 51163.165409942325, 17033.79506275595, 134068.8924871555, 187500.0, 187500.0, 6654.963690634214, 20382.17578913877, 0.0, 0.0, 0.0, 192.0, 0.0, 0.0, 0.0, 0.0, 0.0, 0.0, 0.0, 0.0, 0.0, 1.6635890151215281E9, 0.0, 2022-09-19 17:03:35.121
6.0, 23814.688481651367, 51140.03135443108, 17033.12451042229, 134043.56796068765, 187500.0, 187500.0, 6625.749960631128, 20390.848265987428, 0.0, 0.0, 0.0, 192.0, 0.0, 0.0, 0.0, 0.0, 0.0, 0.0, 0.0, 0.0, 0.0, 1.6635890151215563E9, 0.0, 2022-09-19 17:03:35.121
7.0, 23824.76911840071, 51122.485235033666, 17032.677475533186, 134027.05002153516, 187500.0, 187500.0, 6626.286402498055, 20392.36818461039, 0.0, 0.0, 0.0, 192.0, 0.0, 0.0, 0.0, 0.0, 0.0, 0.0, 0.0, 0.0, 0.0, 1.6635890151215713E9, 0.0, 2022-09-19 17:03:35.121
0.0, 0.0, 0.0, 0.0, 0.0, 0.0, 0.0, 0.0, 0.0, 0.62, -0.654, 0.47000000000000003, 192.0, 19.0, 96.0, 235.0, 144.0, 14.0, 176.0, 0.0, 0.0, 0.0, 1.6635890151816196E9, 0.0, 2022-09-19 17:03:35.181
1.0, 23736.010341168683, 58175.08645952779, 14993.080793986415, 135390.19350888653, 187500.0, 187500.0, 6686.904333460848, 20291.11478222785, 0.62, -0.654, 0.47000000000000003, 192.0, 0.0, 0.0, 0.0, 0.0, 0.0, 0.0, 0.0, 0.0, 0.0, 1.6635890151975455E9, 0.0, 2022-09-19 17:03:35.197
2.0, 23740.212469126283, 58190.10683180176, 14994.645416098288, 135419.02725923387, 187500.0, 187500.0, 6706.663275559339, 20297.68619509771, 0.62, -0.654, 0.47000000000000003, 192.0, 0.0, 0.0, 0.0, 0.0, 0.0, 0.0, 0.0, 0.0, 0.0, 1.6635890152006097E9, 0.0, 2022-09-19 17:03:35.200
3.0, 23739.988951681727, 58220.54990774988, 15000.658035356766, 135461.6296841657, 187500.0, 187500.0, 6725.058761246057, 20312.058366782472, 0.62, -0.654, 0.47000000000000003, 192.0, 0.0, 0.0, 0.0, 0.0, 0.0, 0.0, 0.0, 0.0, 0.0, 1.6635890152046072E9, 0.0, 2022-09-19 17:03:35.204
4.0, 23732.41171031138, 58216.14661409219, 15002.937913291207, 135466.16708829012, 187500.0, 187500.0, 6705.478633103208, 20297.373270675336, 0.62, -0.654, 0.47000000000000003, 192.0, 0.0, 0.0, 0.0, 0.0, 0.0, 0.0, 0.0, 0.0, 0.0, 1.663589015207621E9, 0.0, 2022-09-19 17:03:35.207
5.0, 23723.47101252926, 58184.205971265554, 14999.115764989348, 135449.470335182, 187500.0, 187500.0, 6687.619589283418, 20283.87281702433, 0.62, -0.654, 0.47000000000000003, 192.0, 0.0, 0.0, 0.0, 0.0, 0.0, 0.0, 0.0, 0.0, 0.0, 1.6635890152116144E9, 0.0, 2022-09-19 17:03:35.211
6.0, 23709.41176526687, 58173.231264738, 14996.031224254517, 135451.3702334607, 187500.0, 187500.0, 6692.46991783022, 20282.35289840137, 0.62, -0.654, 0.47000000000000003, 192.0, 0.0, 0.0, 0.0, 0.0, 0.0, 0.0, 0.0, 0.0, 0.0, 1.6635890152156537E9, 0.0, 2022-09-19 17:03:35.215
7.0, 23725.639131741424, 58182.887218342694, 15004.077852258428, 135472.78320464888, 187500.0, 187500.0, 6714.531089607607, 20293.417011906746, 0.62, -0.654, 0.47000000000000003, 192.0, 0.0, 0.0, 0.0, 0.0, 0.0, 0.0, 0.0, 0.0, 0.0, 1.6635890152207172E9, 0.0, 2022-09-19 17:03:35.220
8.0, 23733.730463234242, 58201.841497640795, 14995.517134132044, 135502.22045209652, 187500.0, 187500.0, 6722.398903655876, 20289.036069993504, 0.61, -0.664, 0.484, 192.0, 19.0, 16.0, 235.0, 64.0, 15.0, 32.0, 0.0, 0.0, 0.0, 1.6635890152246974E9, 0.0, 2022-09-19 17:03:35.224
9.0, 23732.88109694494, 58200.433337740105, 14997.215866710649, 135516.23499587, 187500.0, 187500.0, 6707.356179637454, 20295.11574448535, 0.61, -0.664, 0.484, 192.0, 0.0, 0.0, 0.0, 0.0, 0.0, 0.0, 0.0, 0.0, 0.0, 1.663589015227758E9, 0.0, 2022-09-19 17:03:35.227
10.0, 23733.46224230078, 58179.7803258634, 15000.993311523594, 135513.99982142448, 187500.0, 187500.0, 6692.3134556190325, 20300.72603234363, 0.61, -0.664, 0.484, 192.0, 0.0, 0.0, 0.0, 0.0, 0.0, 0.0, 0.0, 0.0, 0.0, 1.6635890152317E9, 0.0, 2022-09-19 17:03:35.231
11.0, 23757.244498401225, 58168.8279710803, 14997.439384155201, 135519.47599881602, 187500.0, 187500.0, 6698.504888833152, 20268.606575561356, 0.61, -0.664, 0.484, 192.0, 0.0, 0.0, 0.0, 0.0, 0.0, 0.0, 0.0, 0.0, 0.0, 1.663589015235757E9, 0.0, 2022-09-19 17:03:35.235
12.0, 23753.735274521743, 58177.99218630698, 14992.052613741473, 135547.23686542953, 187500.0, 187500.0, 6712.742950051183, 20276.00500297606, 0.61, -0.664, 0.484, 192.0, 0.0, 0.0, 0.0, 0.0, 0.0, 0.0, 0.0, 0.0, 0.0, 1.6635890152397192E9, 0.0, 2022-09-19 17:03:35.239
13.0, 23745.822756984566, 58198.399328994674, 14975.91465424474, 135586.88886009323, 187500.0, 187500.0, 6719.537880365597, 20277.6366803213, 0.61, -0.664, 0.484, 192.0, 0.0, 0.0, 0.0, 0.0, 0.0, 0.0, 0.0, 0.0, 0.0, 1.663589015243737E9, 0.0, 2022-09-19 17:03:35.243
14.0, 23736.07739640205, 58197.505259216465, 14970.840808253386, 135610.89463363824, 187500.0, 187500.0, 6697.320246377021, 20263.86800573683, 0.61, -0.664, 0.484, 192.0, 0.0, 0.0, 0.0, 0.0, 0.0, 0.0, 0.0, 0.0, 0.0, 1.6635890152477145E9, 0.0, 2022-09-19 17:03:35.247
15.0, 23726.68966373082, 58172.29249147088, 14979.982671735606, 135614.49326449554, 187500.0, 187500.0, 6678.410670567831, 20266.505511582556, 0.61, -0.664, 0.484, 192.0, 0.0, 0.0, 0.0, 0.0, 0.0, 0.0, 0.0, 0.0, 0.0, 1.663589015252734E9, 0.0, 2022-09-19 17:03:35.252
16.0, 23732.7022829893, 58171.04079378138, 14986.375270649824, 135640.13071538578, 187500.0, 187500.0, 6693.341635863976, 20289.4384013937, 0.61, -0.664, 0.484, 192.0, 0.0, 0.0, 0.0, 0.0, 0.0, 0.0, 0.0, 0.0, 0.0, 1.6635890152558243E9, 0.0, 2022-09-19 17:03:35.255
17.0, 23715.22321882525, 58181.4343549531, 14981.659052569754, 135676.07232046992, 187500.0, 187500.0, 6706.506813348153, 20292.232369450616, 0.61, -0.664, 0.484, 192.0, 0.0, 0.0, 0.0, 0.0, 0.0, 0.0, 0.0, 0.0, 0.0, 1.6635890152597132E9, 0.0, 2022-09-19 17:03:35.259
18.0, 23712.295140301605, 58215.36430303625, 14987.917541017241, 135734.16450430924, 187500.0, 187500.0, 6722.510662378152, 20294.73576482961, 0.608, -0.664, 0.492, 192.0, 19.0, 0.0, 235.0, 64.0, 15.0, 96.0, 0.0, 0.0, 0.0, 1.663589015263708E9, 0.0, 2022-09-19 17:03:35.263
19.0, 23731.249419599702, 58209.70931168906, 14984.564779348944, 135750.5930364839, 187500.0, 187500.0, 6700.427138856308, 20277.48021811011, 0.608, -0.664, 0.492, 192.0, 0.0, 0.0, 0.0, 0.0, 0.0, 0.0, 0.0, 0.0, 0.0, 1.6635890152677495E9, 0.0, 2022-09-19 17:03:35.267
20.0, 23734.959809179283, 58180.719099130525, 14969.633814052799, 135749.05076611647, 187500.0, 187500.0, 6673.649748998851, 20268.80774126145, 0.608, -0.664, 0.492, 192.0, 0.0, 0.0, 0.0, 0.0, 0.0, 0.0, 0.0, 0.0, 0.0, 1.6635890152717457E9, 0.0, 2022-09-19 17:03:35.271
21.0, 23727.471974786757, 58172.3818984487, 14970.416125108735, 135766.82040295846, 187500.0, 187500.0, 6679.952940935247, 20274.462732608645, 0.608, -0.664, 0.492, 192.0, 0.0, 0.0, 0.0, 0.0, 0.0, 0.0, 0.0, 0.0, 0.0, 1.6635890152757432E9, 0.0, 2022-09-19 17:03:35.275
22.0, 23701.990986107707, 58180.652043897164, 14971.220787909126, 135797.44229286222, 187500.0, 187500.0, 6696.873211487915, 20271.91463374074, 0.608, -0.664, 0.492, 192.0, 0.0, 0.0, 0.0, 0.0, 0.0, 0.0, 0.0, 0.0, 0.0, 1.663589015279736E9, 0.0, 2022-09-19 17:03:35.279
23.0, 23703.30973903057, 58202.02031159643, 14969.186779163692, 135836.2002177477, 187500.0, 187500.0, 6710.597182583473, 20263.555081314455, 0.608, -0.664, 0.492, 192.0, 0.0, 0.0, 0.0, 0.0, 0.0, 0.0, 0.0, 0.0, 0.0, 1.6635890152828753E9, 0.0, 2022-09-19 17:03:35.282
24.0, 23724.230971840738, 58208.09998608828, 14978.641567068287, 135858.3284447585, 187500.0, 187500.0, 6702.595258068473, 20271.48995059609, 0.608, -0.664, 0.492, 192.0, 0.0, 0.0, 0.0, 0.0, 0.0, 0.0, 0.0, 0.0, 0.0, 1.663589015287766E9, 0.0, 2022-09-19 17:03:35.287
25.0, 23729.64009399892, 58175.30997697234, 14967.085715184894, 135844.49271494063, 187500.0, 187500.0, 6678.768298479116, 20263.555081314455, 0.608, -0.664, 0.492, 192.0, 0.0, 0.0, 0.0, 0.0, 0.0, 0.0, 0.0, 0.0, 0.0, 1.6635890152918124E9, 0.0, 2022-09-19 17:03:35.291
26.0, 23734.579829523544, 58165.56461638983, 14962.414200593736, 135855.19920053473, 187500.0, 187500.0, 6685.876153215904, 20269.6347558063, 0.608, -0.664, 0.492, 192.0, 0.0, 0.0, 0.0, 0.0, 0.0, 0.0, 0.0, 0.0, 0.0, 1.6635890152957623E9, 0.0, 2022-09-19 17:03:35.295
27.0, 23735.004512668194, 58171.08549727029, 14957.96620344713, 135883.87648867088, 187500.0, 187500.0, 6700.002455711658, 20269.50064533957, 0.608, -0.664, 0.492, 192.0, 0.0, 0.0, 0.0, 0.0, 0.0, 0.0, 0.0, 0.0, 0.0, 1.66358901529979E9, 0.0, 2022-09-19 17:03:35.299
28.0, 23735.22803011275, 58191.492639957985, 14953.160578389237, 135920.60040481098, 187500.0, 187500.0, 6710.060740716546, 20261.543424313477, 0.61, -0.66, 0.504, 192.0, 19.0, 16.0, 235.0, 96.0, 15.0, 192.0, 0.0, 0.0, 0.0, 1.6635890153037477E9, 0.0, 2022-09-19 17:03:35.303
29.0, 23725.12504161895, 58184.51889568793, 14957.876796469307, 135927.46239035873, 187500.0, 187500.0, 6689.698301517761, 20263.711543525642, 0.61, -0.66, 0.504, 192.0, 0.0, 0.0, 0.0, 0.0, 0.0, 0.0, 0.0, 0.0, 0.0, 1.6635890153078463E9, 0.0, 2022-09-19 17:03:35.307
30.0, 23701.02986109613, 58149.29254642637, 14944.152825373749, 135913.15727390736, 187500.0, 187500.0, 6663.725574460695, 20264.449151092667, 0.61, -0.66, 0.504, 192.0, 0.0, 0.0, 0.0, 0.0, 0.0, 0.0, 0.0, 0.0, 0.0, 1.663589015310926E9, 0.0, 2022-09-19 17:03:35.310
31.0, 23690.077506313028, 58137.312011398324, 14944.510453285035, 135923.0367449566, 187500.0, 187500.0, 6671.369871064409, 20263.15274991426, 0.61, -0.66, 0.504, 192.0, 0.0, 0.0, 0.0, 0.0, 0.0, 0.0, 0.0, 0.0, 0.0, 1.6635890153159308E9, 0.0, 2022-09-19 17:03:35.315
32.0, 23693.720840659244, 58155.30516568484, 14957.00507843555, 135956.92198955084, 187500.0, 187500.0, 6697.61081905494, 20269.81356976194, 0.61, -0.66, 0.504, 192.0, 0.0, 0.0, 0.0, 0.0, 0.0, 0.0, 0.0, 0.0, 0.0, 1.66358901531981E9, 0.0, 2022-09-19 17:03:35.319
33.0, 23713.815058924563, 58171.5325321594, 14958.904976714251, 135986.71686490977, 187500.0, 187500.0, 6711.9829907397025, 20268.87479649482, 0.61, -0.66, 0.504, 192.0, 0.0, 0.0, 0.0, 0.0, 0.0, 0.0, 0.0, 0.0, 0.0, 1.6635890153238657E9, 0.0, 2022-09-19 17:03:35.323
34.0, 23735.630361512944, 58168.5821018913, 14963.621194794321, 136001.5137197392, 187500.0, 187500.0, 6702.684665046295, 20270.998212218074, 0.61, -0.66, 0.504, 192.0, 0.0, 0.0, 0.0, 0.0, 0.0, 0.0, 0.0, 0.0, 0.0, 1.663589015327884E9, 0.0, 2022-09-19 17:03:35.327
35.0, 23722.55459100659, 58142.341153900765, 14954.836959223387, 135994.8081964026, 187500.0, 187500.0, 6679.2823886015885, 20264.851482492864, 0.61, -0.66, 0.504, 192.0, 0.0, 0.0, 0.0, 0.0, 0.0, 0.0, 0.0, 0.0, 0.0, 1.663589015331793E9, 0.0, 2022-09-19 17:03:35.331
36.0, 23712.473954257246, 58128.147796171645, 14948.980802176095, 135998.67504819334, 187500.0, 187500.0, 6682.344577591965, 20260.269374879525, 0.61, -0.66, 0.504, 192.0, 0.0, 0.0, 0.0, 0.0, 0.0, 0.0, 0.0, 0.0, 0.0, 1.663589015335802E9, 0.0, 2022-09-19 17:03:35.335
37.0, 23721.97344565075, 58137.088493953765, 14955.57456679041, 136022.94904267183, 187500.0, 187500.0, 6701.410615612343, 20257.318944611427, 0.61, -0.66, 0.504, 192.0, 0.0, 0.0, 0.0, 0.0, 0.0, 0.0, 0.0, 0.0, 0.0, 1.663589015339E9, 0.0, 2022-09-19 17:03:35.339
38.0, 23732.36700682247, 58160.60252912075, 14961.520130815523, 136056.9683977328, 187500.0, 187500.0, 6718.979086754213, 20262.750418514064, 0.606, -0.66, 0.506, 192.0, 18.0, 240.0, 235.0, 96.0, 15.0, 208.0, 0.0, 0.0, 0.0, 1.6635890153428936E9, 0.0, 2022-09-19 17:03:35.342
39.0, 23715.31262580307, 58148.3761249037, 14955.619270279321, 136058.1753919334, 187500.0, 187500.0, 6693.699263775261, 20259.911746968242, 0.606, -0.66, 0.506, 192.0, 0.0, 0.0, 0.0, 0.0, 0.0, 0.0, 0.0, 0.0, 0.0, 1.6635890153478365E9, 0.0, 2022-09-19 17:03:35.347
40.0, 23714.105631602484, 58128.23720314947, 14963.218863394126, 136056.63312156597, 187500.0, 187500.0, 6681.450507813753, 20275.557968086956, 0.606, -0.66, 0.506, 192.0, 0.0, 0.0, 0.0, 0.0, 0.0, 0.0, 0.0, 0.0, 0.0, 1.6635890153519192E9, 0.0, 2022-09-19 17:03:35.351
41.0, 23712.809230424074, 58125.39853160364, 14961.609537793343, 136068.90422927192, 187500.0, 187500.0, 6690.078281173502, 20276.407334376257, 0.606, -0.66, 0.506, 192.0, 0.0, 0.0, 0.0, 0.0, 0.0, 0.0, 0.0, 0.0, 0.0, 1.663589015355933E9, 0.0, 2022-09-19 17:03:35.355
42.0, 23710.283483300627, 58126.56082231532, 14955.19458713467, 136080.63889511095, 187500.0, 187500.0, 6696.962618465736, 20262.795122002975, 0.606, -0.66, 0.506, 192.0, 0.0, 0.0, 0.0, 0.0, 0.0, 0.0, 0.0, 0.0, 0.0, 1.66358901535987E9, 0.0, 2022-09-19 17:03:35.359
43.0, 23696.380698249424, 58140.731828299984, 14947.86321495333, 136101.51542443223, 187500.0, 187500.0, 6701.991760968181, 20253.988534687585, 0.606, -0.66, 0.506, 192.0, 0.0, 0.0, 0.0, 0.0, 0.0, 0.0, 0.0, 0.0, 0.0, 1.6635890153628469E9, 0.0, 2022-09-19 17:03:35.362
44.0, 23682.701430642777, 58132.99812471845, 14944.868081196319, 136100.35313372055, 187500.0, 187500.0, 6680.019996168613, 20249.67464800771, 0.606, -0.66, 0.506, 192.0, 0.0, 0.0, 0.0, 0.0, 0.0, 0.0, 0.0, 0.0, 0.0, 1.6635890153679285E9, 0.0, 2022-09-19 17:03:35.367
45.0, 23684.98130857722, 58104.20907786001, 14943.661086995733, 136078.11314798752, 187500.0, 187500.0, 6667.0783361289905, 20240.10810138084, 0.606, -0.66, 0.506, 192.0, 0.0, 0.0, 0.0, 0.0, 0.0, 0.0, 0.0, 0.0, 0.0, 1.6635890153719218E9, 0.0, 2022-09-19 17:03:35.371
46.0, 23669.558604903057, 58096.54242951184, 14938.609592748833, 136076.7720433202, 187500.0, 187500.0, 6677.136621133879, 20253.832072476398, 0.606, -0.66, 0.506, 192.0, 0.0, 0.0, 0.0, 0.0, 0.0, 0.0, 0.0, 0.0, 0.0, 1.6635890153749096E9, 0.0, 2022-09-19 17:03:35.374
47.0, 23635.67336030881, 58100.85631619171, 14929.355970544335, 136085.26570621322, 187500.0, 187500.0, 6682.031653169591, 20257.363648100334, 0.606, -0.66, 0.506, 192.0, 0.0, 0.0, 0.0, 0.0, 0.0, 0.0, 0.0, 0.0, 0.0, 1.663589015378898E9, 0.0, 2022-09-19 17:03:35.378
48.0, 23659.455616409257, 58133.378104374184, 14941.515319528024, 136118.0333635847, 187500.0, 187500.0, 6703.377569124409, 20273.09927619687, 0.602, -0.652, 0.506, 192.0, 18.0, 208.0, 235.0, 160.0, 15.0, 208.0, 0.0, 0.0, 0.0, 1.6635890153829455E9, 0.0, 2022-09-19 17:03:35.382
49.0, 23727.159050364382, 58136.86497650921, 14951.774770233009, 136120.35794500803, 187500.0, 187500.0, 6694.593333553474, 20274.328622141915, 0.602, -0.652, 0.506, 192.0, 0.0, 0.0, 0.0, 0.0, 0.0, 0.0, 0.0, 0.0, 0.0, 1.6635890153879251E9, 0.0, 2022-09-19 17:03:35.387
50.0, 23782.323155680082, 58113.328589597775, 14954.725200501109, 136099.34730522006, 187500.0, 187500.0, 6686.144374149368, 20267.511340083045, 0.602, -0.652, 0.506, 192.0, 0.0, 0.0, 0.0, 0.0, 0.0, 0.0, 0.0, 0.0, 0.0, 1.663589015391914E9, 0.0, 2022-09-19 17:03:35.391
51.0, 23765.17936768286, 58102.21977260349, 14947.304421341947, 136091.23362198277, 187500.0, 187500.0, 6693.319284119521, 20263.24215689208, 0.602, -0.652, 0.506, 192.0, 0.0, 0.0, 0.0, 0.0, 0.0, 0.0, 0.0, 0.0, 0.0, 1.6635890153959472E9, 0.0, 2022-09-19 17:03:35.395
52.0, 23744.280486617146, 58095.62600798917, 14939.391903804768, 136086.36094169153, 187500.0, 187500.0, 6692.805193997049, 20245.159595627738, 0.602, -0.652, 0.506, 192.0, 0.0, 0.0, 0.0, 0.0, 0.0, 0.0, 0.0, 0.0, 0.0, 1.6635890153999913E9, 0.0, 2022-09-19 17:03:35.399
53.0, 23739.51956504817, 58110.467566307496, 14935.614458991822, 136100.621354654, 187500.0, 187500.0, 6697.566115566029, 20254.569680043423, 0.602, -0.652, 0.506, 192.0, 0.0, 0.0, 0.0, 0.0, 0.0, 0.0, 0.0, 0.0, 0.0, 1.6635890154029224E9, 0.0, 2022-09-19 17:03:35.402
54.0, 23710.529352489633, 58110.9146011966, 14950.254851610049, 136099.90609883144, 187500.0, 187500.0, 6684.736214248684, 20268.42776160571, 0.602, -0.652, 0.506, 192.0, 0.0, 0.0, 0.0, 0.0, 0.0, 0.0, 0.0, 0.0, 0.0, 1.6635890154069242E9, 0.0, 2022-09-19 17:03:35.406
55.0, 23707.35540477698, 58088.78637418585, 14966.281052384504, 136078.73899683225, 187500.0, 187500.0, 6678.365967078921, 20277.591976832387, 0.602, -0.652, 0.506, 192.0, 0.0, 0.0, 0.0, 0.0, 0.0, 0.0, 0.0, 0.0, 0.0, 1.663589015411031E9, 0.0, 2022-09-19 17:03:35.411
56.0, 23729.707149232287, 58085.16539158409, 14963.777657005508, 136075.69915958634, 187500.0, 187500.0, 6692.4922695746745, 20276.809665776454, 0.602, -0.652, 0.506, 192.0, 0.0, 0.0, 0.0, 0.0, 0.0, 0.0, 0.0, 0.0, 0.0, 1.663589015415972E9, 0.0, 2022-09-19 17:03:35.415
57.0, 23724.387434051925, 58094.21784808849, 14959.933156959196, 136084.371636435, 187500.0, 187500.0, 6706.037426714591, 20276.966127987638, 0.602, -0.652, 0.506, 192.0, 0.0, 0.0, 0.0, 0.0, 0.0, 0.0, 0.0, 0.0, 0.0, 1.663589015419987E9, 0.0, 2022-09-19 17:03:35.419
58.0, 23718.441870026814, 58116.94957219953, 14953.697020256164, 136104.53290993368, 187500.0, 187500.0, 6712.85470877346, 20286.91265427025, 0.59, -0.65, 0.51, 192.0, 18.0, 112.0, 235.0, 176.0, 15.0, 240.0, 0.0, 0.0, 0.0, 1.6635890154240222E9, 0.0, 2022-09-19 17:03:35.424
59.0, 23725.661483485877, 58111.383987830166, 14955.5298633015, 136095.23458424027, 187500.0, 187500.0, 6688.804231739549, 20286.711488570152, 0.59, -0.65, 0.51, 192.0, 0.0, 0.0, 0.0, 0.0, 0.0, 0.0, 0.0, 0.0, 0.0, 1.6635890154280274E9, 0.0, 2022-09-19 17:03:35.428
60.0, 23720.92291366135, 58070.88262687715, 14951.327735343903, 136054.4650023538, 187500.0, 187500.0, 6663.41265003832, 20274.485084353102, 0.59, -0.65, 0.51, 192.0, 0.0, 0.0, 0.0, 0.0, 0.0, 0.0, 0.0, 0.0, 0.0, 1.6635890154310217E9, 0.0, 2022-09-19 17:03:35.431
61.0, 23722.621646239957, 58052.42008595706, 14941.940002672674, 136037.54473180114, 187500.0, 187500.0, 6663.569112249507, 20260.15761615725, 0.59, -0.65, 0.51, 192.0, 0.0, 0.0, 0.0, 0.0, 0.0, 0.0, 0.0, 0.0, 0.0, 1.663589015435024E9, 0.0, 2022-09-19 17:03:35.435
62.0, 23721.012320639173, 58060.93610059454, 14940.66595323872, 136044.7643452602, 187500.0, 187500.0, 6676.197847866756, 20265.074999937417, 0.59, -0.65, 0.51, 192.0, 0.0, 0.0, 0.0, 0.0, 0.0, 0.0, 0.0, 0.0, 0.0, 1.663589015439109E9, 0.0, 2022-09-19 17:03:35.439
63.0, 23722.01814913966, 58093.10026086572, 14938.788406704476, 136076.36971192, 187500.0, 187500.0, 6690.4359090847865, 20278.977784988616, 0.59, -0.65, 0.51, 192.0, 0.0, 0.0, 0.0, 0.0, 0.0, 0.0, 0.0, 0.0, 0.0, 1.6635890154430747E9, 0.0, 2022-09-19 17:03:35.443
64.0, 23713.770355435652, 58089.38987128614, 14939.078979382395, 136071.362921162, 187500.0, 187500.0, 6671.928664675792, 20277.211997176648, 0.59, -0.65, 0.51, 192.0, 0.0, 0.0, 0.0, 0.0, 0.0, 0.0, 0.0, 0.0, 0.0, 1.6635890154480357E9, 0.0, 2022-09-19 17:03:35.448
65.0, 23702.54977971909, 58061.4054872281, 14933.871022924308, 136042.61857779248, 187500.0, 187500.0, 6654.918987145304, 20271.087619195892, 0.59, -0.65, 0.51, 192.0, 0.0, 0.0, 0.0, 0.0, 0.0, 0.0, 0.0, 0.0, 0.0, 1.663589015452092E9, 0.0, 2022-09-19 17:03:35.452
66.0, 23699.129962817427, 58049.91669057807, 14930.518261256011, 136029.47575205276, 187500.0, 187500.0, 6663.546760505053, 20269.545348828477, 0.59, -0.65, 0.51, 192.0, 0.0, 0.0, 0.0, 0.0, 0.0, 0.0, 0.0, 0.0, 0.0, 1.6635890154561129E9, 0.0, 2022-09-19 17:03:35.456
67.0, 23683.34963123198, 58048.12855102165, 14927.612534476822, 136026.74883922923, 187500.0, 187500.0, 6670.744022219661, 20262.90688072525, 0.59, -0.65, 0.51, 192.0, 0.0, 0.0, 0.0, 0.0, 0.0, 0.0, 0.0, 0.0, 0.0, 1.6635890154591007E9, 0.0, 2022-09-19 17:03:35.459
68.0, 23678.789875363098, 58066.211112285986, 14922.739854185565, 136040.31634811359, 187500.0, 187500.0, 6674.789687966071, 20259.464712079134, 0.602, -0.642, 0.508, 192.0, 18.0, 208.0, 235.0, 240.0, 15.0, 224.0, 0.0, 0.0, 0.0, 1.663589015463111E9, 0.0, 2022-09-19 17:03:35.463
69.0, 23696.35834650497, 58067.86514137568, 14931.613496734322, 136039.601092291, 187500.0, 187500.0, 6664.150257605345, 20276.228520420616, 0.602, -0.642, 0.508, 192.0, 0.0, 0.0, 0.0, 0.0, 0.0, 0.0, 0.0, 0.0, 0.0, 1.6635890154671073E9, 0.0, 2022-09-19 17:03:35.467
70.0, 23670.743247359187, 58043.7476091084, 14929.423025777702, 136016.44468503533, 187500.0, 187500.0, 6649.152237075835, 20283.179912946216, 0.602, -0.642, 0.508, 192.0, 0.0, 0.0, 0.0, 0.0, 0.0, 0.0, 0.0, 0.0, 0.0, 1.6635890154711208E9, 0.0, 2022-09-19 17:03:35.471
71.0, 23654.471177395724, 58033.93519329253, 14930.697075211654, 136004.88883315193, 187500.0, 187500.0, 6654.427248767287, 20276.87672100982, 0.602, -0.642, 0.508, 192.0, 0.0, 0.0, 0.0, 0.0, 0.0, 0.0, 0.0, 0.0, 0.0, 1.6635890154761257E9, 0.0, 2022-09-19 17:03:35.476
72.0, 23680.578014919523, 58041.69124861852, 14925.131490842283, 136008.42040877586, 187500.0, 187500.0, 6670.229932097189, 20260.090560923883, 0.602, -0.642, 0.508, 192.0, 0.0, 0.0, 0.0, 0.0, 0.0, 0.0, 0.0, 0.0, 0.0, 1.6635890154801772E9, 0.0, 2022-09-19 17:03:35.480
73.0, 23717.03371012613, 58067.28399601985, 14925.734987942576, 136028.604034019, 187500.0, 187500.0, 6683.976254937203, 20251.10515965285, 0.602, -0.642, 0.508, 192.0, 0.0, 0.0, 0.0, 0.0, 0.0, 0.0, 0.0, 0.0, 0.0, 1.6635890154831402E9, 0.0, 2022-09-19 17:03:35.483
74.0, 23750.203698897803, 58070.30148152131, 14939.280145082492, 136028.49227529674, 187500.0, 187500.0, 6672.330996075988, 20258.548290556468, 0.602, -0.642, 0.508, 192.0, 0.0, 0.0, 0.0, 0.0, 0.0, 0.0, 0.0, 0.0, 0.0, 1.663589015487142E9, 0.0, 2022-09-19 17:03:35.487
75.0, 23751.61185879849, 58046.92155682106, 14944.823377707407, 136004.12887384044, 187500.0, 187500.0, 6661.669213970807, 20269.970031973127, 0.602, -0.642, 0.508, 192.0, 0.0, 0.0, 0.0, 0.0, 0.0, 0.0, 0.0, 0.0, 0.0, 1.6635890154911733E9, 0.0, 2022-09-19 17:03:35.491
76.0, 23728.813079454074, 58036.639754371616, 14939.302496826947, 135990.78488240062, 187500.0, 187500.0, 6665.357251805932, 20270.171197673226, 0.602, -0.642, 0.508, 192.0, 0.0, 0.0, 0.0, 0.0, 0.0, 0.0, 0.0, 0.0, 0.0, 1.6635890154951499E9, 0.0, 2022-09-19 17:03:35.495
77.0, 23713.703300202287, 58054.16352202458, 14933.960429902128, 136000.28437379413, 187500.0, 187500.0, 6678.835353712482, 20280.63181407831, 0.602, -0.642, 0.508, 192.0, 0.0, 0.0, 0.0, 0.0, 0.0, 0.0, 0.0, 0.0, 0.0, 1.6635890154991593E9, 0.0, 2022-09-19 17:03:35.499
78.0, 23708.137715832916, 58074.950644368015, 14928.707769955132, 136014.12010361196, 187500.0, 187500.0, 6681.964597936225, 20278.30723265496, 0.596, -0.646, 0.502, 192.0, 18.0, 160.0, 235.0, 208.0, 15.0, 176.0, 0.0, 0.0, 0.0, 1.663589015504088E9, 0.0, 2022-09-19 17:03:35.504
79.0, 23703.466201241758, 58058.74562963792, 14918.314208783415, 135992.72948416823, 187500.0, 187500.0, 6650.046306854047, 20263.018639447528, 0.596, -0.646, 0.502, 192.0, 0.0, 0.0, 0.0, 0.0, 0.0, 0.0, 0.0, 0.0, 0.0, 1.6635890155082047E9, 0.0, 2022-09-19 17:03:35.508
80.0, 23698.21354129476, 58036.25977471588, 14916.61547620481, 135968.20962050077, 187500.0, 187500.0, 6637.797550892538, 20265.76790401553, 0.596, -0.646, 0.502, 192.0, 0.0, 0.0, 0.0, 0.0, 0.0, 0.0, 0.0, 0.0, 0.0, 1.6635890155111449E9, 0.0, 2022-09-19 17:03:35.511
81.0, 23702.952111119284, 58045.75926610938, 14919.409444261724, 135973.3505217255, 187500.0, 187500.0, 6655.321318545499, 20280.475351867124, 0.596, -0.646, 0.502, 192.0, 0.0, 0.0, 0.0, 0.0, 0.0, 0.0, 0.0, 0.0, 0.0, 1.6635890155152E9, 0.0, 2022-09-19 17:03:35.515
82.0, 23717.50309675969, 58059.080905804745, 14912.256886036026, 135979.5866584285, 187500.0, 187500.0, 6669.157048363334, 20269.50064533957, 0.596, -0.646, 0.502, 192.0, 0.0, 0.0, 0.0, 0.0, 0.0, 0.0, 0.0, 0.0, 0.0, 1.663589015519224E9, 0.0, 2022-09-19 17:03:35.519
83.0, 23723.716881718265, 58077.476391491466, 14915.453185493136, 135986.8956788654, 187500.0, 187500.0, 6679.41649906832, 20250.14403464127, 0.596, -0.646, 0.502, 192.0, 0.0, 0.0, 0.0, 0.0, 0.0, 0.0, 0.0, 0.0, 0.0, 1.6635890155232112E9, 0.0, 2022-09-19 17:03:35.523
84.0, 23709.92585538934, 58067.01577508638, 14920.102348339838, 135967.9861030562, 187500.0, 187500.0, 6656.751830190638, 20239.68341823619, 0.596, -0.646, 0.502, 192.0, 0.0, 0.0, 0.0, 0.0, 0.0, 0.0, 0.0, 0.0, 0.0, 1.6635890155271702E9, 0.0, 2022-09-19 17:03:35.527
85.0, 23714.440907769313, 58044.7981410978, 14924.684455953176, 135943.39918415537, 187500.0, 187500.0, 6648.012298108613, 20262.72806676961, 0.596, -0.646, 0.502, 192.0, 0.0, 0.0, 0.0, 0.0, 0.0, 0.0, 0.0, 0.0, 0.0, 1.6635890155311737E9, 0.0, 2022-09-19 17:03:35.531
86.0, 23709.67998620033, 58036.66210611608, 14916.011979104518, 135930.09989620445, 187500.0, 187500.0, 6652.594405721951, 20264.739723770588, 0.596, -0.646, 0.502, 192.0, 0.0, 0.0, 0.0, 0.0, 0.0, 0.0, 0.0, 0.0, 0.0, 1.6635890155362473E9, 0.0, 2022-09-19 17:03:35.536
87.0, 23701.11926807395, 58047.614460899174, 14911.161650557717, 135934.6820038178, 187500.0, 187500.0, 6662.384469793376, 20251.77571198651, 0.596, -0.646, 0.502, 192.0, 0.0, 0.0, 0.0, 0.0, 0.0, 0.0, 0.0, 0.0, 0.0, 1.6635890155391972E9, 0.0, 2022-09-19 17:03:35.539
88.0, 23704.092050086507, 58074.23538854544, 14915.564944215412, 135957.50313490667, 187500.0, 187500.0, 6673.314472832021, 20260.090560923883, 0.596, -0.646, 0.502, 192.0, 0.0, 0.0, 0.0, 0.0, 0.0, 0.0, 0.0, 0.0, 0.0, 1.6635890155431874E9, 0.0, 2022-09-19 17:03:35.543
89.0, 23698.079430828027, 58072.69311817803, 14916.906048882729, 135955.06679476105, 187500.0, 187500.0, 6655.142504589857, 20267.757209272055, 0.592, -0.65, 0.502, 192.0, 18.0, 128.0, 235.0, 176.0, 15.0, 176.0, 0.0, 0.0, 0.0, 1.6635890155471635E9, 0.0, 2022-09-19 17:03:35.547
90.0, 23677.22525325123, 58036.43858867152, 14903.584409187366, 135916.7335530202, 187500.0, 187500.0, 6630.868510111393, 20248.5794125294, 0.592, -0.65, 0.502, 192.0, 0.0, 0.0, 0.0, 0.0, 0.0, 0.0, 0.0, 0.0, 0.0, 1.663589015551222E9, 0.0, 2022-09-19 17:03:35.551
91.0, 23655.320543685026, 58021.462919886464, 14890.151010769727, 135896.54992777706, 187500.0, 187500.0, 6631.851986867427, 20224.081900606383, 0.592, -0.65, 0.502, 192.0, 0.0, 0.0, 0.0, 0.0, 0.0, 0.0, 0.0, 0.0, 0.0, 1.6635890155552204E9, 0.0, 2022-09-19 17:03:35.555
92.0, 23654.426473906813, 58044.328754464244, 14895.604836416822, 135913.20197739627, 187500.0, 187500.0, 6653.913158644815, 20238.4764240356, 0.592, -0.65, 0.502, 192.0, 0.0, 0.0, 0.0, 0.0, 0.0, 0.0, 0.0, 0.0, 0.0, 1.6635890155592468E9, 0.0, 2022-09-19 17:03:35.559
93.0, 23669.558604903057, 58074.391850756634, 14903.09267080935, 135935.01727998463, 187500.0, 187500.0, 6668.151219862845, 20251.038104419484, 0.592, -0.65, 0.502, 192.0, 0.0, 0.0, 0.0, 0.0, 0.0, 0.0, 0.0, 0.0, 0.0, 1.6635890155643113E9, 0.0, 2022-09-19 17:03:35.564
94.0, 23677.62758465142, 58065.27233901887, 14904.344368498847, 135918.25347164317, 187500.0, 187500.0, 6646.8276556524825, 20250.613421274833, 0.592, -0.65, 0.502, 192.0, 0.0, 0.0, 0.0, 0.0, 0.0, 0.0, 0.0, 0.0, 0.0, 1.6635890155672953E9, 0.0, 2022-09-19 17:03:35.567
95.0, 23678.3875439629, 58038.83022532824, 14893.973159071586, 135888.45859628424, 187500.0, 187500.0, 6625.682905397762, 20237.314133323925, 0.592, -0.65, 0.502, 192.0, 0.0, 0.0, 0.0, 0.0, 0.0, 0.0, 0.0, 0.0, 0.0, 1.6635890155712764E9, 0.0, 2022-09-19 17:03:35.571
96.0, 23664.462407167248, 58033.01877176986, 14888.742850869043, 135878.98145663517, 187500.0, 187500.0, 6637.037591581058, 20226.071205862907, 0.592, -0.65, 0.502, 192.0, 0.0, 0.0, 0.0, 0.0, 0.0, 0.0, 0.0, 0.0, 0.0, 1.6635890155752952E9, 0.0, 2022-09-19 17:03:35.575
97.0, 23684.958956832765, 58048.28501323283, 14873.722478595077, 135885.59757299395, 187500.0, 187500.0, 6645.799475407538, 20215.05179584644, 0.592, -0.65, 0.502, 192.0, 0.0, 0.0, 0.0, 0.0, 0.0, 0.0, 0.0, 0.0, 0.0, 1.663589015579312E9, 0.0, 2022-09-19 17:03:35.579
98.0, 23712.92098914635, 58075.01769960138, 14852.913004507185, 135904.1718726363, 187500.0, 187500.0, 6645.084219584968, 20212.973083612094, 0.592, -0.65, 0.502, 192.0, 0.0, 0.0, 0.0, 0.0, 0.0, 0.0, 0.0, 0.0, 0.0, 1.6635890155833032E9, 0.0, 2022-09-19 17:03:35.583
99.0, 23682.12028528694, 58070.413240243586, 14866.100533735816, 135894.73943647617, 187500.0, 187500.0, 6625.258222253111, 20210.00030159954, 0.596, -0.654, 0.512, 192.0, 18.0, 160.0, 235.0, 144.0, 16.0, 0.0, 0.0, 0.0, 0.0, 1.6635890155872695E9, 0.0, 2022-09-19 17:03:35.587
100.0, 23624.20691540324, 58037.77969333884, 14875.488266407046, 135859.9154186148, 187500.0, 187500.0, 6609.723759856673, 20186.732135621565, 0.596, -0.654, 0.512, 192.0, 0.0, 0.0, 0.0, 0.0, 0.0, 0.0, 0.0, 0.0, 0.0, 1.6635890155923147E9, 0.0, 2022-09-19 17:03:35.592
101.0, 23641.328351656004, 58034.87396655965, 14860.400838899714, 135852.85226736692, 187500.0, 187500.0, 6613.814129091994, 20172.42701917017, 0.596, -0.654, 0.512, 192.0, 0.0, 0.0, 0.0, 0.0, 0.0, 0.0, 0.0, 0.0, 0.0, 1.6635890155952933E9, 0.0, 2022-09-19 17:03:35.595
102.0, 23695.620738937945, 58054.476446446955, 14855.863434775287, 135867.6714739408, 187500.0, 187500.0, 6633.88599561286, 20186.396859454737, 0.596, -0.654, 0.512, 192.0, 0.0, 0.0, 0.0, 0.0, 0.0, 0.0, 0.0, 0.0, 0.0, 1.6635890155993192E9, 0.0, 2022-09-19 17:03:35.599
103.0, 23703.26503554166, 58082.52788573836, 14854.611737085788, 135892.10193063045, 187500.0, 187500.0, 6648.8840161423705, 20190.28606298996, 0.596, -0.654, 0.512, 192.0, 0.0, 0.0, 0.0, 0.0, 0.0, 0.0, 0.0, 0.0, 0.0, 1.6635890156032848E9, 0.0, 2022-09-19 17:03:35.603
104.0, 23676.30883172856, 58070.34618501022, 14852.354210895803, 135880.36726479142, 187500.0, 187500.0, 6617.725684371672, 20184.13933326475, 0.596, -0.654, 0.512, 192.0, 0.0, 0.0, 0.0, 0.0, 0.0, 0.0, 0.0, 0.0, 0.0, 1.6635890156073554E9, 0.0, 2022-09-19 17:03:35.607
105.0, 23660.34968618747, 58043.211167241476, 14818.021931412452, 135854.75216564562, 187500.0, 187500.0, 6571.815201260472, 20205.015862586006, 0.596, -0.654, 0.512, 192.0, 0.0, 0.0, 0.0, 0.0, 0.0, 0.0, 0.0, 0.0, 0.0, 1.6635890156113153E9, 0.0, 2022-09-19 17:03:35.611
106.0, 23656.371075674426, 58044.596975397704, 14857.405705142703, 135852.7628603891, 187500.0, 187500.0, 6609.053207523014, 20210.42498474419, 0.596, -0.654, 0.512, 192.0, 0.0, 0.0, 0.0, 0.0, 0.0, 0.0, 0.0, 0.0, 0.0, 1.663589015615267E9, 0.0, 2022-09-19 17:03:35.615
107.0, 23658.29332569758, 58058.030373815345, 14870.481475649058, 135858.03787208055, 187500.0, 187500.0, 6633.908347357315, 20197.885656104765, 0.596, -0.654, 0.512, 192.0, 0.0, 0.0, 0.0, 0.0, 0.0, 0.0, 0.0, 0.0, 0.0, 1.66358901561936E9, 0.0, 2022-09-19 17:03:35.619
108.0, 23670.519729914635, 58083.42195551658, 14854.097646963317, 135874.44405251075, 187500.0, 187500.0, 6622.508957685109, 20190.53193217897, 0.596, -0.654, 0.512, 192.0, 0.0, 0.0, 0.0, 0.0, 0.0, 0.0, 0.0, 0.0, 0.0, 1.6635890156223755E9, 0.0, 2022-09-19 17:03:35.622
109.0, 23666.54111940159, 58067.820437886774, 14860.467894133079, 135852.40523247782, 187500.0, 187500.0, 6603.241753964634, 20177.433809928156, 0.6, -0.656, 0.508, 192.0, 18.0, 192.0, 235.0, 128.0, 15.0, 224.0, 0.0, 0.0, 0.0, 1.6635890156263475E9, 0.0, 2022-09-19 17:03:35.626
110.0, 23675.437113694803, 58052.59889991271, 14858.925623765663, 135833.58506364646, 187500.0, 187500.0, 6602.839422564438, 20175.310394204902, 0.6, -0.656, 0.508, 192.0, 0.0, 0.0, 0.0, 0.0, 0.0, 0.0, 0.0, 0.0, 0.0, 1.6635890156313846E9, 0.0, 2022-09-19 17:03:35.631
111.0, 23670.944413059286, 58051.43660920103, 14844.933431736641, 135826.8571885654, 187500.0, 187500.0, 6603.509974898097, 20170.79534182493, 0.6, -0.656, 0.508, 192.0, 0.0, 0.0, 0.0, 0.0, 0.0, 0.0, 0.0, 0.0, 0.0, 1.6635890156354551E9, 0.0, 2022-09-19 17:03:35.635
112.0, 23681.650898653377, 58069.16154255409, 14867.463990147591, 135837.0048805481, 187500.0, 187500.0, 6631.851986867427, 20169.56599587989, 0.6, -0.656, 0.508, 192.0, 0.0, 0.0, 0.0, 0.0, 0.0, 0.0, 0.0, 0.0, 0.0, 1.6635890156394E9, 0.0, 2022-09-19 17:03:35.639
113.0, 23672.35257295997, 58091.669749220586, 14855.438751630636, 135850.2147615212, 187500.0, 187500.0, 6648.034649853069, 20174.37162093778, 0.6, -0.656, 0.508, 192.0, 0.0, 0.0, 0.0, 0.0, 0.0, 0.0, 0.0, 0.0, 0.0, 1.663589015643336E9, 0.0, 2022-09-19 17:03:35.643
114.0, 23638.623790576912, 58065.987594841434, 14837.557356066389, 135819.16818847277, 187500.0, 187500.0, 6604.113471998391, 20164.358039421804, 0.6, -0.656, 0.508, 192.0, 0.0, 0.0, 0.0, 0.0, 0.0, 0.0, 0.0, 0.0, 0.0, 1.6635890156465166E9, 0.0, 2022-09-19 17:03:35.646
115.0, 23637.640313820877, 58036.3491816937, 14841.55831832389, 135785.68527527872, 187500.0, 187500.0, 6590.031872991547, 20156.13259746225, 0.6, -0.656, 0.508, 192.0, 0.0, 0.0, 0.0, 0.0, 0.0, 0.0, 0.0, 0.0, 0.0, 1.6635890156503723E9, 0.0, 2022-09-19 17:03:35.650
116.0, 23646.804529047553, 58035.61157412668, 14841.826539257354, 135779.806766487, 187500.0, 187500.0, 6610.729588357161, 20157.317239918382, 0.6, -0.656, 0.508, 192.0, 0.0, 0.0, 0.0, 0.0, 0.0, 0.0, 0.0, 0.0, 0.0, 1.6635890156543956E9, 0.0, 2022-09-19 17:03:35.654
117.0, 23646.91628776983, 58052.33067897924, 14834.6516292872, 135791.74259802612, 187500.0, 187500.0, 6627.091065298447, 20185.32397572088, 0.6, -0.656, 0.508, 192.0, 0.0, 0.0, 0.0, 0.0, 0.0, 0.0, 0.0, 0.0, 0.0, 1.6635890156594052E9, 0.0, 2022-09-19 17:03:35.659
118.0, 23647.430377892302, 58082.147906082624, 14834.383408353737, 135814.80959830398, 187500.0, 187500.0, 6626.018181564592, 20184.89929257623, 0.6, -0.656, 0.508, 192.0, 0.0, 0.0, 0.0, 0.0, 0.0, 0.0, 0.0, 0.0, 0.0, 1.663589015663394E9, 0.0, 2022-09-19 17:03:35.663
119.0, 23627.4255666048, 58058.0527255598, 14835.612754298778, 135788.92627822474, 187500.0, 187500.0, 6600.246620207623, 20167.04024875644, 0.6, -0.656, 0.502, 192.0, 18.0, 192.0, 235.0, 128.0, 15.0, 176.0, 0.0, 0.0, 0.0, 1.663589015667422E9, 0.0, 2022-09-19 17:03:35.667
120.0, 23607.554865784034, 58020.85942278617, 14827.36496059477, 135754.30342606347, 187500.0, 187500.0, 6585.516820611575, 20145.426111868157, 0.6, -0.656, 0.502, 192.0, 0.0, 0.0, 0.0, 0.0, 0.0, 0.0, 0.0, 0.0, 0.0, 1.6635890156734498E9, 0.0, 2022-09-19 17:03:35.673
121.0, 23590.344022553447, 58021.95465826448, 14810.958780164574, 135752.55998999596, 187500.0, 187500.0, 6588.914285768782, 20136.016027452475, 0.6, -0.656, 0.502, 192.0, 0.0, 0.0, 0.0, 0.0, 0.0, 0.0, 0.0, 0.0, 0.0, 1.663589015676498E9, 0.0, 2022-09-19 17:03:35.676
122.0, 23602.324557581494, 58045.33458296473, 14820.190050624617, 135768.1838593702, 187500.0, 187500.0, 6603.778195831561, 20170.348306935826, 0.6, -0.656, 0.502, 192.0, 0.0, 0.0, 0.0, 0.0, 0.0, 0.0, 0.0, 0.0, 0.0, 1.6635890156794522E9, 0.0, 2022-09-19 17:03:35.679
123.0, 23636.09804345346, 58070.70381292151, 14802.398062038192, 135785.37235085634, 187500.0, 187500.0, 6588.467250879676, 20172.695240103632, 0.6, -0.656, 0.502, 192.0, 0.0, 0.0, 0.0, 0.0, 0.0, 0.0, 0.0, 0.0, 0.0, 1.663589015682464E9, 0.0, 2022-09-19 17:03:35.682
124.0, 23627.358511371436, 58056.421048214565, 14794.127916589729, 135771.98365592762, 187500.0, 187500.0, 6545.887177692316, 20165.386219666747, 0.6, -0.656, 0.502, 192.0, 0.0, 0.0, 0.0, 0.0, 0.0, 0.0, 0.0, 0.0, 0.0, 1.6635890156874735E9, 0.0, 2022-09-19 17:03:35.687
125.0, 23608.29247335106, 58027.9449257785, 14809.192992352606, 135743.77575442503, 187500.0, 187500.0, 6552.883273706827, 20160.446484142125, 0.6, -0.656, 0.502, 192.0, 0.0, 0.0, 0.0, 0.0, 0.0, 0.0, 0.0, 0.0, 0.0, 1.6635890156914883E9, 0.0, 2022-09-19 17:03:35.691
126.0, 23600.245845347148, 58025.01684725486, 14813.417472054658, 135741.45117300167, 187500.0, 187500.0, 6587.059090978992, 20166.392048167236, 0.6, -0.656, 0.502, 192.0, 0.0, 0.0, 0.0, 0.0, 0.0, 0.0, 0.0, 0.0, 0.0, 1.6635890156954293E9, 0.0, 2022-09-19 17:03:35.695
127.0, 23629.705444539242, 58036.30447820479, 14795.804297423876, 135749.76602193905, 187500.0, 187500.0, 6596.580934116952, 20164.738019077544, 0.6, -0.656, 0.502, 192.0, 0.0, 0.0, 0.0, 0.0, 0.0, 0.0, 0.0, 0.0, 0.0, 1.6635890156994615E9, 0.0, 2022-09-19 17:03:35.699
128.0, 23655.924040785318, 58063.39479248462, 14789.702271187578, 135768.02739715905, 187500.0, 187500.0, 6601.565373130486, 20168.493112146036, 0.6, -0.656, 0.502, 192.0, 0.0, 0.0, 0.0, 0.0, 0.0, 0.0, 0.0, 0.0, 0.0, 1.663589015702459E9, 0.0, 2022-09-19 17:03:35.702
129.0, 23649.419683148826, 58050.766056867375, 14807.270742329449, 135750.14600159478, 187500.0, 187500.0, 6579.928884497748, 20163.911004532696, 0.594, -0.66, 0.502, 192.0, 18.0, 144.0, 235.0, 96.0, 15.0, 176.0, 0.0, 0.0, 0.0, 1.663589015706465E9, 0.0, 2022-09-19 17:03:35.706
130.0, 23654.62763960691, 58029.86717580166, 14839.501957834002, 135729.1353618068, 187500.0, 187500.0, 6592.244695692622, 20174.88571106025, 0.594, -0.66, 0.502, 192.0, 0.0, 0.0, 0.0, 0.0, 0.0, 0.0, 0.0, 0.0, 0.0, 1.663589015710508E9, 0.0, 2022-09-19 17:03:35.710
131.0, 23659.09798849797, 58030.22480371295, 14829.734245507032, 135725.7826001385, 187500.0, 187500.0, 6606.572163888474, 20176.070353516385, 0.594, -0.66, 0.502, 192.0, 0.0, 0.0, 0.0, 0.0, 0.0, 0.0, 0.0, 0.0, 0.0, 1.6635890157145028E9, 0.0, 2022-09-19 17:03:35.714
132.0, 23660.461444909746, 58047.23448124343, 14820.726492491543, 135736.60084445486, 187500.0, 187500.0, 6611.444844179731, 20181.770048352486, 0.594, -0.66, 0.502, 192.0, 0.0, 0.0, 0.0, 0.0, 0.0, 0.0, 0.0, 0.0, 0.0, 1.6635890157195733E9, 0.0, 2022-09-19 17:03:35.719
133.0, 23647.38567440339, 58061.606652928196, 14809.148288863695, 135745.58624572592, 187500.0, 187500.0, 6597.251486450611, 20160.826463797865, 0.594, -0.66, 0.502, 192.0, 0.0, 0.0, 0.0, 0.0, 0.0, 0.0, 0.0, 0.0, 0.0, 1.6635890157234914E9, 0.0, 2022-09-19 17:03:35.723
134.0, 23648.25739243715, 58061.517245950374, 14845.179300925649, 135740.08771658991, 187500.0, 187500.0, 6596.983265517148, 20140.620486810265, 0.594, -0.66, 0.502, 192.0, 0.0, 0.0, 0.0, 0.0, 0.0, 0.0, 0.0, 0.0, 0.0, 1.663589015727491E9, 0.0, 2022-09-19 17:03:35.727
135.0, 23615.869714721408, 58025.1956612105, 14831.388274596726, 135699.6757626147, 187500.0, 187500.0, 6562.20395114469, 20168.7613330795, 0.594, -0.66, 0.502, 192.0, 0.0, 0.0, 0.0, 0.0, 0.0, 0.0, 0.0, 0.0, 0.0, 1.663589015731505E9, 0.0, 2022-09-19 17:03:35.731
136.0, 23606.504333794634, 58008.76712903585, 14813.708044732577, 135681.3249804169, 187500.0, 187500.0, 6562.047488933503, 20162.636955098744, 0.594, -0.66, 0.502, 192.0, 0.0, 0.0, 0.0, 0.0, 0.0, 0.0, 0.0, 0.0, 0.0, 1.663589015735527E9, 0.0, 2022-09-19 17:03:35.735
137.0, 23628.6772642943, 58032.48232990293, 14822.984018681529, 135698.7816928365, 187500.0, 187500.0, 6610.953105801715, 20160.155911464204, 0.594, -0.66, 0.502, 192.0, 0.0, 0.0, 0.0, 0.0, 0.0, 0.0, 0.0, 0.0, 0.0, 1.6635890157385197E9, 0.0, 2022-09-19 17:03:35.738
138.0, 23622.686996780278, 58057.94096683752, 14818.245448857004, 135718.31711749043, 187500.0, 187500.0, 6619.402065205821, 20157.719571318576, 0.594, -0.66, 0.502, 192.0, 0.0, 0.0, 0.0, 0.0, 0.0, 0.0, 0.0, 0.0, 0.0, 1.6635890157425451E9, 0.0, 2022-09-19 17:03:35.742
139.0, 23601.676356992288, 58051.458960945485, 14823.02872217044, 135712.55036742098, 187500.0, 187500.0, 6589.361320657888, 20165.766199322487, 0.606, -0.664, 0.504, 192.0, 18.0, 240.0, 235.0, 64.0, 15.0, 192.0, 0.0, 0.0, 0.0, 1.6635890157475033E9, 0.0, 2022-09-19 17:03:35.747
140.0, 23573.222586300682, 58018.28897217381, 14816.83728895632, 135682.19669845066, 187500.0, 187500.0, 6554.045564418503, 20149.739998548033, 0.606, -0.664, 0.504, 192.0, 0.0, 0.0, 0.0, 0.0, 0.0, 0.0, 0.0, 0.0, 0.0, 1.6635890157515683E9, 0.0, 2022-09-19 17:03:35.751
141.0, 23592.33332780997, 58018.98187625193, 14825.800338482899, 135684.09659672936, 187500.0, 187500.0, 6572.932788483237, 20144.93437349014, 0.606, -0.664, 0.504, 192.0, 0.0, 0.0, 0.0, 0.0, 0.0, 0.0, 0.0, 0.0, 0.0, 1.6635890157545877E9, 0.0, 2022-09-19 17:03:35.754
142.0, 23647.430377892302, 58042.31709746327, 14835.098664176307, 135709.91286157523, 187500.0, 187500.0, 6617.837443093949, 20139.279382142948, 0.606, -0.664, 0.504, 192.0, 0.0, 0.0, 0.0, 0.0, 0.0, 0.0, 0.0, 0.0, 0.0, 1.663589015758556E9, 0.0, 2022-09-19 17:03:35.758
143.0, 23665.512939156644, 58064.08769656273, 14831.298867618903, 135737.36080376635, 187500.0, 187500.0, 6618.485643683153, 20154.880899772754, 0.606, -0.664, 0.504, 192.0, 0.0, 0.0, 0.0, 0.0, 0.0, 0.0, 0.0, 0.0, 0.0, 1.6635890157626386E9, 0.0, 2022-09-19 17:03:35.762
144.0, 23651.67720933881, 58042.31709746327, 14836.663286288178, 135719.65822215774, 187500.0, 187500.0, 6586.545000856519, 20151.237565426538, 0.606, -0.664, 0.504, 192.0, 0.0, 0.0, 0.0, 0.0, 0.0, 0.0, 0.0, 0.0, 0.0, 1.6635890157666016E9, 0.0, 2022-09-19 17:03:35.766
145.0, 23653.95708727325, 58028.168443223054, 14839.971344467564, 135709.9352133197, 187500.0, 187500.0, 6596.424471905765, 20152.019876482475, 0.606, -0.664, 0.504, 192.0, 0.0, 0.0, 0.0, 0.0, 0.0, 0.0, 0.0, 0.0, 0.0, 1.6635890157705977E9, 0.0, 2022-09-19 17:03:35.770
146.0, 23662.361343188448, 58043.03235328584, 14840.12780667875, 135729.47063797363, 187500.0, 187500.0, 6609.477890667665, 20167.08495224535, 0.606, -0.664, 0.504, 192.0, 0.0, 0.0, 0.0, 0.0, 0.0, 0.0, 0.0, 0.0, 0.0, 1.663589015775686E9, 0.0, 2022-09-19 17:03:35.775
147.0, 23647.497433125667, 58044.261699230876, 14816.904344189687, 135733.18102755322, 187500.0, 187500.0, 6593.943428271226, 20153.204518938604, 0.606, -0.664, 0.504, 192.0, 0.0, 0.0, 0.0, 0.0, 0.0, 0.0, 0.0, 0.0, 0.0, 1.6635890157796452E9, 0.0, 2022-09-19 17:03:35.779
148.0, 23642.11066271194, 58043.81466434177, 14792.83151541132, 135733.11397231984, 187500.0, 187500.0, 6561.667509277762, 20127.142384903716, 0.606, -0.664, 0.504, 192.0, 0.0, 0.0, 0.0, 0.0, 0.0, 0.0, 0.0, 0.0, 0.0, 1.6635890157826793E9, 0.0, 2022-09-19 17:03:35.782
149.0, 23654.672343095823, 58039.433722428534, 14831.008294940984, 135734.49978047606, 187500.0, 187500.0, 6581.694672309718, 20147.057789213395, 0.608, -0.662, 0.502, 192.0, 19.0, 0.0, 235.0, 80.0, 15.0, 176.0, 0.0, 0.0, 0.0, 1.6635890157866235E9, 0.0, 2022-09-19 17:03:35.786
150.0, 23642.53534585659, 58022.53580362032, 14827.096739661305, 135722.7874663815, 187500.0, 187500.0, 6576.7996402740055, 20142.40862636669, 0.608, -0.662, 0.502, 192.0, 0.0, 0.0, 0.0, 0.0, 0.0, 0.0, 0.0, 0.0, 0.0, 1.663589015790701E9, 0.0, 2022-09-19 17:03:35.790
151.0, 23617.948426955754, 58019.18304195203, 14815.809108711375, 135721.9381000922, 187500.0, 187500.0, 6574.0950791949135, 20119.386329577726, 0.608, -0.662, 0.502, 192.0, 0.0, 0.0, 0.0, 0.0, 0.0, 0.0, 0.0, 0.0, 0.0, 1.6635890157947488E9, 0.0, 2022-09-19 17:03:35.794
152.0, 23634.39931087486, 58042.18298699654, 14811.897553431698, 135744.13338233632, 187500.0, 187500.0, 6595.440995149732, 20112.054957396384, 0.608, -0.662, 0.502, 192.0, 0.0, 0.0, 0.0, 0.0, 0.0, 0.0, 0.0, 0.0, 0.0, 1.6635890157987356E9, 0.0, 2022-09-19 17:03:35.798
153.0, 23669.58095664751, 58071.374365255164, 14823.699274504099, 135772.72126349466, 187500.0, 187500.0, 6611.802472091016, 20132.350341361802, 0.608, -0.662, 0.502, 192.0, 0.0, 0.0, 0.0, 0.0, 0.0, 0.0, 0.0, 0.0, 0.0, 1.6635890158027742E9, 0.0, 2022-09-19 17:03:35.802
154.0, 23661.668439110334, 58052.48714119043, 14819.988884924518, 135758.37144355435, 187500.0, 187500.0, 6580.934712998237, 20134.6525710407, 0.608, -0.662, 0.502, 192.0, 0.0, 0.0, 0.0, 0.0, 0.0, 0.0, 0.0, 0.0, 0.0, 1.6635890158077552E9, 0.0, 2022-09-19 17:03:35.807
155.0, 23650.67138083832, 58013.371588393646, 14818.26780060146, 135726.31904200543, 187500.0, 187500.0, 6564.573236056953, 20150.119978203773, 0.608, -0.662, 0.502, 192.0, 0.0, 0.0, 0.0, 0.0, 0.0, 0.0, 0.0, 0.0, 0.0, 1.6635890158107448E9, 0.0, 2022-09-19 17:03:35.810
156.0, 23658.29332569758, 58014.33271340522, 14832.617620541767, 135735.8855886323, 187500.0, 187500.0, 6595.910381783293, 20144.46498685658, 0.608, -0.662, 0.502, 192.0, 0.0, 0.0, 0.0, 0.0, 0.0, 0.0, 0.0, 0.0, 0.0, 1.663589015815808E9, 0.0, 2022-09-19 17:03:35.815
157.0, 23661.914308299343, 58029.68836184602, 14829.89070771822, 135759.8913621773, 187500.0, 187500.0, 6617.412759949299, 20124.594286035812, 0.608, -0.662, 0.502, 192.0, 0.0, 0.0, 0.0, 0.0, 0.0, 0.0, 0.0, 0.0, 0.0, 1.663589015818754E9, 0.0, 2022-09-19 17:03:35.818
158.0, 23638.512031854636, 58048.329716721746, 14828.16962339516, 135785.72997876763, 187500.0, 187500.0, 6610.573126145974, 20116.32414058735, 0.608, -0.662, 0.502, 192.0, 0.0, 0.0, 0.0, 0.0, 0.0, 0.0, 0.0, 0.0, 0.0, 1.6635890158227096E9, 0.0, 2022-09-19 17:03:35.822
159.0, 23618.52957231159, 58036.93032704954, 14825.107434404783, 135782.9583624552, 187500.0, 187500.0, 6556.414849330766, 20140.687542043634, 0.606, -0.66, 0.496, 192.0, 18.0, 240.0, 235.0, 96.0, 15.0, 128.0, 0.0, 0.0, 0.0, 1.663589015826712E9, 0.0, 2022-09-19 17:03:35.826
160.0, 23637.617962076423, 58003.31330338876, 14831.231812385538, 135762.10418487838, 187500.0, 187500.0, 6567.210741902679, 20125.488355814025, 0.606, -0.66, 0.496, 192.0, 0.0, 0.0, 0.0, 0.0, 0.0, 0.0, 0.0, 0.0, 0.0, 1.6635890158308032E9, 0.0, 2022-09-19 17:03:35.830
161.0, 23680.64507015289, 58013.32688490473, 14840.17251016766, 135783.33834211092, 187500.0, 187500.0, 6623.537137930052, 20134.093777429316, 0.606, -0.66, 0.496, 192.0, 0.0, 0.0, 0.0, 0.0, 0.0, 0.0, 0.0, 0.0, 0.0, 1.663589015835752E9, 0.0, 2022-09-19 17:03:35.835
162.0, 23680.39920096388, 58029.82247231275, 14835.992733954517, 135807.70174356722, 187500.0, 187500.0, 6638.401047992832, 20132.193879150615, 0.606, -0.66, 0.496, 192.0, 0.0, 0.0, 0.0, 0.0, 0.0, 0.0, 0.0, 0.0, 0.0, 1.66358901583875E9, 0.0, 2022-09-19 17:03:35.838
163.0, 23659.09798849797, 58045.446341687006, 14818.379559323736, 135830.09819151144, 187500.0, 187500.0, 6623.492434441142, 20127.16473664817, 0.606, -0.66, 0.496, 192.0, 0.0, 0.0, 0.0, 0.0, 0.0, 0.0, 0.0, 0.0, 0.0, 1.6635890158427608E9, 0.0, 2022-09-19 17:03:35.842
164.0, 23645.441072635782, 58036.90797530508, 14828.50489956199, 135831.7075171122, 187500.0, 187500.0, 6601.16304173029, 20140.396969365713, 0.606, -0.66, 0.496, 192.0, 0.0, 0.0, 0.0, 0.0, 0.0, 0.0, 0.0, 0.0, 0.0, 1.663589015846756E9, 0.0, 2022-09-19 17:03:35.846
165.0, 23658.025104764118, 58035.455111915486, 14839.814882256376, 135844.29154924056, 187500.0, 187500.0, 6608.807338334005, 20171.37648718077, 0.606, -0.66, 0.496, 192.0, 0.0, 0.0, 0.0, 0.0, 0.0, 0.0, 0.0, 0.0, 0.0, 1.6635890158507433E9, 0.0, 2022-09-19 17:03:35.850
166.0, 23688.669346412345, 58034.471635159454, 14818.670132001655, 135849.7677266321, 187500.0, 187500.0, 6607.332123199955, 20156.065542228884, 0.606, -0.66, 0.496, 192.0, 0.0, 0.0, 0.0, 0.0, 0.0, 0.0, 0.0, 0.0, 0.0, 1.6635890158547957E9, 0.0, 2022-09-19 17:03:35.854
167.0, 23675.414761950346, 58024.59216411021, 14819.944181435607, 135845.8114678635, 187500.0, 187500.0, 6615.646972137329, 20135.300771629903, 0.606, -0.66, 0.496, 192.0, 0.0, 0.0, 0.0, 0.0, 0.0, 0.0, 0.0, 0.0, 0.0, 1.6635890158587816E9, 0.0, 2022-09-19 17:03:35.858
168.0, 23655.38759891839, 58036.32682994924, 14811.361111564769, 135862.91055237182, 187500.0, 187500.0, 6617.233945993656, 20131.858602983786, 0.606, -0.66, 0.496, 192.0, 0.0, 0.0, 0.0, 0.0, 0.0, 0.0, 0.0, 0.0, 0.0, 1.663589015863814E9, 0.0, 2022-09-19 17:03:35.863
169.0, 23676.39823870638, 58035.23159447093, 14831.634143785734, 135866.15155531783, 187500.0, 187500.0, 6604.180527231757, 20142.83330951134, 0.604, -0.658, 0.5, 192.0, 18.0, 224.0, 235.0, 112.0, 15.0, 160.0, 0.0, 0.0, 0.0, 1.6635890158668337E9, 0.0, 2022-09-19 17:03:35.866
170.0, 23674.028953794117, 58023.206355953975, 14826.761463494477, 135862.7317384162, 187500.0, 187500.0, 6594.636332349341, 20150.27644041496, 0.604, -0.658, 0.5, 192.0, 0.0, 0.0, 0.0, 0.0, 0.0, 0.0, 0.0, 0.0, 0.0, 1.6635890158697798E9, 0.0, 2022-09-19 17:03:35.869
171.0, 23671.123227014927, 58034.85161481519, 14832.483510075035, 135881.46250026973, 187500.0, 187500.0, 6612.607134891407, 20158.83715854134, 0.604, -0.658, 0.5, 192.0, 0.0, 0.0, 0.0, 0.0, 0.0, 0.0, 0.0, 0.0, 0.0, 1.6635890158747656E9, 0.0, 2022-09-19 17:03:35.874
172.0, 23661.623735621422, 58046.429818443044, 14834.495167076013, 135896.1252446324, 187500.0, 187500.0, 6626.755789131616, 20166.168530722683, 0.604, -0.658, 0.5, 192.0, 0.0, 0.0, 0.0, 0.0, 0.0, 0.0, 0.0, 0.0, 0.0, 1.6635890158787892E9, 0.0, 2022-09-19 17:03:35.878
173.0, 23642.53534585659, 58048.97791731095, 14810.802317953387, 135896.9746109217, 187500.0, 187500.0, 6608.650876122818, 20137.51359433098, 0.604, -0.658, 0.5, 192.0, 0.0, 0.0, 0.0, 0.0, 0.0, 0.0, 0.0, 0.0, 0.0, 1.6635890158828511E9, 0.0, 2022-09-19 17:03:35.882
174.0, 23625.77153751511, 58028.324905434245, 14798.821782925343, 135876.94744788975, 187500.0, 187500.0, 6562.0027854445925, 20133.758501262488, 0.604, -0.658, 0.5, 192.0, 0.0, 0.0, 0.0, 0.0, 0.0, 0.0, 0.0, 0.0, 0.0, 1.6635890158868847E9, 0.0, 2022-09-19 17:03:35.886
175.0, 23647.095101725474, 58030.33656243522, 14820.324161091348, 135882.69184621476, 187500.0, 187500.0, 6584.510992111086, 20173.70106860412, 0.604, -0.658, 0.5, 192.0, 0.0, 0.0, 0.0, 0.0, 0.0, 0.0, 0.0, 0.0, 0.0, 1.6635890158918602E9, 0.0, 2022-09-19 17:03:35.891
176.0, 23645.843404035975, 58020.635905341616, 14813.082195887828, 135871.33716003146, 187500.0, 187500.0, 6593.921076526771, 20146.163719435182, 0.604, -0.658, 0.5, 192.0, 0.0, 0.0, 0.0, 0.0, 0.0, 0.0, 0.0, 0.0, 0.0, 1.6635890158947852E9, 0.0, 2022-09-19 17:03:35.894
177.0, 23649.754959315655, 58032.68349560303, 14821.866431458764, 135878.55677349053, 187500.0, 187500.0, 6615.669323881784, 20125.6001145363, 0.604, -0.658, 0.5, 192.0, 0.0, 0.0, 0.0, 0.0, 0.0, 0.0, 0.0, 0.0, 0.0, 1.6635890158989246E9, 0.0, 2022-09-19 17:03:35.898
178.0, 23654.091197739985, 58060.66787966107, 14821.084120402827, 135903.05428541356, 187500.0, 187500.0, 6609.343780200932, 20135.524289074456, 0.604, -0.658, 0.5, 192.0, 0.0, 0.0, 0.0, 0.0, 0.0, 0.0, 0.0, 0.0, 0.0, 1.6635890159028003E9, 0.0, 2022-09-19 17:03:35.902
179.0, 23633.929924241296, 58048.307364977285, 14829.51072806248, 135889.73264571818, 187500.0, 187500.0, 6584.689806066729, 20126.78475699243, 0.596, -0.654, 0.502, 192.0, 18.0, 160.0, 235.0, 144.0, 15.0, 176.0, 0.0, 0.0, 0.0, 1.6635890159068098E9, 0.0, 2022-09-19 17:03:35.906
180.0, 23643.272953423617, 58015.4950041169, 14842.810016013387, 135855.6685871683, 187500.0, 187500.0, 6613.54590815853, 20114.960684175574, 0.596, -0.654, 0.502, 192.0, 0.0, 0.0, 0.0, 0.0, 0.0, 0.0, 0.0, 0.0, 0.0, 1.6635890159108355E9, 0.0, 2022-09-19 17:03:35.910
181.0, 23671.92788981532, 58018.35602740718, 14845.55928058139, 135858.23903778064, 187500.0, 187500.0, 6638.2669375261, 20127.812937237377, 0.596, -0.654, 0.502, 192.0, 0.0, 0.0, 0.0, 0.0, 0.0, 0.0, 0.0, 0.0, 0.0, 1.6635890159148388E9, 0.0, 2022-09-19 17:03:35.914
182.0, 23677.20290150677, 58042.40650444109, 14835.389236854226, 135881.01546538062, 187500.0, 187500.0, 6649.711030687217, 20136.664228041678, 0.596, -0.654, 0.502, 192.0, 0.0, 0.0, 0.0, 0.0, 0.0, 0.0, 0.0, 0.0, 0.0, 1.6635890159188316E9, 0.0, 2022-09-19 17:03:35.918
183.0, 23681.807360864565, 58063.93123435155, 14838.943164222619, 135897.823977211, 187500.0, 187500.0, 6649.219292309201, 20137.781815264443, 0.596, -0.654, 0.502, 192.0, 0.0, 0.0, 0.0, 0.0, 0.0, 0.0, 0.0, 0.0, 0.0, 1.6635890159219003E9, 0.0, 2022-09-19 17:03:35.921
184.0, 23672.8890148269, 58048.19560625501, 14847.839158515832, 135879.98728513566, 187500.0, 187500.0, 6627.672210654285, 20136.351303619304, 0.596, -0.654, 0.502, 192.0, 0.0, 0.0, 0.0, 0.0, 0.0, 0.0, 0.0, 0.0, 0.0, 1.6635890159259005E9, 0.0, 2022-09-19 17:03:35.925
185.0, 23652.705389583756, 58017.17138495105, 14830.985943196529, 135850.05829931, 187500.0, 187500.0, 6608.606172633908, 20117.37467257675, 0.596, -0.654, 0.502, 192.0, 0.0, 0.0, 0.0, 0.0, 0.0, 0.0, 0.0, 0.0, 0.0, 1.6635890159308567E9, 0.0, 2022-09-19 17:03:35.930
186.0, 23653.867680295432, 58019.18304195203, 14822.916963448164, 135851.4664592107, 187500.0, 187500.0, 6614.417626192288, 20122.202649379095, 0.596, -0.654, 0.502, 192.0, 0.0, 0.0, 0.0, 0.0, 0.0, 0.0, 0.0, 0.0, 0.0, 1.6635890159348905E9, 0.0, 2022-09-19 17:03:35.934
187.0, 23665.11060775645, 58039.34431545071, 14822.69344600361, 135869.5266687306, 187500.0, 187500.0, 6620.653762895318, 20127.36590234827, 0.596, -0.654, 0.502, 192.0, 0.0, 0.0, 0.0, 0.0, 0.0, 0.0, 0.0, 0.0, 0.0, 1.6635890159388893E9, 0.0, 2022-09-19 17:03:35.938
188.0, 23658.516843142133, 58046.40746669858, 14813.17160286565, 135874.3769972774, 187500.0, 187500.0, 6611.534251157553, 20110.93737017362, 0.596, -0.654, 0.502, 192.0, 0.0, 0.0, 0.0, 0.0, 0.0, 0.0, 0.0, 0.0, 0.0, 1.6635890159428928E9, 0.0, 2022-09-19 17:03:35.942
189.0, 23656.326372185515, 58031.40944616908, 14822.335818092326, 135859.580142448, 187500.0, 187500.0, 6610.439015679242, 20107.674015483146, 0.596, -0.654, 0.502, 192.0, 0.0, 0.0, 0.0, 0.0, 0.0, 0.0, 0.0, 0.0, 0.0, 1.6635890159468908E9, 0.0, 2022-09-19 17:03:35.946
190.0, 23657.62277336392, 58020.36768440816, 14820.771195980455, 135845.63265390787, 187500.0, 187500.0, 6605.946315043726, 20110.088003884317, 0.598, -0.652, 0.496, 192.0, 18.0, 176.0, 235.0, 160.0, 15.0, 128.0, 0.0, 0.0, 0.0, 1.663589015949877E9, 0.0, 2022-09-19 17:03:35.949
191.0, 23687.68586965631, 58043.5017399194, 14834.69633277611, 135866.6656454403, 187500.0, 187500.0, 6630.868510111393, 20139.458196098592, 0.598, -0.652, 0.496, 192.0, 0.0, 0.0, 0.0, 0.0, 0.0, 0.0, 0.0, 0.0, 0.0, 1.663589015953976E9, 0.0, 2022-09-19 17:03:35.953
192.0, 23691.373907491437, 58056.66691740357, 14828.84017572882, 135874.19818332174, 187500.0, 187500.0, 6638.244585781645, 20136.910097230684, 0.598, -0.652, 0.496, 192.0, 0.0, 0.0, 0.0, 0.0, 0.0, 0.0, 0.0, 0.0, 0.0, 1.6635890159589128E9, 0.0, 2022-09-19 17:03:35.958
193.0, 23669.625660136422, 58061.89722560612, 14806.935466162618, 135874.68992169976, 187500.0, 187500.0, 6617.725684371672, 20124.683693013634, 0.598, -0.652, 0.496, 192.0, 0.0, 0.0, 0.0, 0.0, 0.0, 0.0, 0.0, 0.0, 0.0, 1.663589015962933E9, 0.0, 2022-09-19 17:03:35.962
194.0, 23659.656782109356, 58050.18491151153, 14809.237695841515, 135861.86002038242, 187500.0, 187500.0, 6592.982303259648, 20135.680751285643, 0.598, -0.652, 0.496, 192.0, 0.0, 0.0, 0.0, 0.0, 0.0, 0.0, 0.0, 0.0, 0.0, 1.6635890159669516E9, 0.0, 2022-09-19 17:03:35.966
195.0, 23655.67817159631, 58036.39388518261, 14834.875146731752, 135845.67735739678, 187500.0, 187500.0, 6604.962838287693, 20135.323123374357, 0.598, -0.652, 0.496, 192.0, 0.0, 0.0, 0.0, 0.0, 0.0, 0.0, 0.0, 0.0, 0.0, 1.6635890159709525E9, 0.0, 2022-09-19 17:03:35.970
196.0, 23640.031950477594, 58044.261699230876, 14836.5515275659, 135849.99124407663, 187500.0, 187500.0, 6623.671248396784, 20135.166661163174, 0.598, -0.652, 0.496, 192.0, 0.0, 0.0, 0.0, 0.0, 0.0, 0.0, 0.0, 0.0, 0.0, 1.6635890159739373E9, 0.0, 2022-09-19 17:03:35.973
197.0, 23642.803566790055, 58075.66590019059, 14836.953858966097, 135875.78515717806, 187500.0, 187500.0, 6644.525425973586, 20150.119978203773, 0.598, -0.652, 0.496, 192.0, 0.0, 0.0, 0.0, 0.0, 0.0, 0.0, 0.0, 0.0, 0.0, 1.6635890159779692E9, 0.0, 2022-09-19 17:03:35.977
198.0, 23639.76372954413, 58084.47248750598, 14837.780873510943, 135879.29438105755, 187500.0, 187500.0, 6637.328164258977, 20132.775024506453, 0.598, -0.652, 0.496, 192.0, 0.0, 0.0, 0.0, 0.0, 0.0, 0.0, 0.0, 0.0, 0.0, 1.6635890159819553E9, 0.0, 2022-09-19 17:03:35.981
199.0, 23640.38957838888, 58054.27528074686, 14843.234699158038, 135847.5102004421, 187500.0, 187500.0, 6618.642105894341, 20124.147251146707, 0.598, -0.652, 0.496, 192.0, 0.0, 0.0, 0.0, 0.0, 0.0, 0.0, 0.0, 0.0, 0.0, 1.6635890159879436E9, 0.0, 2022-09-19 17:03:35.987
200.0, 23674.87832008342, 58050.67664988955, 14858.836216787842, 135842.68222363977, 187500.0, 187500.0, 6636.299984014033, 20143.123882189262, 0.602, -0.658, 0.504, 192.0, 18.0, 208.0, 235.0, 112.0, 15.0, 192.0, 0.0, 0.0, 0.0, 1.6635890159910057E9, 0.0, 2022-09-19 17:03:35.991
201.0, 23666.205843234762, 58053.627080157654, 14851.214271928582, 135839.4188689493, 187500.0, 187500.0, 6647.095876585946, 20132.350341361802, 0.602, -0.658, 0.504, 192.0, 0.0, 0.0, 0.0, 0.0, 0.0, 0.0, 0.0, 0.0, 0.0, 1.663589015994968E9, 0.0, 2022-09-19 17:03:35.994
202.0, 23638.847308021464, 58058.34329823772, 14822.089948903316, 135837.27310148158, 187500.0, 187500.0, 6641.351478260932, 20109.015120150463, 0.602, -0.658, 0.504, 192.0, 0.0, 0.0, 0.0, 0.0, 0.0, 0.0, 0.0, 0.0, 0.0, 1.6635890159989984E9, 0.0, 2022-09-19 17:03:35.998
203.0, 23659.455616409257, 58089.36751954169, 14848.397952127214, 135862.4635174827, 187500.0, 187500.0, 6654.628414467385, 20139.905230987697, 0.602, -0.658, 0.504, 192.0, 0.0, 0.0, 0.0, 0.0, 0.0, 0.0, 0.0, 0.0, 0.0, 1.6635890160019968E9, 0.0, 2022-09-19 17:03:36.001
204.0, 23694.726669159732, 58082.12555433817, 14871.710821594099, 135849.7677266321, 187500.0, 187500.0, 6647.0064696081245, 20151.192861937627, 0.602, -0.658, 0.504, 192.0, 0.0, 0.0, 0.0, 0.0, 0.0, 0.0, 0.0, 0.0, 0.0, 1.6635890160059924E9, 0.0, 2022-09-19 17:03:36.005
205.0, 23691.6421284249, 58058.43270521554, 14856.355173153303, 135817.84943554993, 187500.0, 187500.0, 6636.679963669773, 20132.529155317447, 0.602, -0.658, 0.504, 192.0, 0.0, 0.0, 0.0, 0.0, 0.0, 0.0, 0.0, 0.0, 0.0, 1.6635890160099688E9, 0.0, 2022-09-19 17:03:36.009
206.0, 23644.658761579845, 58046.698039376504, 14837.93733572213, 135801.89029000883, 187500.0, 187500.0, 6636.724667158684, 20115.161849875672, 0.602, -0.658, 0.504, 192.0, 0.0, 0.0, 0.0, 0.0, 0.0, 0.0, 0.0, 0.0, 0.0, 1.6635890160150523E9, 0.0, 2022-09-19 17:03:36.015
207.0, 23615.467383321215, 58060.3549552387, 14821.285286102926, 135808.48405462314, 187500.0, 187500.0, 6638.60221369293, 20104.768288703955, 0.602, -0.658, 0.504, 192.0, 0.0, 0.0, 0.0, 0.0, 0.0, 0.0, 0.0, 0.0, 0.0, 1.6635890160190463E9, 0.0, 2022-09-19 17:03:36.019
208.0, 23655.052322751562, 58072.514304222386, 14820.905306447186, 135810.00397324612, 187500.0, 187500.0, 6636.836425880961, 20094.665300210156, 0.602, -0.658, 0.504, 192.0, 0.0, 0.0, 0.0, 0.0, 0.0, 0.0, 0.0, 0.0, 0.0, 1.6635890160230365E9, 0.0, 2022-09-19 17:03:36.023
209.0, 23685.227177766228, 58058.07507730426, 14834.875146731752, 135786.9593247127, 187500.0, 187500.0, 6623.581841418963, 20107.159925360673, 0.602, -0.658, 0.504, 192.0, 0.0, 0.0, 0.0, 0.0, 0.0, 0.0, 0.0, 0.0, 0.0, 1.6635890160270462E9, 0.0, 2022-09-19 17:03:36.027
210.0, 23685.942433588796, 58045.73691436493, 14842.005353212995, 135769.92729543775, 187500.0, 187500.0, 6625.325277486477, 20123.186126135126, 0.602, -0.652, 0.512, 192.0, 18.0, 208.0, 235.0, 160.0, 16.0, 0.0, 0.0, 0.0, 0.0, 1.66358901603007E9, 0.0, 2022-09-19 17:03:36.030
211.0, 23677.78404686261, 58052.91182433508, 14836.707989777087, 135772.788318728, 187500.0, 187500.0, 6634.042457824047, 20137.804167008897, 0.602, -0.652, 0.512, 192.0, 0.0, 0.0, 0.0, 0.0, 0.0, 0.0, 0.0, 0.0, 0.0, 1.6635890160340889E9, 0.0, 2022-09-19 17:03:36.034
212.0, 23683.461389954256, 58087.48997300744, 14836.037437443429, 135799.67746730775, 187500.0, 187500.0, 6646.917062630304, 20158.345420163325, 0.602, -0.652, 0.512, 192.0, 0.0, 0.0, 0.0, 0.0, 0.0, 0.0, 0.0, 0.0, 0.0, 1.6635890160380716E9, 0.0, 2022-09-19 17:03:36.038
213.0, 23672.73255261571, 58098.01764464589, 14830.22598388505, 135801.68912430873, 187500.0, 187500.0, 6636.188225291757, 20153.22687068306, 0.602, -0.652, 0.512, 192.0, 0.0, 0.0, 0.0, 0.0, 0.0, 0.0, 0.0, 0.0, 0.0, 1.6635890160429363E9, 0.0, 2022-09-19 17:03:36.042
214.0, 23647.989171503687, 58068.803914642805, 14818.424262812647, 135769.25674310408, 187500.0, 187500.0, 6600.425434163265, 20145.828443268354, 0.602, -0.652, 0.512, 192.0, 0.0, 0.0, 0.0, 0.0, 0.0, 0.0, 0.0, 0.0, 0.0, 1.6635890160470617E9, 0.0, 2022-09-19 17:03:36.047
215.0, 23646.737473814188, 58054.92348133606, 14817.060806400874, 135753.40935628526, 187500.0, 187500.0, 6594.569277115975, 20149.963515992586, 0.602, -0.652, 0.512, 192.0, 0.0, 0.0, 0.0, 0.0, 0.0, 0.0, 0.0, 0.0, 0.0, 1.6635890160511415E9, 0.0, 2022-09-19 17:03:36.051
216.0, 23657.10868324145, 58047.14507426561, 14817.440786056613, 135741.09354509038, 187500.0, 187500.0, 6609.2543732231115, 20131.724492517056, 0.602, -0.652, 0.512, 192.0, 0.0, 0.0, 0.0, 0.0, 0.0, 0.0, 0.0, 0.0, 0.0, 1.6635890160541232E9, 0.0, 2022-09-19 17:03:36.054
217.0, 23672.30786947106, 58069.65328093211, 14824.705103004588, 135754.72810920814, 187500.0, 187500.0, 6634.131864801868, 20120.190992378117, 0.602, -0.652, 0.512, 192.0, 0.0, 0.0, 0.0, 0.0, 0.0, 0.0, 0.0, 0.0, 0.0, 1.663589016058121E9, 0.0, 2022-09-19 17:03:36.058
218.0, 23653.197127961772, 58092.54146725434, 14825.465062316069, 135769.301446593, 187500.0, 187500.0, 6633.684829912762, 20120.347454589304, 0.602, -0.652, 0.512, 192.0, 0.0, 0.0, 0.0, 0.0, 0.0, 0.0, 0.0, 0.0, 0.0, 1.6635890160621274E9, 0.0, 2022-09-19 17:03:36.062
219.0, 23606.14670588335, 58064.78060064085, 14808.231867341026, 135735.1926845542, 187500.0, 187500.0, 6598.100852739913, 20096.811067677863, 0.602, -0.652, 0.512, 192.0, 0.0, 0.0, 0.0, 0.0, 0.0, 0.0, 0.0, 0.0, 0.0, 1.6635890160661998E9, 0.0, 2022-09-19 17:03:36.066
220.0, 23632.857040507442, 58045.938080065025, 14810.869373186753, 135709.80110285297, 187500.0, 187500.0, 6601.297152197022, 20100.566160746355, 0.6, -0.658, 0.508, 192.0, 18.0, 192.0, 235.0, 112.0, 15.0, 224.0, 0.0, 0.0, 0.0, 1.663589016070155E9, 0.0, 2022-09-19 17:03:36.070
221.0, 23679.236910252206, 58041.177158496044, 14824.101605904294, 135699.20637598116, 187500.0, 187500.0, 6622.30779198501, 20106.355262560282, 0.6, -0.658, 0.508, 192.0, 0.0, 0.0, 0.0, 0.0, 0.0, 0.0, 0.0, 0.0, 0.0, 1.6635890160751693E9, 0.0, 2022-09-19 17:03:36.075
222.0, 23673.090180526993, 58055.90695809209, 14815.138556377717, 135701.5756608934, 187500.0, 187500.0, 6632.634297923362, 20095.939349644108, 0.6, -0.658, 0.508, 192.0, 0.0, 0.0, 0.0, 0.0, 0.0, 0.0, 0.0, 0.0, 0.0, 1.6635890160791447E9, 0.0, 2022-09-19 17:03:36.079
223.0, 23663.6353926224, 58077.27522579137, 14819.675960502143, 135710.0916755309, 187500.0, 187500.0, 6634.2659752685995, 20100.767326446454, 0.6, -0.658, 0.508, 192.0, 0.0, 0.0, 0.0, 0.0, 0.0, 0.0, 0.0, 0.0, 0.0, 1.6635890160821524E9, 0.0, 2022-09-19 17:03:36.082
224.0, 23659.05328500906, 58062.94775759552, 14824.88391696023, 135688.61164910934, 187500.0, 187500.0, 6618.485643683153, 20108.210457350073, 0.6, -0.658, 0.508, 192.0, 0.0, 0.0, 0.0, 0.0, 0.0, 0.0, 0.0, 0.0, 0.0, 1.6635890160861397E9, 0.0, 2022-09-19 17:03:36.086
225.0, 23654.001790762162, 58043.65820213059, 14818.290152345915, 135663.75650927503, 187500.0, 187500.0, 6613.948239558726, 20108.389271305714, 0.6, -0.658, 0.508, 192.0, 0.0, 0.0, 0.0, 0.0, 0.0, 0.0, 0.0, 0.0, 0.0, 1.6635890160911477E9, 0.0, 2022-09-19 17:03:36.091
226.0, 23670.16210200335, 58047.07801903225, 14837.736170022032, 135665.25407615353, 187500.0, 187500.0, 6634.310678757511, 20123.052015668396, 0.6, -0.658, 0.508, 192.0, 0.0, 0.0, 0.0, 0.0, 0.0, 0.0, 0.0, 0.0, 0.0, 1.66358901609516E9, 0.0, 2022-09-19 17:03:36.095
227.0, 23705.388451264913, 58070.43559198804, 14858.188016198637, 135682.8225472954, 187500.0, 187500.0, 6664.798458194549, 20140.59813506581, 0.6, -0.658, 0.508, 192.0, 0.0, 0.0, 0.0, 0.0, 0.0, 0.0, 0.0, 0.0, 0.0, 1.663589016098163E9, 0.0, 2022-09-19 17:03:36.098
228.0, 23688.87051211244, 58072.82722864476, 14845.671039303666, 135678.35219840435, 187500.0, 187500.0, 6655.522484245597, 20124.862506969275, 0.6, -0.658, 0.508, 192.0, 0.0, 0.0, 0.0, 0.0, 0.0, 0.0, 0.0, 0.0, 0.0, 1.6635890161022327E9, 0.0, 2022-09-19 17:03:36.102
229.0, 23643.317656912524, 58043.52409166385, 14834.986905454029, 135646.90329395572, 187500.0, 187500.0, 6620.385541961854, 20113.351358574793, 0.6, -0.658, 0.508, 192.0, 0.0, 0.0, 0.0, 0.0, 0.0, 0.0, 0.0, 0.0, 0.0, 1.66358901610724E9, 0.0, 2022-09-19 17:03:36.107
230.0, 23634.041682963572, 58027.63200135613, 14838.183204911138, 135626.58555824586, 187500.0, 187500.0, 6622.576012918475, 20117.441727810114, 0.594, -0.662, 0.504, 192.0, 18.0, 144.0, 235.0, 80.0, 15.0, 192.0, 0.0, 0.0, 0.0, 1.6635890161101968E9, 0.0, 2022-09-19 17:03:36.110
231.0, 23669.424494436324, 58039.076094517244, 14843.994658469519, 135639.12488688529, 187500.0, 187500.0, 6645.330088773977, 20125.913038958675, 0.594, -0.662, 0.504, 192.0, 0.0, 0.0, 0.0, 0.0, 0.0, 0.0, 0.0, 0.0, 0.0, 1.6635890161141913E9, 0.0, 2022-09-19 17:03:36.114
232.0, 23677.672288140333, 58079.68921419254, 14847.258013159993, 135676.72052105912, 187500.0, 187500.0, 6670.587560008474, 20144.800263023408, 0.594, -0.662, 0.504, 192.0, 0.0, 0.0, 0.0, 0.0, 0.0, 0.0, 0.0, 0.0, 0.0, 1.663589016118238E9, 0.0, 2022-09-19 17:03:36.118
233.0, 23672.978421804717, 58087.668786963084, 14846.810978270887, 135683.13547171777, 187500.0, 187500.0, 6660.037536625569, 20138.98880946503, 0.594, -0.662, 0.504, 192.0, 0.0, 0.0, 0.0, 0.0, 0.0, 0.0, 0.0, 0.0, 0.0, 1.6635890161221955E9, 0.0, 2022-09-19 17:03:36.122
234.0, 23670.117398514438, 58049.849635344704, 14837.847928744308, 135644.3104915989, 187500.0, 187500.0, 6622.799530363028, 20108.188105605615, 0.594, -0.662, 0.504, 192.0, 0.0, 0.0, 0.0, 0.0, 0.0, 0.0, 0.0, 0.0, 0.0, 1.6635890161261904E9, 0.0, 2022-09-19 17:03:36.126
235.0, 23643.04943597906, 58028.3472571787, 14830.851832729797, 135623.255148322, 187500.0, 187500.0, 6615.848137837427, 20104.678881726133, 0.594, -0.662, 0.504, 192.0, 0.0, 0.0, 0.0, 0.0, 0.0, 0.0, 0.0, 0.0, 0.0, 1.6635890161312342E9, 0.0, 2022-09-19 17:03:36.131
236.0, 23667.54694790208, 58049.96139406698, 14842.787664268932, 135647.260921867, 187500.0, 187500.0, 6641.910271872315, 20129.55637330489, 0.594, -0.662, 0.504, 192.0, 0.0, 0.0, 0.0, 0.0, 0.0, 0.0, 0.0, 0.0, 0.0, 1.6635890161353788E9, 0.0, 2022-09-19 17:03:36.135
237.0, 23673.336049716003, 58069.92150186557, 14841.714780535076, 135668.51743084402, 187500.0, 187500.0, 6653.130847588879, 20129.198745393605, 0.594, -0.662, 0.504, 192.0, 0.0, 0.0, 0.0, 0.0, 0.0, 0.0, 0.0, 0.0, 0.0, 1.6635890161382124E9, 0.0, 2022-09-19 17:03:36.138
238.0, 23669.02216303613, 58073.94481586752, 14828.281382117437, 135671.15493668974, 187500.0, 187500.0, 6635.897652613838, 20103.98597764802, 0.594, -0.662, 0.504, 192.0, 0.0, 0.0, 0.0, 0.0, 0.0, 0.0, 0.0, 0.0, 0.0, 1.6635890161421745E9, 0.0, 2022-09-19 17:03:36.142
239.0, 23673.760732860654, 58056.82337961476, 14827.32025710586, 135654.6817010262, 187500.0, 187500.0, 6614.1270535143685, 20112.88197194123, 0.594, -0.662, 0.504, 192.0, 0.0, 0.0, 0.0, 0.0, 0.0, 0.0, 0.0, 0.0, 0.0, 1.663589016146254E9, 0.0, 2022-09-19 17:03:36.146
240.0, 23675.861796839454, 58040.37249569566, 14829.801300740399, 135641.20359911962, 187500.0, 187500.0, 6616.295172726533, 20124.437823824625, 0.6, -0.656, 0.502, 192.0, 18.0, 192.0, 235.0, 128.0, 15.0, 176.0, 0.0, 0.0, 0.0, 1.6635890161502595E9, 0.0, 2022-09-19 17:03:36.150
241.0, 23681.986174820206, 58045.35693470919, 14839.546661322913, 135647.08210791138, 187500.0, 187500.0, 6637.529329959075, 20124.37076859126, 0.6, -0.656, 0.502, 192.0, 0.0, 0.0, 0.0, 0.0, 0.0, 0.0, 0.0, 0.0, 0.0, 1.6635890161542118E9, 0.0, 2022-09-19 17:03:36.154
242.0, 23680.913291086352, 58062.97010933997, 14836.283306632437, 135661.45427959613, 187500.0, 187500.0, 6654.918987145304, 20112.41258530767, 0.6, -0.656, 0.502, 192.0, 0.0, 0.0, 0.0, 0.0, 0.0, 0.0, 0.0, 0.0, 0.0, 1.663589016160231E9, 0.0, 2022-09-19 17:03:36.160
243.0, 23665.7364566012, 58078.370461269675, 14827.767291994965, 135671.40080587874, 187500.0, 187500.0, 6646.64884169684, 20107.4952015275, 0.6, -0.656, 0.502, 192.0, 0.0, 0.0, 0.0, 0.0, 0.0, 0.0, 0.0, 0.0, 0.0, 1.6635890161632352E9, 0.0, 2022-09-19 17:03:36.163
244.0, 23660.215575720737, 58050.408428956085, 14827.096739661305, 135639.2142938631, 187500.0, 187500.0, 6620.586707661952, 20089.25617805197, 0.6, -0.656, 0.502, 192.0, 0.0, 0.0, 0.0, 0.0, 0.0, 0.0, 0.0, 0.0, 0.0, 1.6635890161663184E9, 0.0, 2022-09-19 17:03:36.166
245.0, 23681.427381208825, 58035.92449854905, 14843.525271835957, 135625.66913672318, 187500.0, 187500.0, 6638.065771826002, 20112.770213218955, 0.6, -0.656, 0.502, 192.0, 0.0, 0.0, 0.0, 0.0, 0.0, 0.0, 0.0, 0.0, 0.0, 1.6635890161702683E9, 0.0, 2022-09-19 17:03:36.170
246.0, 23688.959919090263, 58043.18881549702, 14853.382391140747, 135635.39214556126, 187500.0, 187500.0, 6661.2668825706105, 20127.20944013708, 0.6, -0.656, 0.502, 192.0, 0.0, 0.0, 0.0, 0.0, 0.0, 0.0, 0.0, 0.0, 0.0, 1.6635890161742692E9, 0.0, 2022-09-19 17:03:36.174
247.0, 23675.034782294606, 58053.984708068936, 14836.730341521543, 135645.04809916593, 187500.0, 187500.0, 6667.503019273641, 20112.390233563216, 0.6, -0.656, 0.502, 192.0, 0.0, 0.0, 0.0, 0.0, 0.0, 0.0, 0.0, 0.0, 0.0, 1.6635890161783512E9, 0.0, 2022-09-19 17:03:36.178
248.0, 23655.275840196115, 58056.33164123674, 14823.051073914896, 135645.65159626622, 187500.0, 187500.0, 6653.533178989074, 20092.653643209178, 0.6, -0.656, 0.502, 192.0, 0.0, 0.0, 0.0, 0.0, 0.0, 0.0, 0.0, 0.0, 0.0, 1.663589016182359E9, 0.0, 2022-09-19 17:03:36.182
249.0, 23634.421662619312, 58026.93909727802, 14817.016102911963, 135617.08606685235, 187500.0, 187500.0, 6620.966687317692, 20083.19885530458, 0.6, -0.656, 0.502, 192.0, 0.0, 0.0, 0.0, 0.0, 0.0, 0.0, 0.0, 0.0, 0.0, 1.6635890161863196E9, 0.0, 2022-09-19 17:03:36.186
250.0, 23641.82009003402, 58016.56788785075, 14825.50976580498, 135607.81009290338, 187500.0, 187500.0, 6624.811187364005, 20094.21826532105, 0.594, -0.654, 0.498, 192.0, 18.0, 144.0, 235.0, 144.0, 15.0, 144.0, 0.0, 0.0, 0.0, 1.6635890161912887E9, 0.0, 2022-09-19 17:03:36.191
251.0, 23660.01441002064, 58040.64071662912, 14835.433940343135, 135634.7662967165, 187500.0, 187500.0, 6654.963690634214, 20117.37467257675, 0.594, -0.654, 0.498, 192.0, 0.0, 0.0, 0.0, 0.0, 0.0, 0.0, 0.0, 0.0, 0.0, 1.6635890161943116E9, 0.0, 2022-09-19 17:03:36.194
252.0, 23664.596517633978, 58066.278167519355, 14832.97524845305, 135661.2754656405, 187500.0, 187500.0, 6673.314472832021, 20122.359111590282, 0.594, -0.654, 0.498, 192.0, 0.0, 0.0, 0.0, 0.0, 0.0, 0.0, 0.0, 0.0, 0.0, 1.6635890161983151E9, 0.0, 2022-09-19 17:03:36.198
253.0, 23638.444976621267, 58061.11491455018, 14816.434957556125, 135654.94992195963, 187500.0, 187500.0, 6648.302870786532, 20103.471887525546, 0.594, -0.654, 0.498, 192.0, 0.0, 0.0, 0.0, 0.0, 0.0, 0.0, 0.0, 0.0, 0.0, 1.6635890162023885E9, 0.0, 2022-09-19 17:03:36.202
254.0, 23618.596627544957, 58021.95465826448, 14796.988939880008, 135619.34359304234, 187500.0, 187500.0, 6606.370998188377, 20088.49621874049, 0.594, -0.654, 0.498, 192.0, 0.0, 0.0, 0.0, 0.0, 0.0, 0.0, 0.0, 0.0, 0.0, 1.6635890162063289E9, 0.0, 2022-09-19 17:03:36.206
255.0, 23637.886183009887, 58017.03727448431, 14815.496184289, 135617.9577848861, 187500.0, 187500.0, 6616.697504126729, 20111.049128895895, 0.594, -0.654, 0.498, 192.0, 0.0, 0.0, 0.0, 0.0, 0.0, 0.0, 0.0, 0.0, 0.0, 1.6635890162103136E9, 0.0, 2022-09-19 17:03:36.210
0.0, 23667.72576185772, 58034.58339388173, 14835.545699065413, 135635.6156630058, 187500.0, 187500.0, 6644.570129462497, 20122.962608690574, 0.594, -0.654, 0.498, 192.0, 0.0, 0.0, 0.0, 0.0, 0.0, 0.0, 0.0, 0.0, 0.0, 1.6635890162143266E9, 0.0, 2022-09-19 17:03:36.214
1.0, 23691.060983069063, 58059.19266452702, 14839.054922944895, 135661.3201691294, 187500.0, 187500.0, 6666.832466939983, 20126.695350014612, 0.594, -0.654, 0.498, 192.0, 0.0, 0.0, 0.0, 0.0, 0.0, 0.0, 0.0, 0.0, 0.0, 1.663589016218378E9, 0.0, 2022-09-19 17:03:36.218
2.0, 23685.65186091088, 58068.33452800924, 14831.298867618903, 135669.74677678905, 187500.0, 187500.0, 6651.0521353545355, 20118.6487220107, 0.594, -0.654, 0.498, 192.0, 0.0, 0.0, 0.0, 0.0, 0.0, 0.0, 0.0, 0.0, 0.0, 1.6635890162213836E9, 0.0, 2022-09-19 17:03:36.221
3.0, 23666.854043823965, 58050.74370512291, 14829.89070771822, 135653.16178240321, 187500.0, 187500.0, 6621.100797784424, 20129.22109713806, 0.594, -0.654, 0.498, 192.0, 0.0, 0.0, 0.0, 0.0, 0.0, 0.0, 0.0, 0.0, 0.0, 1.6635890162253428E9, 0.0, 2022-09-19 17:03:36.225
4.0, 23660.819072821032, 58048.933213822034, 14842.430036357646, 135655.08403242638, 187500.0, 187500.0, 6630.68969615575, 20152.533966604944, 0.598, -0.652, 0.504, 192.0, 18.0, 176.0, 235.0, 160.0, 15.0, 192.0, 0.0, 0.0, 0.0, 1.6635890162303853E9, 0.0, 2022-09-19 17:03:36.230
5.0, 23649.24086919318, 58036.77386483835, 14828.259030372981, 135643.3270148429, 187500.0, 187500.0, 6632.388428734354, 20128.03645468193, 0.598, -0.652, 0.504, 192.0, 0.0, 0.0, 0.0, 0.0, 0.0, 0.0, 0.0, 0.0, 0.0, 1.6635890162343867E9, 0.0, 2022-09-19 17:03:36.234
6.0, 23651.6325058499, 58038.38319043913, 14815.809108711375, 135642.90233169822, 187500.0, 187500.0, 6635.271803769088, 20101.035547379917, 0.598, -0.652, 0.504, 192.0, 0.0, 0.0, 0.0, 0.0, 0.0, 0.0, 0.0, 0.0, 0.0, 1.6635890162384028E9, 0.0, 2022-09-19 17:03:36.238
7.0, 23652.705389583756, 58066.993423341926, 14825.353303593793, 135668.98681747756, 187500.0, 187500.0, 6636.858777625415, 20115.899457442698, 0.598, -0.652, 0.504, 192.0, 0.0, 0.0, 0.0, 0.0, 0.0, 0.0, 0.0, 0.0, 0.0, 1.663589016242389E9, 0.0, 2022-09-19 17:03:36.242
8.0, 23643.54117435708, 58061.025507572354, 14841.22304215706, 135662.3707011188, 187500.0, 187500.0, 6619.446768694731, 20126.78475699243, 0.598, -0.652, 0.504, 192.0, 0.0, 0.0, 0.0, 0.0, 0.0, 0.0, 0.0, 0.0, 0.0, 1.6635890162464275E9, 0.0, 2022-09-19 17:03:36.246
9.0, 23654.940564029286, 58041.043048029314, 14843.301754391403, 135644.64576776573, 187500.0, 187500.0, 6624.185338519256, 20110.847963195796, 0.598, -0.652, 0.504, 192.0, 0.0, 0.0, 0.0, 0.0, 0.0, 0.0, 0.0, 0.0, 0.0, 1.6635890162494204E9, 0.0, 2022-09-19 17:03:36.249
10.0, 23679.01339280765, 58041.668896874064, 14837.579707810844, 135640.6671572527, 187500.0, 187500.0, 6639.496283471141, 20106.26585558246, 0.598, -0.652, 0.504, 192.0, 0.0, 0.0, 0.0, 0.0, 0.0, 0.0, 0.0, 0.0, 0.0, 1.6635890162544172E9, 0.0, 2022-09-19 17:03:36.254
11.0, 23683.997831821183, 58066.568740197275, 14842.385332868736, 135665.41053836473, 187500.0, 187500.0, 6664.84316168346, 20117.30761734338, 0.598, -0.652, 0.504, 192.0, 0.0, 0.0, 0.0, 0.0, 0.0, 0.0, 0.0, 0.0, 0.0, 1.6635890162583852E9, 0.0, 2022-09-19 17:03:36.258
12.0, 23663.59068913349, 58088.026414874366, 14843.547623580413, 135683.73896881807, 187500.0, 187500.0, 6660.953958148237, 20120.749785989497, 0.598, -0.652, 0.504, 192.0, 0.0, 0.0, 0.0, 0.0, 0.0, 0.0, 0.0, 0.0, 0.0, 1.663589016262405E9, 0.0, 2022-09-19 17:03:36.262
13.0, 23644.882279024398, 58060.198493027514, 14837.535004321935, 135652.3794713473, 187500.0, 187500.0, 6629.773274633083, 20104.343605559305, 0.598, -0.652, 0.504, 192.0, 0.0, 0.0, 0.0, 0.0, 0.0, 0.0, 0.0, 0.0, 0.0, 1.6635890162665205E9, 0.0, 2022-09-19 17:03:36.266
14.0, 23663.59068913349, 58031.92353629155, 14836.685638032634, 135620.28236630946, 187500.0, 187500.0, 6630.443826966743, 20097.5933787338, 0.602, -0.652, 0.5, 192.0, 18.0, 208.0, 235.0, 160.0, 15.0, 160.0, 0.0, 0.0, 0.0, 1.6635890162704296E9, 0.0, 2022-09-19 17:03:36.270
15.0, 23677.381715462416, 58032.19175722501, 14841.357152623792, 135616.54962498543, 187500.0, 187500.0, 6650.180417320778, 20110.959721918076, 0.602, -0.652, 0.5, 192.0, 0.0, 0.0, 0.0, 0.0, 0.0, 0.0, 0.0, 0.0, 0.0, 1.663589016274472E9, 0.0, 2022-09-19 17:03:36.274
16.0, 23682.634375409412, 58050.475484189454, 14833.154062408694, 135628.1054768688, 187500.0, 187500.0, 6663.502057016141, 20111.697329485098, 0.602, -0.652, 0.5, 192.0, 0.0, 0.0, 0.0, 0.0, 0.0, 0.0, 0.0, 0.0, 0.0, 1.663589016278544E9, 0.0, 2022-09-19 17:03:36.278
17.0, 23658.181566975305, 58058.85738836019, 14817.463137801069, 135626.8090756904, 187500.0, 187500.0, 6643.229024795178, 20098.50980025647, 0.602, -0.652, 0.5, 192.0, 0.0, 0.0, 0.0, 0.0, 0.0, 0.0, 0.0, 0.0, 0.0, 1.6635890162814662E9, 0.0, 2022-09-19 17:03:36.281
18.0, 23639.741377799677, 58039.90310906209, 14818.781890723933, 135609.84410164884, 187500.0, 187500.0, 6622.1736815182785, 20101.75080320249, 0.602, -0.652, 0.5, 192.0, 0.0, 0.0, 0.0, 0.0, 0.0, 0.0, 0.0, 0.0, 0.0, 1.6635890162864873E9, 0.0, 2022-09-19 17:03:36.286
19.0, 23644.52465111311, 58030.94005953551, 14821.777024480944, 135602.02099108946, 187500.0, 187500.0, 6629.16977753279, 20110.445631795603, 0.602, -0.652, 0.5, 192.0, 0.0, 0.0, 0.0, 0.0, 0.0, 0.0, 0.0, 0.0, 0.0, 1.6635890162904832E9, 0.0, 2022-09-19 17:03:36.290
20.0, 23653.040665750585, 58030.09069324621, 14823.229887870537, 135596.8130346314, 187500.0, 187500.0, 6643.3631352619095, 20105.483544526523, 0.602, -0.652, 0.5, 192.0, 0.0, 0.0, 0.0, 0.0, 0.0, 0.0, 0.0, 0.0, 0.0, 1.6635890162944665E9, 0.0, 2022-09-19 17:03:36.294
21.0, 23657.7345320862, 58055.169350525066, 14824.101605904294, 135612.57101447237, 187500.0, 187500.0, 6662.406821537831, 20109.50685852848, 0.602, -0.652, 0.5, 192.0, 0.0, 0.0, 0.0, 0.0, 0.0, 0.0, 0.0, 0.0, 0.0, 1.663589016298568E9, 0.0, 2022-09-19 17:03:36.298
22.0, 23650.91725002733, 58068.13336230915, 14825.755634993988, 135616.99665987454, 187500.0, 187500.0, 6650.672155698795, 20112.23377135203, 0.602, -0.652, 0.5, 192.0, 0.0, 0.0, 0.0, 0.0, 0.0, 0.0, 0.0, 0.0, 0.0, 1.6635890163015864E9, 0.0, 2022-09-19 17:03:36.301
23.0, 23639.38374988839, 58045.6028038982, 14822.246411114504, 135591.5603746844, 187500.0, 187500.0, 6623.73830363015, 20107.964588161063, 0.602, -0.652, 0.5, 192.0, 0.0, 0.0, 0.0, 0.0, 0.0, 0.0, 0.0, 0.0, 0.0, 1.6635890163055768E9, 0.0, 2022-09-19 17:03:36.305
24.0, 23634.86869750842, 58022.42404489804, 14813.909210432676, 135565.43118541612, 187500.0, 187500.0, 6619.804396606016, 20095.64877696619, 0.602, -0.652, 0.5, 192.0, 0.0, 0.0, 0.0, 0.0, 0.0, 0.0, 0.0, 0.0, 0.0, 1.6635890163094776E9, 0.0, 2022-09-19 17:03:36.309
25.0, 23628.49845033866, 58021.23940244191, 14803.470945772046, 135559.9326562801, 187500.0, 187500.0, 6626.711085642706, 20092.296015297892, 0.598, -0.654, 0.496, 192.0, 18.0, 176.0, 235.0, 144.0, 15.0, 128.0, 0.0, 0.0, 0.0, 1.663589016314574E9, 0.0, 2022-09-19 17:03:36.314
26.0, 23628.386691616382, 58046.63098414314, 14798.240637569505, 135580.33979896782, 187500.0, 187500.0, 6641.7761614055835, 20107.226980594038, 0.598, -0.654, 0.496, 192.0, 0.0, 0.0, 0.0, 0.0, 0.0, 0.0, 0.0, 0.0, 0.0, 1.663589016318624E9, 0.0, 2022-09-19 17:03:36.318
27.0, 23629.616037561424, 58064.311214007284, 14804.879105672731, 135593.03558981844, 187500.0, 187500.0, 6637.55168170353, 20120.347454589304, 0.598, -0.654, 0.496, 192.0, 0.0, 0.0, 0.0, 0.0, 0.0, 0.0, 0.0, 0.0, 0.0, 1.6635890163225577E9, 0.0, 2022-09-19 17:03:36.322
28.0, 23611.309958852526, 58039.18785323952, 14818.513669790467, 135568.0016360285, 187500.0, 187500.0, 6615.378751203865, 20115.005387664485, 0.598, -0.654, 0.496, 192.0, 0.0, 0.0, 0.0, 0.0, 0.0, 0.0, 0.0, 0.0, 0.0, 1.6635890163267057E9, 0.0, 2022-09-19 17:03:36.326
29.0, 23632.454709107245, 58040.57366139575, 14828.773120495454, 135565.9452755386, 187500.0, 187500.0, 6628.0968937989355, 20133.98201870704, 0.598, -0.654, 0.496, 192.0, 0.0, 0.0, 0.0, 0.0, 0.0, 0.0, 0.0, 0.0, 0.0, 1.6635890163295703E9, 0.0, 2022-09-19 17:03:36.329
30.0, 23628.05141544955, 58043.72525736395, 14819.564201779867, 135561.92196153666, 187500.0, 187500.0, 6636.50114971413, 20115.854753953787, 0.598, -0.654, 0.496, 192.0, 0.0, 0.0, 0.0, 0.0, 0.0, 0.0, 0.0, 0.0, 0.0, 1.6635890163337364E9, 0.0, 2022-09-19 17:03:36.333
31.0, 23596.691917978755, 58045.49104517592, 14799.939370148108, 135556.13285972274, 187500.0, 187500.0, 6634.377733990877, 20088.96560537405, 0.598, -0.654, 0.496, 192.0, 0.0, 0.0, 0.0, 0.0, 0.0, 0.0, 0.0, 0.0, 0.0, 1.663589016337642E9, 0.0, 2022-09-19 17:03:36.337
32.0, 23600.737583725167, 58061.472542461466, 14813.909210432676, 135567.66635986167, 187500.0, 187500.0, 6634.891824113349, 20107.294035827403, 0.598, -0.654, 0.496, 192.0, 0.0, 0.0, 0.0, 0.0, 0.0, 0.0, 0.0, 0.0, 0.0, 1.6635890163425815E9, 0.0, 2022-09-19 17:03:36.342
33.0, 23637.237982420684, 58051.593071412215, 14824.973323938051, 135553.02596724345, 187500.0, 187500.0, 6623.671248396784, 20125.689521514123, 0.598, -0.654, 0.496, 192.0, 0.0, 0.0, 0.0, 0.0, 0.0, 0.0, 0.0, 0.0, 0.0, 1.6635890163466847E9, 0.0, 2022-09-19 17:03:36.346
34.0, 23648.21268894824, 58031.52120489135, 14813.529230776934, 135528.17082740914, 187500.0, 187500.0, 6616.988076804648, 20124.16960289116, 0.598, -0.654, 0.496, 192.0, 0.0, 0.0, 0.0, 0.0, 0.0, 0.0, 0.0, 0.0, 0.0, 1.6635890163506477E9, 0.0, 2022-09-19 17:03:36.350
35.0, 23650.11258722694, 58041.1995102405, 14806.957817907074, 135532.03767919992, 187500.0, 187500.0, 6628.342762987943, 20125.98009419204, 0.6, -0.65, 0.494, 192.0, 18.0, 192.0, 235.0, 176.0, 15.0, 112.0, 0.0, 0.0, 0.0, 1.6635890163556268E9, 0.0, 2022-09-19 17:03:36.355
36.0, 23661.713142599245, 58068.62510068716, 14803.985035894519, 135551.05901373137, 187500.0, 187500.0, 6643.430190495275, 20130.673960527656, 0.6, -0.65, 0.494, 192.0, 0.0, 0.0, 0.0, 0.0, 0.0, 0.0, 0.0, 0.0, 0.0, 1.6635890163595908E9, 0.0, 2022-09-19 17:03:36.359
37.0, 23679.169855018838, 58079.66686244808, 14820.726492491543, 135554.92586552215, 187500.0, 187500.0, 6641.642050938851, 20133.311466373383, 0.6, -0.65, 0.494, 192.0, 0.0, 0.0, 0.0, 0.0, 0.0, 0.0, 0.0, 0.0, 0.0, 1.6635890163626976E9, 0.0, 2022-09-19 17:03:36.362
38.0, 23659.29915419807, 58049.8049318558, 14818.781890723933, 135519.0960191603, 187500.0, 187500.0, 6619.335009972455, 20116.681768498634, 0.6, -0.65, 0.494, 192.0, 0.0, 0.0, 0.0, 0.0, 0.0, 0.0, 0.0, 0.0, 0.0, 1.6635890163657022E9, 0.0, 2022-09-19 17:03:36.365
39.0, 23651.185470960794, 58031.051818257794, 14807.516611518457, 135497.95126890557, 187500.0, 187500.0, 6621.771350118083, 20104.567123003857, 0.6, -0.65, 0.494, 192.0, 0.0, 0.0, 0.0, 0.0, 0.0, 0.0, 0.0, 0.0, 0.0, 1.663589016369702E9, 0.0, 2022-09-19 17:03:36.369
40.0, 23650.023180249118, 58046.13924576512, 14804.655588228177, 135507.85309169927, 187500.0, 187500.0, 6644.45837074022, 20115.02773940894, 0.6, -0.65, 0.494, 192.0, 0.0, 0.0, 0.0, 0.0, 0.0, 0.0, 0.0, 0.0, 0.0, 1.6635890163737671E9, 0.0, 2022-09-19 17:03:36.373
41.0, 23659.992058276184, 58077.45403974701, 14815.362073822269, 135535.25633040146, 187500.0, 187500.0, 6667.257150084633, 20124.46017556908, 0.6, -0.65, 0.494, 192.0, 0.0, 0.0, 0.0, 0.0, 0.0, 0.0, 0.0, 0.0, 0.0, 1.6635890163787568E9, 0.0, 2022-09-19 17:03:36.378
42.0, 23672.911366571352, 58072.87193213367, 14802.59922773829, 135525.35450760776, 187500.0, 187500.0, 6649.040478353558, 20094.911169399165, 0.6, -0.65, 0.494, 192.0, 0.0, 0.0, 0.0, 0.0, 0.0, 0.0, 0.0, 0.0, 0.0, 1.663589016381702E9, 0.0, 2022-09-19 17:03:36.381
43.0, 23647.363322658937, 58036.93032704954, 14785.298977529881, 135486.19425132207, 187500.0, 187500.0, 6612.49537616913, 20076.06864882334, 0.6, -0.65, 0.494, 192.0, 0.0, 0.0, 0.0, 0.0, 0.0, 0.0, 0.0, 0.0, 0.0, 1.6635890163857338E9, 0.0, 2022-09-19 17:03:36.385
44.0, 23637.5285550986, 58029.218975212454, 14788.40587000917, 135475.35365526125, 187500.0, 187500.0, 6614.395274447832, 20080.091962825296, 0.6, -0.65, 0.494, 192.0, 0.0, 0.0, 0.0, 0.0, 0.0, 0.0, 0.0, 0.0, 0.0, 1.6635890163897028E9, 0.0, 2022-09-19 17:03:36.389
45.0, 23621.9270374688, 58028.92840253454, 14785.54484671889, 135469.31868425832, 187500.0, 187500.0, 6619.044437294536, 20072.91705285514, 0.602, -0.65, 0.5, 192.0, 18.0, 208.0, 235.0, 176.0, 15.0, 160.0, 0.0, 0.0, 0.0, 1.6635890163937292E9, 0.0, 2022-09-19 17:03:36.393
46.0, 23624.117508425417, 58057.91861509307, 14788.763497920454, 135493.99501013698, 187500.0, 187500.0, 6644.480722484675, 20085.992823361496, 0.602, -0.65, 0.5, 192.0, 0.0, 0.0, 0.0, 0.0, 0.0, 0.0, 0.0, 0.0, 0.0, 1.6635890163977296E9, 0.0, 2022-09-19 17:03:36.397
47.0, 23627.514973582623, 58084.83011541726, 14793.636178211711, 135517.75491449295, 187500.0, 187500.0, 6640.680925927273, 20105.528248015435, 0.602, -0.65, 0.5, 192.0, 0.0, 0.0, 0.0, 0.0, 0.0, 0.0, 0.0, 0.0, 0.0, 1.6635890164036913E9, 0.0, 2022-09-19 17:03:36.403
48.0, 23638.512031854636, 58064.534731451844, 14797.368919535747, 135495.7384462045, 187500.0, 187500.0, 6612.964762802692, 20103.896570670197, 0.602, -0.65, 0.5, 192.0, 0.0, 0.0, 0.0, 0.0, 0.0, 0.0, 0.0, 0.0, 0.0, 1.6635890164067564E9, 0.0, 2022-09-19 17:03:36.406
49.0, 23636.142746942372, 58035.90214680459, 14785.187218807605, 135462.94843708855, 187500.0, 187500.0, 6602.817070819983, 20078.706154669067, 0.602, -0.65, 0.5, 192.0, 0.0, 0.0, 0.0, 0.0, 0.0, 0.0, 0.0, 0.0, 0.0, 1.6635890164096625E9, 0.0, 2022-09-19 17:03:36.409
50.0, 23632.34295038497, 58044.37345795315, 14777.431163481613, 135467.5752481908, 187500.0, 187500.0, 6614.216460492189, 20082.327137270826, 0.602, -0.65, 0.5, 192.0, 0.0, 0.0, 0.0, 0.0, 0.0, 0.0, 0.0, 0.0, 0.0, 1.6635890164138567E9, 0.0, 2022-09-19 17:03:36.413
51.0, 23633.68405505229, 58073.2072083005, 14777.811143137355, 135488.98821937898, 187500.0, 187500.0, 6628.543928688041, 20081.45541923707, 0.602, -0.65, 0.5, 192.0, 0.0, 0.0, 0.0, 0.0, 0.0, 0.0, 0.0, 0.0, 0.0, 1.6635890164177525E9, 0.0, 2022-09-19 17:03:36.417
52.0, 23625.883296237385, 58084.740708439436, 14779.912207116153, 135493.99501013698, 187500.0, 187500.0, 6615.289344226044, 20080.717811670045, 0.602, -0.65, 0.5, 192.0, 0.0, 0.0, 0.0, 0.0, 0.0, 0.0, 0.0, 0.0, 0.0, 1.6635890164217787E9, 0.0, 2022-09-19 17:03:36.421
53.0, 23635.271028908617, 58066.769905897374, 14798.866486414254, 135472.02324533742, 187500.0, 187500.0, 6600.8054138190055, 20096.431088022124, 0.602, -0.65, 0.5, 192.0, 0.0, 0.0, 0.0, 0.0, 0.0, 0.0, 0.0, 0.0, 0.0, 1.6635890164257607E9, 0.0, 2022-09-19 17:03:36.425
54.0, 23632.410005618338, 58039.25490847289, 14786.6400821972, 135442.98832928998, 187500.0, 187500.0, 6594.368111415877, 20082.46124773756, 0.602, -0.65, 0.5, 192.0, 0.0, 0.0, 0.0, 0.0, 0.0, 0.0, 0.0, 0.0, 0.0, 1.6635890164297516E9, 0.0, 2022-09-19 17:03:36.429
55.0, 23622.396424102357, 58035.05278051529, 14778.615805937745, 135434.5617216303, 187500.0, 187500.0, 6599.486660896142, 20072.872349366233, 0.606, -0.65, 0.5, 192.0, 18.0, 240.0, 235.0, 176.0, 15.0, 160.0, 0.0, 0.0, 0.0, 1.6635890164347427E9, 0.0, 2022-09-19 17:03:36.434
56.0, 23628.29728463856, 58071.77669665536, 14780.739221660999, 135464.6248179227, 187500.0, 187500.0, 6625.9287745867705, 20081.76834365944, 0.606, -0.65, 0.5, 192.0, 0.0, 0.0, 0.0, 0.0, 0.0, 0.0, 0.0, 0.0, 0.0, 1.6635890164377365E9, 0.0, 2022-09-19 17:03:36.437
57.0, 23622.418775846814, 58088.78637418585, 14780.605111194267, 135476.69475992856, 187500.0, 187500.0, 6616.40693144881, 20092.810105420365, 0.606, -0.65, 0.5, 192.0, 0.0, 0.0, 0.0, 0.0, 0.0, 0.0, 0.0, 0.0, 0.0, 1.6635890164417248E9, 0.0, 2022-09-19 17:03:36.441
58.0, 23606.52668553909, 58059.90792034959, 14775.933596603109, 135446.6316636362, 187500.0, 187500.0, 6587.64023633483, 20094.084154854318, 0.606, -0.65, 0.5, 192.0, 0.0, 0.0, 0.0, 0.0, 0.0, 0.0, 0.0, 0.0, 0.0, 1.6635890164458227E9, 0.0, 2022-09-19 17:03:36.445
59.0, 23595.730792967177, 58031.02946651333, 14765.294166242382, 135416.6132708327, 187500.0, 187500.0, 6583.549867099508, 20074.191102289093, 0.606, -0.65, 0.5, 192.0, 0.0, 0.0, 0.0, 0.0, 0.0, 0.0, 0.0, 0.0, 0.0, 1.663589016449794E9, 0.0, 2022-09-19 17:03:36.449
60.0, 23611.80169723054, 58045.312231220276, 14768.646927910679, 135427.5656256158, 187500.0, 187500.0, 6612.473024424676, 20082.483599482013, 0.606, -0.65, 0.5, 192.0, 0.0, 0.0, 0.0, 0.0, 0.0, 0.0, 0.0, 0.0, 0.0, 1.6635890164537892E9, 0.0, 2022-09-19 17:03:36.453
61.0, 23633.549944585557, 58079.62215895917, 14779.576930949323, 135455.70647188503, 187500.0, 187500.0, 6639.049248582036, 20095.805239177374, 0.606, -0.65, 0.5, 192.0, 0.0, 0.0, 0.0, 0.0, 0.0, 0.0, 0.0, 0.0, 0.0, 1.6635890164577837E9, 0.0, 2022-09-19 17:03:36.457
62.0, 23650.69373258278, 58079.912731637094, 14791.579817721822, 135451.41493694962, 187500.0, 187500.0, 6629.460350210709, 20088.384460018213, 0.606, -0.65, 0.5, 192.0, 0.0, 0.0, 0.0, 0.0, 0.0, 0.0, 0.0, 0.0, 0.0, 1.6635890164627879E9, 0.0, 2022-09-19 17:03:36.462
63.0, 23650.894898282873, 58044.52992016434, 14787.757669419965, 135414.89218650965, 187500.0, 187500.0, 6604.06876850948, 20077.186236046105, 0.606, -0.65, 0.5, 192.0, 0.0, 0.0, 0.0, 0.0, 0.0, 0.0, 0.0, 0.0, 0.0, 1.6635890164658391E9, 0.0, 2022-09-19 17:03:36.465
64.0, 23646.670418580823, 58029.509547890375, 14787.98118686452, 135401.27997413636, 187500.0, 187500.0, 6612.964762802692, 20082.46124773756, 0.606, -0.65, 0.5, 192.0, 0.0, 0.0, 0.0, 0.0, 0.0, 0.0, 0.0, 0.0, 0.0, 1.6635890164698217E9, 0.0, 2022-09-19 17:03:36.469
65.0, 23653.97943901771, 58054.02941155784, 14796.608960224266, 135423.3187941693, 187500.0, 187500.0, 6640.122132315891, 20099.06859386785, 0.606, -0.65, 0.502, 192.0, 18.0, 240.0, 235.0, 176.0, 15.0, 176.0, 0.0, 0.0, 0.0, 1.663589016473859E9, 0.0, 2022-09-19 17:03:36.473
66.0, 23643.384712145893, 58066.6581471751, 14788.07059384234, 135429.7560965724, 187500.0, 187500.0, 6644.436018995764, 20077.610919190756, 0.606, -0.65, 0.502, 192.0, 0.0, 0.0, 0.0, 0.0, 0.0, 0.0, 0.0, 0.0, 0.0, 1.6635890164778476E9, 0.0, 2022-09-19 17:03:36.477
67.0, 23625.05628169254, 58061.472542461466, 14779.6886896716, 135417.12736095517, 187500.0, 187500.0, 6621.950164073725, 20062.903471339163, 0.606, -0.65, 0.502, 192.0, 0.0, 0.0, 0.0, 0.0, 0.0, 0.0, 0.0, 0.0, 0.0, 1.6635890164817803E9, 0.0, 2022-09-19 17:03:36.481
68.0, 23616.76378449962, 58041.4006759406, 14781.342718761292, 135393.14393915463, 187500.0, 187500.0, 6601.610076619396, 20079.93550061411, 0.606, -0.65, 0.502, 192.0, 0.0, 0.0, 0.0, 0.0, 0.0, 0.0, 0.0, 0.0, 0.0, 1.6635890164858649E9, 0.0, 2022-09-19 17:03:36.485
69.0, 23617.76961300011, 58045.49104517592, 14782.817933895343, 135397.99426770143, 187500.0, 187500.0, 6615.289344226044, 20106.6458352382, 0.606, -0.65, 0.502, 192.0, 0.0, 0.0, 0.0, 0.0, 0.0, 0.0, 0.0, 0.0, 0.0, 1.6635890164909213E9, 0.0, 2022-09-19 17:03:36.490
70.0, 23566.405304241813, 58031.56590838026, 14762.835474352298, 135383.82326171675, 187500.0, 187500.0, 6610.662533123796, 20064.579852173312, 0.606, -0.65, 0.502, 192.0, 0.0, 0.0, 0.0, 0.0, 0.0, 0.0, 0.0, 0.0, 0.0, 1.6635890164938436E9, 0.0, 2022-09-19 17:03:36.493
71.0, 23567.209967042207, 58037.64558287211, 14748.48565441199, 135385.47729080645, 187500.0, 187500.0, 6613.568259902985, 20031.05223549035, 0.606, -0.65, 0.502, 192.0, 0.0, 0.0, 0.0, 0.0, 0.0, 0.0, 0.0, 0.0, 0.0, 1.6635890164968452E9, 0.0, 2022-09-19 17:03:36.496
72.0, 23624.028101447595, 58055.59403366972, 14756.44287543808, 135398.44130259054, 187500.0, 187500.0, 6612.629486635863, 20047.123139753716, 0.606, -0.65, 0.502, 192.0, 0.0, 0.0, 0.0, 0.0, 0.0, 0.0, 0.0, 0.0, 0.0, 1.6635890165019228E9, 0.0, 2022-09-19 17:03:36.501
73.0, 23668.999811291673, 58050.58724291173, 14772.267910512437, 135389.76882574186, 187500.0, 187500.0, 6605.387521432343, 20074.39226798919, 0.606, -0.65, 0.502, 192.0, 0.0, 0.0, 0.0, 0.0, 0.0, 0.0, 0.0, 0.0, 0.0, 1.6635890165058506E9, 0.0, 2022-09-19 17:03:36.505
74.0, 23665.334125201003, 58047.45799868798, 14775.106582058263, 135384.38205532814, 187500.0, 187500.0, 6609.656704623307, 20083.109448326763, 0.606, -0.65, 0.502, 192.0, 0.0, 0.0, 0.0, 0.0, 0.0, 0.0, 0.0, 0.0, 0.0, 1.663589016509922E9, 0.0, 2022-09-19 17:03:36.509
75.0, 23622.821107247008, 58045.8486730872, 14760.041506295385, 135378.12356688065, 187500.0, 187500.0, 6611.713065113195, 20063.574023672823, 0.604, -0.654, 0.494, 192.0, 18.0, 224.0, 235.0, 144.0, 15.0, 112.0, 0.0, 0.0, 0.0, 1.663589016513899E9, 0.0, 2022-09-19 17:03:36.513
76.0, 23582.140932338352, 58041.80300734079, 14732.548860615358, 135369.0934621207, 187500.0, 187500.0, 6602.772367331072, 20027.72182556651, 0.604, -0.654, 0.494, 192.0, 0.0, 0.0, 0.0, 0.0, 0.0, 0.0, 0.0, 0.0, 0.0, 1.6635890165179224E9, 0.0, 2022-09-19 17:03:36.517
77.0, 23621.234133390684, 58053.09063829073, 14746.764570088932, 135375.08372963473, 187500.0, 187500.0, 6601.453614408209, 20040.127043739205, 0.604, -0.654, 0.494, 192.0, 0.0, 0.0, 0.0, 0.0, 0.0, 0.0, 0.0, 0.0, 0.0, 1.663589016520887E9, 0.0, 2022-09-19 17:03:36.520
78.0, 23643.585877845988, 58046.563928909774, 14759.594471406279, 135365.33836905222, 187500.0, 187500.0, 6595.396291660821, 20069.363125486747, 0.604, -0.654, 0.494, 192.0, 0.0, 0.0, 0.0, 0.0, 0.0, 0.0, 0.0, 0.0, 0.0, 1.6635890165249426E9, 0.0, 2022-09-19 17:03:36.524
79.0, 23644.994037746674, 58042.026524785346, 14761.606128407257, 135356.77765092585, 187500.0, 187500.0, 6597.54205912853, 20080.427238992124, 0.604, -0.654, 0.494, 192.0, 0.0, 0.0, 0.0, 0.0, 0.0, 0.0, 0.0, 0.0, 0.0, 1.6635890165298557E9, 0.0, 2022-09-19 17:03:36.529
80.0, 23647.519784870125, 58045.938080065025, 14754.67708762611, 135355.36949102517, 187500.0, 187500.0, 6609.1426145008345, 20074.01228833345, 0.604, -0.654, 0.494, 192.0, 0.0, 0.0, 0.0, 0.0, 0.0, 0.0, 0.0, 0.0, 0.0, 1.6635890165339363E9, 0.0, 2022-09-19 17:03:36.533
81.0, 23643.228249934706, 58067.37340299766, 14749.424427679114, 135368.8028894428, 187500.0, 187500.0, 6617.993905305137, 20066.34563998528, 0.604, -0.654, 0.494, 192.0, 0.0, 0.0, 0.0, 0.0, 0.0, 0.0, 0.0, 0.0, 0.0, 1.6635890165378888E9, 0.0, 2022-09-19 17:03:36.537
82.0, 23621.167078157316, 58063.43949597353, 14753.000706791963, 135360.01865387187, 187500.0, 187500.0, 6600.604248118908, 20053.806311345856, 0.604, -0.654, 0.494, 192.0, 0.0, 0.0, 0.0, 0.0, 0.0, 0.0, 0.0, 0.0, 0.0, 1.6635890165420268E9, 0.0, 2022-09-19 17:03:36.542
83.0, 23581.20215907123, 58043.18881549702, 14757.381648705203, 135337.57750243874, 187500.0, 187500.0, 6578.788945530528, 20064.91512834014, 0.604, -0.654, 0.494, 192.0, 0.0, 0.0, 0.0, 0.0, 0.0, 0.0, 0.0, 0.0, 0.0, 1.663589016544947E9, 0.0, 2022-09-19 17:03:36.544
84.0, 23594.613205744412, 58046.60863239868, 14773.094925057285, 135337.66690941656, 187500.0, 187500.0, 6594.859849793894, 20089.725564685534, 0.604, -0.654, 0.494, 192.0, 0.0, 0.0, 0.0, 0.0, 0.0, 0.0, 0.0, 0.0, 0.0, 1.6635890165490448E9, 0.0, 2022-09-19 17:03:36.549
85.0, 23637.036816720585, 58069.720336165476, 14782.102678072773, 135357.22468581496, 187500.0, 187500.0, 6622.844233851938, 20107.674015483146, 0.606, -0.654, 0.492, 192.0, 18.0, 240.0, 235.0, 144.0, 15.0, 96.0, 0.0, 0.0, 0.0, 1.6635890165529695E9, 0.0, 2022-09-19 17:03:36.552
86.0, 23643.764691801633, 58076.850542646716, 14773.139628546194, 135360.10806084968, 187500.0, 187500.0, 6631.293193256044, 20089.703212941076, 0.606, -0.654, 0.492, 192.0, 0.0, 0.0, 0.0, 0.0, 0.0, 0.0, 0.0, 0.0, 0.0, 1.6635890165580685E9, 0.0, 2022-09-19 17:03:36.558
87.0, 23620.34006361247, 58081.18678107105, 14780.716869916543, 135359.81748817177, 187500.0, 187500.0, 6622.799530363028, 20087.758611173467, 0.606, -0.654, 0.492, 192.0, 0.0, 0.0, 0.0, 0.0, 0.0, 0.0, 0.0, 0.0, 0.0, 1.6635890165620215E9, 0.0, 2022-09-19 17:03:36.562
88.0, 23616.62967403289, 58071.64258618863, 14795.78194567942, 135352.7990404128, 187500.0, 187500.0, 6618.93267857226, 20103.471887525546, 0.606, -0.654, 0.492, 192.0, 0.0, 0.0, 0.0, 0.0, 0.0, 0.0, 0.0, 0.0, 0.0, 1.6635890165661473E9, 0.0, 2022-09-19 17:03:36.566
89.0, 23648.43620639279, 58070.07796407676, 14796.720718946544, 135353.58135146875, 187500.0, 187500.0, 6627.9851350766585, 20117.329969087838, 0.606, -0.654, 0.492, 192.0, 0.0, 0.0, 0.0, 0.0, 0.0, 0.0, 0.0, 0.0, 0.0, 1.6635890165699747E9, 0.0, 2022-09-19 17:03:36.569
90.0, 23665.155311245362, 58068.1557140536, 14788.048242097884, 135350.22858980045, 187500.0, 187500.0, 6631.762579889605, 20114.558352775377, 0.606, -0.654, 0.492, 192.0, 0.0, 0.0, 0.0, 0.0, 0.0, 0.0, 0.0, 0.0, 0.0, 1.6635890165730517E9, 0.0, 2022-09-19 17:03:36.573
91.0, 23649.44203489328, 58085.16539158409, 14771.575006434323, 135364.42194752957, 187500.0, 187500.0, 6636.1435218028455, 20105.64000673771, 0.606, -0.654, 0.492, 192.0, 0.0, 0.0, 0.0, 0.0, 0.0, 0.0, 0.0, 0.0, 0.0, 1.663589016576992E9, 0.0, 2022-09-19 17:03:36.576
92.0, 23590.746353953644, 58072.13432456664, 14755.861730082243, 135349.7368514224, 187500.0, 187500.0, 6603.241753964634, 20086.238692550505, 0.606, -0.654, 0.492, 192.0, 0.0, 0.0, 0.0, 0.0, 0.0, 0.0, 0.0, 0.0, 0.0, 1.6635890165811284E9, 0.0, 2022-09-19 17:03:36.581
93.0, 23581.17980732677, 58057.51628369287, 14766.367049976237, 135338.13629605013, 187500.0, 187500.0, 6594.591628860429, 20101.7955066914, 0.606, -0.654, 0.492, 192.0, 0.0, 0.0, 0.0, 0.0, 0.0, 0.0, 0.0, 0.0, 0.0, 1.6635890165860164E9, 0.0, 2022-09-19 17:03:36.586
94.0, 23612.896932708853, 58060.17614128305, 14775.665375669645, 135341.80198214078, 187500.0, 187500.0, 6613.747073858628, 20111.764384718466, 0.606, -0.654, 0.492, 192.0, 0.0, 0.0, 0.0, 0.0, 0.0, 0.0, 0.0, 0.0, 0.0, 1.6635890165899827E9, 0.0, 2022-09-19 17:03:36.589
95.0, 23661.15434898786, 58072.33549026674, 14772.558483190356, 135351.32382527876, 187500.0, 187500.0, 6630.8014548780275, 20104.142439859206, 0.608, -0.654, 0.5, 192.0, 19.0, 0.0, 235.0, 144.0, 15.0, 160.0, 0.0, 0.0, 0.0, 1.6635890165940394E9, 0.0, 2022-09-19 17:03:36.594
96.0, 23678.87928234092, 58109.349979084735, 14775.084230313807, 135381.18575587103, 187500.0, 187500.0, 6649.062830098013, 20114.89362894221, 0.608, -0.654, 0.5, 192.0, 0.0, 0.0, 0.0, 0.0, 0.0, 0.0, 0.0, 0.0, 0.0, 1.663589016598022E9, 0.0, 2022-09-19 17:03:36.598
97.0, 23669.223328736225, 58112.03218841937, 14778.30288151537, 135377.27420059135, 187500.0, 187500.0, 6633.684829912762, 20116.771175476453, 0.608, -0.654, 0.5, 192.0, 0.0, 0.0, 0.0, 0.0, 0.0, 0.0, 0.0, 0.0, 0.0, 1.6635890166010761E9, 0.0, 2022-09-19 17:03:36.601
98.0, 23664.01537227814, 58083.556065983306, 14775.911244858653, 135346.07116533176, 187500.0, 187500.0, 6611.109568012902, 20117.441727810114, 0.608, -0.654, 0.5, 192.0, 0.0, 0.0, 0.0, 0.0, 0.0, 0.0, 0.0, 0.0, 0.0, 1.6635890166050675E9, 0.0, 2022-09-19 17:03:36.605
99.0, 23679.751000374676, 58079.01866185888, 14773.340794246293, 135338.56097919476, 187500.0, 187500.0, 6620.698466384229, 20130.048111682907, 0.608, -0.654, 0.5, 192.0, 0.0, 0.0, 0.0, 0.0, 0.0, 0.0, 0.0, 0.0, 0.0, 1.663589016609127E9, 0.0, 2022-09-19 17:03:36.609
100.0, 23688.78110513462, 58103.627932504176, 14779.107544315762, 135360.91272365008, 187500.0, 187500.0, 6644.212501551212, 20146.878975257754, 0.608, -0.654, 0.5, 192.0, 0.0, 0.0, 0.0, 0.0, 0.0, 0.0, 0.0, 0.0, 0.0, 1.6635890166130784E9, 0.0, 2022-09-19 17:03:36.613
101.0, 23684.713087643755, 58119.207098389525, 14775.575968691823, 135372.58033425573, 187500.0, 187500.0, 6650.918024887804, 20126.6506465257, 0.608, -0.654, 0.5, 192.0, 0.0, 0.0, 0.0, 0.0, 0.0, 0.0, 0.0, 0.0, 0.0, 1.663589016618032E9, 0.0, 2022-09-19 17:03:36.618
102.0, 23656.63929660789, 58106.57836277227, 14757.828683594309, 135357.2470375594, 187500.0, 187500.0, 6625.951126331226, 20108.433974794625, 0.608, -0.654, 0.5, 192.0, 0.0, 0.0, 0.0, 0.0, 0.0, 0.0, 0.0, 0.0, 0.0, 1.6635890166220632E9, 0.0, 2022-09-19 17:03:36.622
103.0, 23645.753997058153, 58088.80872593031, 14757.471055683025, 135339.09742106168, 187500.0, 187500.0, 6609.746111601128, 20119.65455051119, 0.608, -0.654, 0.5, 192.0, 0.0, 0.0, 0.0, 0.0, 0.0, 0.0, 0.0, 0.0, 0.0, 1.6635890166261635E9, 0.0, 2022-09-19 17:03:36.626
104.0, 23655.074674496016, 58083.9583973835, 14782.92969261762, 135333.91181634806, 187500.0, 187500.0, 6628.253356010122, 20133.8032047514, 0.608, -0.654, 0.5, 192.0, 0.0, 0.0, 0.0, 0.0, 0.0, 0.0, 0.0, 0.0, 0.0, 1.6635890166291602E9, 0.0, 2022-09-19 17:03:36.629
105.0, 23657.555718130556, 58089.009891630405, 14780.046317582885, 135337.89042686112, 187500.0, 187500.0, 6643.541949217552, 20129.422262838158, 0.6, -0.654, 0.5, 192.0, 18.0, 192.0, 235.0, 144.0, 15.0, 160.0, 0.0, 0.0, 0.0, 1.6635890166331244E9, 0.0, 2022-09-19 17:03:36.633
106.0, 23658.91917454233, 58112.94860994204, 14772.87140761273, 135359.5045637494, 187500.0, 187500.0, 6659.992833136658, 20126.42712908115, 0.6, -0.654, 0.5, 192.0, 0.0, 0.0, 0.0, 0.0, 0.0, 0.0, 0.0, 0.0, 0.0, 1.6635890166370764E9, 0.0, 2022-09-19 17:03:36.637
107.0, 23651.274877938617, 58116.12255765469, 14774.078401813318, 135362.2538283174, 187500.0, 187500.0, 6644.480722484675, 20129.22109713806, 0.6, -0.654, 0.5, 192.0, 0.0, 0.0, 0.0, 0.0, 0.0, 0.0, 0.0, 0.0, 0.0, 1.663589016641238E9, 0.0, 2022-09-19 17:03:36.641
108.0, 23643.183546445794, 58087.22175207398, 14775.039526824896, 135332.92833959204, 187500.0, 187500.0, 6621.793701862539, 20134.18318440714, 0.6, -0.654, 0.5, 192.0, 0.0, 0.0, 0.0, 0.0, 0.0, 0.0, 0.0, 0.0, 0.0, 1.6635890166461728E9, 0.0, 2022-09-19 17:03:36.646
109.0, 23655.991096018686, 58086.282978806856, 14782.683823428612, 135331.60958666916, 187500.0, 187500.0, 6635.9647078472035, 20157.89838527422, 0.6, -0.654, 0.5, 192.0, 0.0, 0.0, 0.0, 0.0, 0.0, 0.0, 0.0, 0.0, 0.0, 1.6635890166501915E9, 0.0, 2022-09-19 17:03:36.650
110.0, 23638.936714999287, 58101.862144692204, 14778.168771048639, 135347.00993859887, 187500.0, 187500.0, 6647.654670197328, 20173.27638545947, 0.6, -0.654, 0.5, 192.0, 0.0, 0.0, 0.0, 0.0, 0.0, 0.0, 0.0, 0.0, 0.0, 1.66358901665311E9, 0.0, 2022-09-19 17:03:36.653
111.0, 23624.743357270167, 58130.740598528464, 14781.789753650399, 135373.42970054504, 187500.0, 187500.0, 6659.344632547454, 20180.42894368517, 0.6, -0.654, 0.5, 192.0, 0.0, 0.0, 0.0, 0.0, 0.0, 0.0, 0.0, 0.0, 0.0, 1.663589016657145E9, 0.0, 2022-09-19 17:03:36.657
112.0, 23638.40027313236, 58122.22458389099, 14785.20957055206, 135361.06918586127, 187500.0, 187500.0, 6635.9647078472035, 20174.148103493226, 0.6, -0.654, 0.5, 192.0, 0.0, 0.0, 0.0, 0.0, 0.0, 0.0, 0.0, 0.0, 0.0, 1.663589016661128E9, 0.0, 2022-09-19 17:03:36.661
113.0, 23692.26797726965, 58113.328589597775, 14810.802317953387, 135351.41323225657, 187500.0, 187500.0, 6642.714934672706, 20203.920627107695, 0.6, -0.654, 0.5, 192.0, 0.0, 0.0, 0.0, 0.0, 0.0, 0.0, 0.0, 0.0, 0.0, 1.6635890166651108E9, 0.0, 2022-09-19 17:03:36.665
114.0, 23716.966654892763, 58124.28094438088, 14832.036475185929, 135361.2479998169, 187500.0, 187500.0, 6671.70514723124, 20231.726197210097, 0.6, -0.654, 0.5, 192.0, 0.0, 0.0, 0.0, 0.0, 0.0, 0.0, 0.0, 0.0, 0.0, 1.663589016669171E9, 0.0, 2022-09-19 17:03:36.669
115.0, 23707.109535587973, 58141.581194589286, 14838.429074100146, 135374.1002528787, 187500.0, 187500.0, 6692.224048641211, 20241.24804034806, 0.6, -0.656, 0.498, 192.0, 18.0, 192.0, 235.0, 128.0, 15.0, 144.0, 0.0, 0.0, 0.0, 1.6635890166741507E9, 0.0, 2022-09-19 17:03:36.674
116.0, 23680.667421897346, 58153.44997089505, 14816.658475000677, 135380.33638958173, 187500.0, 187500.0, 6690.748833507161, 20214.850630146342, 0.6, -0.656, 0.498, 192.0, 0.0, 0.0, 0.0, 0.0, 0.0, 0.0, 0.0, 0.0, 0.0, 1.6635890166781442E9, 0.0, 2022-09-19 17:03:36.678
117.0, 23652.079540739007, 58153.49467438396, 14806.287265573415, 135374.59199125672, 187500.0, 187500.0, 6669.291158830066, 20210.91672312221, 0.6, -0.656, 0.498, 192.0, 0.0, 0.0, 0.0, 0.0, 0.0, 0.0, 0.0, 0.0, 0.0, 1.663589016681141E9, 0.0, 2022-09-19 17:03:36.681
118.0, 23634.466366108223, 58134.20511891903, 14812.590457509812, 135355.6377119586, 187500.0, 187500.0, 6656.640071468362, 20223.970141884107, 0.6, -0.656, 0.498, 192.0, 0.0, 0.0, 0.0, 0.0, 0.0, 0.0, 0.0, 0.0, 0.0, 1.6635890166851919E9, 0.0, 2022-09-19 17:03:36.685
119.0, 23690.524541202136, 58135.903851497635, 14831.254164129992, 135355.57065672526, 187500.0, 187500.0, 6676.086089144479, 20242.700903737656, 0.6, -0.656, 0.498, 192.0, 0.0, 0.0, 0.0, 0.0, 0.0, 0.0, 0.0, 0.0, 0.0, 1.6635890166892078E9, 0.0, 2022-09-19 17:03:36.689
120.0, 23756.79746351212, 58157.31682268582, 14844.039361958428, 135372.98266565593, 187500.0, 187500.0, 6705.65744705885, 20259.15178765676, 0.6, -0.656, 0.498, 192.0, 0.0, 0.0, 0.0, 0.0, 0.0, 0.0, 0.0, 0.0, 0.0, 1.6635890166931868E9, 0.0, 2022-09-19 17:03:36.693
121.0, 23753.109425676994, 58187.04464281138, 14845.64868755921, 135397.39077060114, 187500.0, 187500.0, 6722.533014122608, 20252.110988153338, 0.6, -0.656, 0.498, 192.0, 0.0, 0.0, 0.0, 0.0, 0.0, 0.0, 0.0, 0.0, 0.0, 1.6635890166971622E9, 0.0, 2022-09-19 17:03:36.697
122.0, 23725.415614296868, 58173.231264738, 14832.952896708597, 135378.4588430475, 187500.0, 187500.0, 6694.258057386644, 20225.154784340237, 0.6, -0.656, 0.498, 192.0, 0.0, 0.0, 0.0, 0.0, 0.0, 0.0, 0.0, 0.0, 0.0, 1.6635890167021992E9, 0.0, 2022-09-19 17:03:36.702
123.0, 23706.684852443323, 58143.816369034816, 14825.822690227353, 135347.16640081006, 187500.0, 187500.0, 6671.816905953516, 20218.024577858996, 0.6, -0.656, 0.498, 192.0, 0.0, 0.0, 0.0, 0.0, 0.0, 0.0, 0.0, 0.0, 0.0, 1.6635890167062104E9, 0.0, 2022-09-19 17:03:36.706
124.0, 23718.55362874909, 58154.2769854399, 14836.283306632437, 135358.20816257098, 187500.0, 187500.0, 6689.9665224512255, 20253.787368987487, 0.6, -0.656, 0.498, 192.0, 0.0, 0.0, 0.0, 0.0, 0.0, 0.0, 0.0, 0.0, 0.0, 1.6635890167091768E9, 0.0, 2022-09-19 17:03:36.709
125.0, 23714.03857636912, 58164.223511722514, 14828.281382117437, 135367.32767430873, 187500.0, 187500.0, 6697.119080676924, 20252.714485253633, 0.6, -0.656, 0.498, 192.0, 0.0, 0.0, 0.0, 0.0, 0.0, 0.0, 0.0, 0.0, 0.0, 1.6635890167132063E9, 0.0, 2022-09-19 17:03:36.713
126.0, 23697.811209894564, 58178.59568340727, 14809.46121328607, 135377.11773838018, 187500.0, 187500.0, 6692.55932480804, 20233.33552281088, 0.59, -0.658, 0.5, 192.0, 18.0, 112.0, 235.0, 112.0, 15.0, 160.0, 0.0, 0.0, 0.0, 1.663589016717218E9, 0.0, 2022-09-19 17:03:36.717
127.0, 23693.58673019251, 58175.757011861446, 14805.572009750846, 135370.16634585458, 187500.0, 187500.0, 6671.03459489758, 20219.5221447375, 0.59, -0.658, 0.5, 192.0, 0.0, 0.0, 0.0, 0.0, 0.0, 0.0, 0.0, 0.0, 0.0, 1.663589016721251E9, 0.0, 2022-09-19 17:03:36.721
128.0, 23692.60325343648, 58158.009726763936, 14801.45928877107, 135353.11196483517, 187500.0, 187500.0, 6654.471952256197, 20219.790365670964, 0.59, -0.658, 0.5, 192.0, 0.0, 0.0, 0.0, 0.0, 0.0, 0.0, 0.0, 0.0, 0.0, 1.6635890167253168E9, 0.0, 2022-09-19 17:03:36.725
129.0, 23705.343747776, 58156.109828485234, 14800.83343992632, 135355.03421485831, 187500.0, 187500.0, 6666.832466939983, 20229.80394718694, 0.59, -0.658, 0.5, 192.0, 0.0, 0.0, 0.0, 0.0, 0.0, 0.0, 0.0, 0.0, 0.0, 1.6635890167302463E9, 0.0, 2022-09-19 17:03:36.730
130.0, 23725.70618697479, 58169.69968911406, 14814.199783110595, 135369.18286909853, 187500.0, 187500.0, 6690.167688151323, 20231.39092104327, 0.59, -0.658, 0.5, 192.0, 0.0, 0.0, 0.0, 0.0, 0.0, 0.0, 0.0, 0.0, 0.0, 1.6635890167342887E9, 0.0, 2022-09-19 17:03:36.734
131.0, 23723.381605551436, 58185.6364829107, 14812.746919721, 135382.52686053835, 187500.0, 187500.0, 6693.98983645318, 20210.022653343996, 0.59, -0.658, 0.5, 192.0, 0.0, 0.0, 0.0, 0.0, 0.0, 0.0, 0.0, 0.0, 0.0, 1.6635890167372973E9, 0.0, 2022-09-19 17:03:36.737
132.0, 23707.35540477698, 58175.30997697234, 14803.023910882941, 135368.66877897608, 187500.0, 187500.0, 6666.094859372957, 20189.03436530046, 0.59, -0.658, 0.5, 192.0, 0.0, 0.0, 0.0, 0.0, 0.0, 0.0, 0.0, 0.0, 0.0, 1.6635890167412868E9, 0.0, 2022-09-19 17:03:36.741
133.0, 23700.44871574029, 58156.84743605226, 14808.276570829938, 135348.32869152175, 187500.0, 187500.0, 6653.242606311155, 20208.748603910044, 0.59, -0.658, 0.5, 192.0, 0.0, 0.0, 0.0, 0.0, 0.0, 0.0, 0.0, 0.0, 0.0, 1.6635890167462983E9, 0.0, 2022-09-19 17:03:36.746
134.0, 23707.623625710443, 58160.446066909564, 14826.426187327646, 135351.3014735343, 187500.0, 187500.0, 6670.65461524184, 20235.056607133938, 0.59, -0.658, 0.5, 192.0, 0.0, 0.0, 0.0, 0.0, 0.0, 0.0, 0.0, 0.0, 0.0, 1.6635890167493768E9, 0.0, 2022-09-19 17:03:36.749
135.0, 23719.447698527303, 58183.870695098725, 14841.088931690329, 135373.63086624513, 187500.0, 187500.0, 6694.414519597831, 20254.569680043423, 0.59, -0.658, 0.5, 192.0, 0.0, 0.0, 0.0, 0.0, 0.0, 0.0, 0.0, 0.0, 0.0, 1.6635890167532587E9, 0.0, 2022-09-19 17:03:36.753
136.0, 23700.538122718113, 58196.79000339389, 14827.767291994965, 135380.47050004845, 187500.0, 187500.0, 6690.637074784884, 20233.33552281088, 0.598, -0.67, 0.502, 192.0, 18.0, 176.0, 235.0, 16.0, 15.0, 176.0, 0.0, 0.0, 0.0, 1.6635890167572882E9, 0.0, 2022-09-19 17:03:36.757
137.0, 23690.815113880053, 58198.980474350516, 14831.209460641083, 135379.1070436367, 187500.0, 187500.0, 6670.632263497385, 20250.16638638573, 0.598, -0.67, 0.502, 192.0, 0.0, 0.0, 0.0, 0.0, 0.0, 0.0, 0.0, 0.0, 0.0, 1.6635890167613142E9, 0.0, 2022-09-19 17:03:36.761
138.0, 23687.149427789383, 58176.47226768402, 14840.261917145483, 135356.53178173685, 187500.0, 187500.0, 6652.639109210862, 20270.037087206496, 0.598, -0.67, 0.502, 192.0, 0.0, 0.0, 0.0, 0.0, 0.0, 0.0, 0.0, 0.0, 0.0, 1.6635890167653203E9, 0.0, 2022-09-19 17:03:36.765
139.0, 23704.427326253335, 58172.78422984889, 14862.144274967228, 135351.68145319005, 187500.0, 187500.0, 6677.337786833977, 20286.15269495877, 0.598, -0.67, 0.502, 192.0, 0.0, 0.0, 0.0, 0.0, 0.0, 0.0, 0.0, 0.0, 0.0, 1.663589016769345E9, 0.0, 2022-09-19 17:03:36.769
140.0, 23713.949169391297, 58186.06116605535, 14865.27351919097, 135363.37141554017, 187500.0, 187500.0, 6698.057853944047, 20293.841695051397, 0.598, -0.67, 0.502, 192.0, 0.0, 0.0, 0.0, 0.0, 0.0, 0.0, 0.0, 0.0, 0.0, 1.6635890167743108E9, 0.0, 2022-09-19 17:03:36.774
141.0, 23702.63918669691, 58206.98239886551, 14854.589385341334, 135383.44328206102, 187500.0, 187500.0, 6704.025769713613, 20287.270282181536, 0.598, -0.67, 0.502, 192.0, 0.0, 0.0, 0.0, 0.0, 0.0, 0.0, 0.0, 0.0, 0.0, 1.663589016777348E9, 0.0, 2022-09-19 17:03:36.777
142.0, 23673.15723576036, 58199.51691621744, 14849.292021905427, 135380.24698260392, 187500.0, 187500.0, 6675.549647277552, 20274.44038086419, 0.598, -0.67, 0.502, 192.0, 0.0, 0.0, 0.0, 0.0, 0.0, 0.0, 0.0, 0.0, 0.0, 1.6635890167813413E9, 0.0, 2022-09-19 17:03:36.781
143.0, 23643.608229590445, 58160.311956442834, 14853.65061207421, 135352.57552296825, 187500.0, 187500.0, 6653.533178989074, 20259.688229523686, 0.598, -0.67, 0.502, 192.0, 0.0, 0.0, 0.0, 0.0, 0.0, 0.0, 0.0, 0.0, 0.0, 1.6635890167853627E9, 0.0, 2022-09-19 17:03:36.785
144.0, 23675.571224161533, 58178.0815932848, 14876.829371074364, 135381.63279076014, 187500.0, 187500.0, 6686.837278227482, 20291.472410139133, 0.598, -0.67, 0.502, 192.0, 0.0, 0.0, 0.0, 0.0, 0.0, 0.0, 0.0, 0.0, 0.0, 1.663589016789332E9, 0.0, 2022-09-19 17:03:36.789
145.0, 23727.337864320027, 58204.72487267553, 14881.836161832352, 135417.6638028221, 187500.0, 187500.0, 6708.272601160122, 20297.909712542263, 0.598, -0.67, 0.502, 192.0, 0.0, 0.0, 0.0, 0.0, 0.0, 0.0, 0.0, 0.0, 0.0, 1.6635890167933483E9, 0.0, 2022-09-19 17:03:36.793
146.0, 23707.40010826589, 58220.68401821662, 14864.714725579588, 135442.00485253392, 187500.0, 187500.0, 6705.009246469646, 20277.68138381021, 0.6, -0.656, 0.502, 192.0, 18.0, 192.0, 235.0, 128.0, 15.0, 176.0, 0.0, 0.0, 0.0, 1.6635890167974079E9, 0.0, 2022-09-19 17:03:36.797
147.0, 23691.373907491437, 58217.286553059406, 14865.541740124434, 135450.94555031604, 187500.0, 187500.0, 6687.105499160945, 20278.754267544064, 0.6, -0.656, 0.502, 192.0, 0.0, 0.0, 0.0, 0.0, 0.0, 0.0, 0.0, 0.0, 0.0, 1.6635890168013637E9, 0.0, 2022-09-19 17:03:36.801
148.0, 23751.567155309578, 58209.01640761094, 14879.958615298106, 135457.44990795254, 187500.0, 187500.0, 6685.429118326798, 20300.144886987793, 0.6, -0.656, 0.502, 192.0, 0.0, 0.0, 0.0, 0.0, 0.0, 0.0, 0.0, 0.0, 0.0, 1.66358901680539E9, 0.0, 2022-09-19 17:03:36.805
149.0, 23771.12493170797, 58203.96491336405, 14879.556283897911, 135466.50236445694, 187500.0, 187500.0, 6690.570019551518, 20308.862067325364, 0.6, -0.656, 0.502, 192.0, 0.0, 0.0, 0.0, 0.0, 0.0, 0.0, 0.0, 0.0, 0.0, 1.6635890168083606E9, 0.0, 2022-09-19 17:03:36.808
150.0, 23752.260059387692, 58200.433337740105, 14866.838141302842, 135472.33616975977, 187500.0, 187500.0, 6693.207525397244, 20288.991366504593, 0.6, -0.656, 0.502, 192.0, 0.0, 0.0, 0.0, 0.0, 0.0, 0.0, 0.0, 0.0, 0.0, 1.6635890168134348E9, 0.0, 2022-09-19 17:03:36.813
151.0, 23779.015097500695, 58228.57418400934, 14861.853702289309, 135506.5343387764, 187500.0, 187500.0, 6711.290086661588, 20281.72704955662, 0.6, -0.656, 0.502, 192.0, 0.0, 0.0, 0.0, 0.0, 0.0, 0.0, 0.0, 0.0, 0.0, 1.663589016817382E9, 0.0, 2022-09-19 17:03:36.817
152.0, 23767.950983995317, 58221.62279148374, 14857.808036542898, 135505.6849724871, 187500.0, 187500.0, 6686.993740438669, 20269.768866273032, 0.6, -0.656, 0.502, 192.0, 0.0, 0.0, 0.0, 0.0, 0.0, 0.0, 0.0, 0.0, 0.0, 1.6635890168214028E9, 0.0, 2022-09-19 17:03:36.821
153.0, 23754.22701289976, 58196.54413420489, 14852.465969618079, 135488.25061181196, 187500.0, 187500.0, 6666.631301239884, 20263.376267358813, 0.6, -0.656, 0.502, 192.0, 0.0, 0.0, 0.0, 0.0, 0.0, 0.0, 0.0, 0.0, 0.0, 1.6635890168253834E9, 0.0, 2022-09-19 17:03:36.825
154.0, 23766.386361883448, 58193.12431730322, 14854.812902785887, 135492.60920198075, 187500.0, 187500.0, 6680.332920590988, 20270.215901162137, 0.6, -0.656, 0.502, 192.0, 0.0, 0.0, 0.0, 0.0, 0.0, 0.0, 0.0, 0.0, 0.0, 1.6635890168294125E9, 0.0, 2022-09-19 17:03:36.829
155.0, 23762.117178692482, 58216.81716642585, 14852.60008008481, 135518.6936877601, 187500.0, 187500.0, 6699.555420822552, 20279.313061155448, 0.6, -0.656, 0.502, 192.0, 0.0, 0.0, 0.0, 0.0, 0.0, 0.0, 0.0, 0.0, 0.0, 1.6635890168335695E9, 0.0, 2022-09-19 17:03:36.833
156.0, 23749.153166908403, 58245.874434217745, 14846.922736993163, 135546.92394100715, 187500.0, 187500.0, 6704.249287158166, 20269.657107550753, 0.594, -0.652, 0.5, 192.0, 18.0, 144.0, 235.0, 160.0, 15.0, 160.0, 0.0, 0.0, 0.0, 1.663589016836484E9, 0.0, 2022-09-19 17:03:36.836
157.0, 23726.488498030725, 58231.412855555165, 14840.641896801222, 135531.83651349982, 187500.0, 187500.0, 6669.715841974717, 20249.54053754098, 0.594, -0.652, 0.5, 192.0, 0.0, 0.0, 0.0, 0.0, 0.0, 0.0, 0.0, 0.0, 0.0, 1.6635890168414588E9, 0.0, 2022-09-19 17:03:36.841
158.0, 23696.850084882986, 58187.9834160785, 14830.628315285245, 135490.84341416878, 187500.0, 187500.0, 6639.608042193418, 20234.90014492275, 0.594, -0.652, 0.5, 192.0, 0.0, 0.0, 0.0, 0.0, 0.0, 0.0, 0.0, 0.0, 0.0, 1.6635890168454955E9, 0.0, 2022-09-19 17:03:36.845
159.0, 23732.65757950039, 58202.02031159643, 14856.913966764685, 135506.19906260958, 187500.0, 187500.0, 6678.544781034563, 20276.697907054175, 0.594, -0.652, 0.5, 192.0, 0.0, 0.0, 0.0, 0.0, 0.0, 0.0, 0.0, 0.0, 0.0, 1.6635890168495157E9, 0.0, 2022-09-19 17:03:36.849
160.0, 23740.011303426185, 58231.055227643876, 14862.904234278707, 135535.56925482384, 187500.0, 187500.0, 6703.42227261332, 20290.533636872013, 0.594, -0.652, 0.5, 192.0, 0.0, 0.0, 0.0, 0.0, 0.0, 0.0, 0.0, 0.0, 0.0, 1.663589016853501E9, 0.0, 2022-09-19 17:03:36.853
161.0, 23730.489460288223, 58243.86277721677, 14846.810978270887, 135546.7451270515, 187500.0, 187500.0, 6696.537935321086, 20256.29076436648, 0.594, -0.652, 0.5, 192.0, 0.0, 0.0, 0.0, 0.0, 0.0, 0.0, 0.0, 0.0, 0.0, 1.6635890168574665E9, 0.0, 2022-09-19 17:03:36.857
162.0, 23731.539992277623, 58243.86277721677, 14857.56216735389, 135544.97933923954, 187500.0, 187500.0, 6678.947112434758, 20264.449151092667, 0.594, -0.652, 0.5, 192.0, 0.0, 0.0, 0.0, 0.0, 0.0, 0.0, 0.0, 0.0, 0.0, 1.663589016861457E9, 0.0, 2022-09-19 17:03:36.861
163.0, 23731.6517509999, 58222.00277113948, 14871.956690783107, 135524.3486791073, 187500.0, 187500.0, 6669.738193719172, 20277.591976832387, 0.594, -0.652, 0.5, 192.0, 0.0, 0.0, 0.0, 0.0, 0.0, 0.0, 0.0, 0.0, 0.0, 1.6635890168644793E9, 0.0, 2022-09-19 17:03:36.864
164.0, 23732.903448689398, 58219.67818971613, 14873.90129255072, 135521.80058023936, 187500.0, 187500.0, 6679.192981623767, 20286.957357759162, 0.594, -0.652, 0.5, 192.0, 0.0, 0.0, 0.0, 0.0, 0.0, 0.0, 0.0, 0.0, 0.0, 1.6635890168695207E9, 0.0, 2022-09-19 17:03:36.869
165.0, 23724.40978579638, 58240.55471903738, 14877.119943752283, 135543.05708921637, 187500.0, 187500.0, 6698.147260921867, 20300.25664571007, 0.594, -0.652, 0.5, 192.0, 0.0, 0.0, 0.0, 0.0, 0.0, 0.0, 0.0, 0.0, 0.0, 1.6635890168735223E9, 0.0, 2022-09-19 17:03:36.873
166.0, 23678.40989570736, 58258.36905936826, 14860.22202494407, 135561.5866853698, 187500.0, 187500.0, 6700.807118512049, 20288.521979871035, 0.596, -0.652, 0.502, 192.0, 18.0, 160.0, 235.0, 160.0, 15.0, 176.0, 0.0, 0.0, 0.0, 1.6635890168775375E9, 0.0, 2022-09-19 17:03:36.877
167.0, 23684.78014287712, 58252.870530232256, 14857.718629565077, 135556.57989461184, 187500.0, 187500.0, 6678.2765601011, 20280.050668722473, 0.596, -0.652, 0.502, 192.0, 0.0, 0.0, 0.0, 0.0, 0.0, 0.0, 0.0, 0.0, 0.0, 1.6635890168815577E9, 0.0, 2022-09-19 17:03:36.881
168.0, 23720.140602605417, 58238.0960271473, 14874.102458250816, 135542.99003398302, 187500.0, 187500.0, 6675.147315877356, 20293.10408748437, 0.596, -0.652, 0.502, 192.0, 0.0, 0.0, 0.0, 0.0, 0.0, 0.0, 0.0, 0.0, 0.0, 1.663589016884534E9, 0.0, 2022-09-19 17:03:36.884
169.0, 23708.093012344005, 58235.92790793513, 14870.727344838066, 135541.73833629352, 187500.0, 187500.0, 6681.517563047119, 20292.612349106355, 0.596, -0.652, 0.502, 192.0, 0.0, 0.0, 0.0, 0.0, 0.0, 0.0, 0.0, 0.0, 0.0, 1.6635890168885753E9, 0.0, 2022-09-19 17:03:36.888
170.0, 23742.425291827356, 58250.367134853266, 14862.881882534253, 135554.7470515665, 187500.0, 187500.0, 6696.023845198613, 20280.944738500686, 0.596, -0.652, 0.502, 192.0, 0.0, 0.0, 0.0, 0.0, 0.0, 0.0, 0.0, 0.0, 0.0, 1.6635890168925724E9, 0.0, 2022-09-19 17:03:36.892
171.0, 23749.823719242064, 58279.91614102318, 14862.457199389602, 135581.7479588685, 187500.0, 187500.0, 6710.172499438822, 20280.005965233562, 0.596, -0.652, 0.502, 192.0, 0.0, 0.0, 0.0, 0.0, 0.0, 0.0, 0.0, 0.0, 0.0, 1.6635890168965447E9, 0.0, 2022-09-19 17:03:36.896
172.0, 23711.445774012303, 58265.14163793822, 14854.879958019252, 135569.4544994181, 187500.0, 187500.0, 6678.947112434758, 20264.069171436928, 0.596, -0.652, 0.502, 192.0, 0.0, 0.0, 0.0, 0.0, 0.0, 0.0, 0.0, 0.0, 0.0, 1.6635890169016469E9, 0.0, 2022-09-19 17:03:36.901
173.0, 23697.945320361297, 58236.53140503543, 14856.288117919938, 135548.10858346327, 187500.0, 187500.0, 6660.775144192594, 20260.515244068534, 0.596, -0.652, 0.502, 192.0, 0.0, 0.0, 0.0, 0.0, 0.0, 0.0, 0.0, 0.0, 0.0, 1.6635890169055877E9, 0.0, 2022-09-19 17:03:36.905
174.0, 23732.32230333356, 58243.23692837202, 14871.599062871823, 135558.993883013, 187500.0, 187500.0, 6686.949036949759, 20281.481180367613, 0.596, -0.652, 0.502, 192.0, 0.0, 0.0, 0.0, 0.0, 0.0, 0.0, 0.0, 0.0, 0.0, 1.663589016909563E9, 0.0, 2022-09-19 17:03:36.909
175.0, 23729.058948643084, 58269.857856018294, 14869.56505412639, 135584.96661007009, 187500.0, 187500.0, 6706.350351136965, 20289.952491516175, 0.596, -0.652, 0.502, 192.0, 0.0, 0.0, 0.0, 0.0, 0.0, 0.0, 0.0, 0.0, 0.0, 1.6635890169126232E9, 0.0, 2022-09-19 17:03:36.912
176.0, 23723.158088106884, 58294.757699341506, 14861.56312961139, 135608.34653477033, 187500.0, 187500.0, 6709.345484893976, 20286.35386065887, 0.594, -0.656, 0.504, 192.0, 18.0, 144.0, 235.0, 128.0, 15.0, 192.0, 0.0, 0.0, 0.0, 1.6635890169167233E9, 0.0, 2022-09-19 17:03:36.916
177.0, 23711.870457156954, 58281.23489394604, 14861.98781275604, 135594.86843286376, 187500.0, 187500.0, 6682.9257229478035, 20281.503532112067, 0.594, -0.656, 0.504, 192.0, 0.0, 0.0, 0.0, 0.0, 0.0, 0.0, 0.0, 0.0, 0.0, 1.663589016920632E9, 0.0, 2022-09-19 17:03:36.920
178.0, 23691.083334813517, 58246.05324817339, 14856.332821408847, 135562.48075514802, 187500.0, 187500.0, 6660.864551170415, 20268.897148239274, 0.594, -0.656, 0.504, 192.0, 0.0, 0.0, 0.0, 0.0, 0.0, 0.0, 0.0, 0.0, 0.0, 1.6635890169246564E9, 0.0, 2022-09-19 17:03:36.924
179.0, 23731.6517509999, 58250.23302438653, 14864.446504646125, 135566.41466217217, 187500.0, 187500.0, 6681.808135725038, 20277.50256985457, 0.594, -0.656, 0.504, 192.0, 0.0, 0.0, 0.0, 0.0, 0.0, 0.0, 0.0, 0.0, 0.0, 1.66358901692981E9, 0.0, 2022-09-19 17:03:36.929
180.0, 23765.872271760974, 58273.59059734233, 14859.238548188037, 135583.98313331403, 187500.0, 187500.0, 6699.555420822552, 20275.177988431216, 0.594, -0.656, 0.504, 192.0, 0.0, 0.0, 0.0, 0.0, 0.0, 0.0, 0.0, 0.0, 0.0, 1.663589016933714E9, 0.0, 2022-09-19 17:03:36.933
181.0, 23767.70511480631, 58303.54193491244, 14865.050001746416, 135609.73234292655, 187500.0, 187500.0, 6715.179290196811, 20290.243064194092, 0.594, -0.656, 0.504, 192.0, 0.0, 0.0, 0.0, 0.0, 0.0, 0.0, 0.0, 0.0, 0.0, 1.6635890169377632E9, 0.0, 2022-09-19 17:03:36.937
182.0, 23747.812062241086, 58289.52739113896, 14869.810923315397, 135596.27659276445, 187500.0, 187500.0, 6694.816850998027, 20291.807686305965, 0.594, -0.656, 0.504, 192.0, 0.0, 0.0, 0.0, 0.0, 0.0, 0.0, 0.0, 0.0, 0.0, 1.6635890169407628E9, 0.0, 2022-09-19 17:03:36.940
183.0, 23732.36700682247, 58263.353498381795, 14860.289080177437, 135571.91319130818, 187500.0, 187500.0, 6682.299874103055, 20285.92917751422, 0.594, -0.656, 0.504, 192.0, 0.0, 0.0, 0.0, 0.0, 0.0, 0.0, 0.0, 0.0, 0.0, 1.663589016944775E9, 0.0, 2022-09-19 17:03:36.944
184.0, 23726.577905008544, 58259.933681480135, 14859.79734179942, 135571.71202560808, 187500.0, 187500.0, 6692.805193997049, 20278.597805332876, 0.594, -0.656, 0.504, 192.0, 0.0, 0.0, 0.0, 0.0, 0.0, 0.0, 0.0, 0.0, 0.0, 1.6635890169487765E9, 0.0, 2022-09-19 17:03:36.948
185.0, 23722.822811940052, 58270.57311184086, 14854.164702196682, 135584.02783680294, 187500.0, 187500.0, 6700.918877234326, 20269.098313939372, 0.594, -0.656, 0.504, 192.0, 0.0, 0.0, 0.0, 0.0, 0.0, 0.0, 0.0, 0.0, 0.0, 1.6635890169527657E9, 0.0, 2022-09-19 17:03:36.952
186.0, 23723.046329384608, 58301.9102575672, 14849.582594583344, 135614.761485429, 187500.0, 187500.0, 6708.406711626853, 20276.988479732096, 0.594, -0.658, 0.5, 192.0, 18.0, 144.0, 235.0, 112.0, 15.0, 160.0, 0.0, 0.0, 0.0, 1.6635890169577527E9, 0.0, 2022-09-19 17:03:36.957
