%OpenBCI Raw EEG Data
%Number of channels = 8
%Sample Rate = 250 Hz
%Board = OpenBCI_GUI$BoardCytonSerial
Sample Index, EXG Channel 0, EXG Channel 1, EXG Channel 2, EXG Channel 3, EXG Channel 4, EXG Channel 5, EXG Channel 6, EXG Channel 7, Accel Channel 0, Accel Channel 1, Accel Channel 2, Other, Other, Other, Other, Other, Other, Other, Analog Channel 0, Analog Channel 1, Analog Channel 2, Timestamp, Other, Timestamp (Formatted)
215.0, 39530.53528434459, 44568.97611248209, -38711.32149831313, 889.2641531543915, -187500.02235174447, -24756.94862090929, -9573.833295563853, -23873.11594165754, 0.664, -0.6980000000000001, 0.354, 192.0, 20.0, 192.0, 234.0, 48.0, 11.0, 16.0, 0.0, 0.0, 0.0, 1.6635914100692997E9, 0.0, 2022-09-19 17:43:30.069
216.0, 39220.51658874948, 44531.93927191964, -38674.03878856168, 967.2717413034131, -187500.02235174447, -25139.49872726187, -9615.631057695276, -23715.4467362698, 0.664, -0.6980000000000001, 0.354, 192.0, 0.0, 0.0, 0.0, 0.0, 0.0, 0.0, 0.0, 0.0, 0.0, 1.663591410069343E9, 0.0, 2022-09-19 17:43:30.069
217.0, 38950.39575700709, 44501.27267852696, -38655.12921275249, 971.2503518164577, -187500.02235174447, -25872.725352373764, -9563.775010558964, -23733.84222195652, 0.664, -0.6980000000000001, 0.354, 192.0, 0.0, 0.0, 0.0, 0.0, 0.0, 0.0, 0.0, 0.0, 0.0, 1.6635914100693738E9, 0.0, 2022-09-19 17:43:30.069
0.0, 0.0, 0.0, 0.0, 0.0, 0.0, 0.0, 0.0, 0.0, 0.664, -0.6980000000000001, 0.354, 192.0, 0.0, 0.0, 0.0, 0.0, 0.0, 0.0, 0.0, 0.0, 0.0, 1.6635914101379373E9, 0.0, 2022-09-19 17:43:30.137
1.0, 33614.54261714729, 55918.521394553354, -38637.4713346328, -251.94886350022122, -187500.02235174447, -17320.72440632873, -10304.46711831893, -23210.83375344679, 0.668, -0.736, 0.264, 192.0, 20.0, 224.0, 233.0, 0.0, 8.0, 64.0, 0.0, 0.0, 0.0, 1.6635914101549518E9, 0.0, 2022-09-19 17:43:30.154
2.0, 33691.14204539562, 55947.71277281199, -38647.23904695977, -236.77202901506772, -187500.02235174447, -17330.13449074441, -10282.51770526382, -23232.64905603517, 0.668, -0.736, 0.264, 192.0, 0.0, 0.0, 0.0, 0.0, 0.0, 0.0, 0.0, 0.0, 0.0, 1.663591410158919E9, 0.0, 2022-09-19 17:43:30.158
3.0, 34134.019510033075, 56065.79703876937, -38657.54320115366, -226.98196494364322, -187500.02235174447, -16347.66356321139, -10247.246652513344, -23274.80444607788, 0.668, -0.736, 0.264, 192.0, 0.0, 0.0, 0.0, 0.0, 0.0, 0.0, 0.0, 0.0, 0.0, 1.6635914101619456E9, 0.0, 2022-09-19 17:43:30.161
4.0, 34392.09275151405, 56070.87088476073, -38699.385666774, -250.3395378994391, -187500.02235174447, -15398.51908666123, -10335.089008222702, -23278.716001357556, 0.668, -0.736, 0.264, 192.0, 0.0, 0.0, 0.0, 0.0, 0.0, 0.0, 0.0, 0.0, 0.0, 1.6635914101649764E9, 0.0, 2022-09-19 17:43:30.164
5.0, 33873.04054177291, 55874.86843763214, -38653.18461098488, -249.7583925436011, -187500.02235174447, -16263.419838359338, -10341.749828070382, -23211.01256740243, 0.668, -0.736, 0.264, 192.0, 0.0, 0.0, 0.0, 0.0, 0.0, 0.0, 0.0, 0.0, 0.0, 1.663591410168978E9, 0.0, 2022-09-19 17:43:30.168
6.0, 33546.012168647314, 55825.560489363736, -38622.16038968091, -224.3221073534617, -187500.02235174447, -17170.29716614451, -10276.013347627324, -23211.861933691733, 0.668, -0.736, 0.264, 192.0, 0.0, 0.0, 0.0, 0.0, 0.0, 0.0, 0.0, 0.0, 0.0, 1.663591410173012E9, 0.0, 2022-09-19 17:43:30.173
7.0, 33615.28022471431, 55878.22119930044, -38653.028148773694, -234.22393014716272, -187500.02235174447, -17198.750936836117, -10285.959873909937, -23256.02898073542, 0.668, -0.736, 0.264, 192.0, 0.0, 0.0, 0.0, 0.0, 0.0, 0.0, 0.0, 0.0, 0.0, 1.6635914101779742E9, 0.0, 2022-09-19 17:43:30.177
8.0, 34025.70295640266, 55990.98575007746, -38680.990181087276, -245.5786163304587, -187500.02235174447, -16258.793027257088, -10269.88896964657, -23300.508952201482, 0.654, -0.754, 0.218, 192.0, 20.0, 112.0, 232.0, 112.0, 6.0, 208.0, 0.0, 0.0, 0.0, 1.663591410181998E9, 0.0, 2022-09-19 17:43:30.181
9.0, 34303.468084748754, 56041.74656173546, -38683.717093910825, -226.66904052126893, -187500.02235174447, -15297.109222067504, -10325.410702873553, -23261.281640682417, 0.654, -0.754, 0.218, 192.0, 0.0, 0.0, 0.0, 0.0, 0.0, 0.0, 0.0, 0.0, 0.0, 1.6635914101849718E9, 0.0, 2022-09-19 17:43:30.184
10.0, 33807.97461366351, 55883.853838903175, -38639.77356431169, -215.67198224925784, -187500.02235174447, -16165.586252878458, -10338.70999082446, -23189.510189236426, 0.654, -0.754, 0.218, 192.0, 0.0, 0.0, 0.0, 0.0, 0.0, 0.0, 0.0, 0.0, 0.0, 1.6635914101890233E9, 0.0, 2022-09-19 17:43:30.189
11.0, 33456.82870827064, 55818.58674509368, -38620.12638093548, -201.83625243142276, -187500.02235174447, -17131.025151136535, -10288.88795243358, -23192.751192182448, 0.654, -0.754, 0.218, 192.0, 0.0, 0.0, 0.0, 0.0, 0.0, 0.0, 0.0, 0.0, 0.0, 1.663591410192974E9, 0.0, 2022-09-19 17:43:30.192
12.0, 33511.59048218614, 55874.689623676495, -38651.64234061746, -207.2677263340624, -187500.02235174447, -17208.49629741863, -10294.967626925425, -23248.049407964874, 0.654, -0.754, 0.218, 192.0, 0.0, 0.0, 0.0, 0.0, 0.0, 0.0, 0.0, 0.0, 0.0, 1.663591410196972E9, 0.0, 2022-09-19 17:43:30.196
13.0, 33939.35816757181, 56030.883613930186, -38670.55191642665, -203.71379896566856, -187500.02235174447, -16293.237065462718, -10264.926882377493, -23283.14164675971, 0.654, -0.754, 0.218, 192.0, 0.0, 0.0, 0.0, 0.0, 0.0, 0.0, 0.0, 0.0, 0.0, 1.66359141020099E9, 0.0, 2022-09-19 17:43:30.200
14.0, 34209.50135105864, 56084.14782096718, -38693.99889636027, -214.37558107085005, -187500.02235174447, -15380.190656207878, -10337.055961734768, -23269.194158219598, 0.654, -0.754, 0.218, 192.0, 0.0, 0.0, 0.0, 0.0, 0.0, 0.0, 0.0, 0.0, 0.0, 1.6635914102060895E9, 0.0, 2022-09-19 17:43:30.206
15.0, 33727.709499324505, 55938.61561281868, -38665.58982915757, -225.9537846986991, -187500.02235174447, -16281.815324046056, -10375.210389519976, -23212.621893003216, 0.654, -0.754, 0.218, 192.0, 0.0, 0.0, 0.0, 0.0, 0.0, 0.0, 0.0, 0.0, 0.0, 1.6635914102100427E9, 0.0, 2022-09-19 17:43:30.210
16.0, 33437.18152489442, 55929.16082491408, -38635.01264274272, -214.5767467709478, -187500.02235174447, -17242.694466435252, -10301.740205495384, -23224.915352453634, 0.654, -0.754, 0.218, 192.0, 0.0, 0.0, 0.0, 0.0, 0.0, 0.0, 0.0, 0.0, 0.0, 1.6635914102130034E9, 0.0, 2022-09-19 17:43:30.213
17.0, 33560.02671242079, 56030.63774474117, -38647.306102193135, -204.31729606596187, -187500.02235174447, -17291.42126934782, -10268.301995790243, -23248.69760855408, 0.654, -0.754, 0.218, 192.0, 0.0, 0.0, 0.0, 0.0, 0.0, 0.0, 0.0, 0.0, 0.0, 1.663591410216982E9, 0.0, 2022-09-19 17:43:30.216
18.0, 34043.919628133735, 56205.160165448215, -38659.71132036583, -193.14142383830833, -187500.02235174447, -16347.104769600008, -10245.12323679009, -23277.710172857067, 0.644, -0.764, 0.198, 192.0, 20.0, 32.0, 232.0, 32.0, 6.0, 48.0, 0.0, 0.0, 0.0, 1.6635914102211971E9, 0.0, 2022-09-19 17:43:30.221
19.0, 34405.39203946496, 56294.924771180726, -38681.0795880651, -189.74395868110165, -187500.02235174447, -15354.352039617545, -10320.113339437645, -23258.197099947585, 0.644, -0.764, 0.198, 192.0, 0.0, 0.0, 0.0, 0.0, 0.0, 0.0, 0.0, 0.0, 0.0, 1.6635914102250798E9, 0.0, 2022-09-19 17:43:30.225
20.0, 34025.367680235824, 56176.03584242295, -38672.384759471985, -195.9130401507664, -187500.02235174447, -16172.29177621505, -10372.036441807324, -23196.528636995394, 0.644, -0.764, 0.198, 192.0, 0.0, 0.0, 0.0, 0.0, 0.0, 0.0, 0.0, 0.0, 0.0, 1.6635914102290878E9, 0.0, 2022-09-19 17:43:30.229
21.0, 33841.47987860202, 56189.1116129293, -38643.70747133583, -183.77604291153466, -187500.02235174447, -17053.174025198703, -10311.530269566807, -23186.470351990505, 0.644, -0.764, 0.198, 192.0, 0.0, 0.0, 0.0, 0.0, 0.0, 0.0, 0.0, 0.0, 0.0, 1.6635914102330935E9, 0.0, 2022-09-19 17:43:30.233
22.0, 34074.29564884849, 56309.609867287865, -38660.158355254935, -181.63027544382518, -187500.02235174447, -17012.292684589946, -10298.432147315998, -23213.203038359054, 0.644, -0.764, 0.198, 192.0, 0.0, 0.0, 0.0, 0.0, 0.0, 0.0, 0.0, 0.0, 0.0, 1.6635914102381668E9, 0.0, 2022-09-19 17:43:30.238
23.0, 34601.908576716014, 56453.55510158004, -38670.440157704375, -189.81101391446757, -187500.02235174447, -15999.579846808892, -10265.820952155704, -23265.819044806845, 0.644, -0.764, 0.198, 192.0, 0.0, 0.0, 0.0, 0.0, 0.0, 0.0, 0.0, 0.0, 0.0, 1.6635914102411747E9, 0.0, 2022-09-19 17:43:30.241
24.0, 34931.86502836526, 56478.007910014145, -38674.93285833989, -203.28911582101773, -187500.02235174447, -14974.528846088511, -10320.605077815662, -23250.575155088325, 0.644, -0.764, 0.198, 192.0, 0.0, 0.0, 0.0, 0.0, 0.0, 0.0, 0.0, 0.0, 0.0, 1.6635914102451608E9, 0.0, 2022-09-19 17:43:30.245
25.0, 34477.52111882223, 56283.525381508516, -38661.56651515562, -224.23270037564046, -187500.02235174447, -15789.875780329203, -10361.732287613428, -23188.861988647222, 0.644, -0.764, 0.198, 192.0, 0.0, 0.0, 0.0, 0.0, 0.0, 0.0, 0.0, 0.0, 0.0, 1.6635914102491524E9, 0.0, 2022-09-19 17:43:30.249
26.0, 34171.19046106225, 56220.76168307802, -38638.18659045536, -222.01987767456507, -187500.02235174447, -16709.538305942813, -10310.792661999782, -23196.618043973216, 0.644, -0.764, 0.198, 192.0, 0.0, 0.0, 0.0, 0.0, 0.0, 0.0, 0.0, 0.0, 0.0, 1.6635914102542095E9, 0.0, 2022-09-19 17:43:30.254
27.0, 34273.293229734096, 56291.16967811224, -38644.60154111404, -213.6156217593696, -187500.02235174447, -16716.57910544623, -10293.805336213749, -23225.965884443034, 0.644, -0.764, 0.198, 192.0, 0.0, 0.0, 0.0, 0.0, 0.0, 0.0, 0.0, 0.0, 0.0, 1.6635914102591467E9, 0.0, 2022-09-19 17:43:30.259
28.0, 34714.11433388166, 56440.345220606956, -38664.561648912626, -213.72738048164612, -187500.02235174447, -15735.73985525845, -10273.308786548232, -23266.243727951496, 0.636, -0.766, 0.194, 192.0, 19.0, 224.0, 232.0, 16.0, 6.0, 16.0, 0.0, 0.0, 0.0, 1.6635914102621777E9, 0.0, 2022-09-19 17:43:30.262
29.0, 35038.68401511717, 56521.61616344645, -38678.620896175016, -202.37269429835015, -187500.02235174447, -14684.693775736545, -10329.858700020159, -23241.925029984122, 0.636, -0.766, 0.194, 192.0, 0.0, 0.0, 0.0, 0.0, 0.0, 0.0, 0.0, 0.0, 0.0, 1.6635914102661276E9, 0.0, 2022-09-19 17:43:30.266
30.0, 34615.05140245574, 56380.08491755545, -38652.26818946221, -202.43974953171607, -187500.02235174447, -15453.973764654847, -10365.308566726277, -23179.96599435401, 0.636, -0.766, 0.194, 192.0, 0.0, 0.0, 0.0, 0.0, 0.0, 0.0, 0.0, 0.0, 0.0, 1.6635914102691627E9, 0.0, 2022-09-19 17:43:30.269
31.0, 34335.140506641925, 56334.085027466426, -38645.29444519216, -201.14334835330826, -187500.02235174447, -16340.063970096586, -10322.124996438622, -23186.44800024605, 0.636, -0.766, 0.194, 192.0, 0.0, 0.0, 0.0, 0.0, 0.0, 0.0, 0.0, 0.0, 0.0, 1.6635914102731595E9, 0.0, 2022-09-19 17:43:30.273
32.0, 34454.52117377772, 56396.714615430195, -38664.874573335, -199.93635415272166, -187500.02235174447, -16318.248667508205, -10309.160984654545, -23214.946474426568, 0.636, -0.766, 0.194, 192.0, 0.0, 0.0, 0.0, 0.0, 0.0, 0.0, 0.0, 0.0, 0.0, 1.6635914102771664E9, 0.0, 2022-09-19 17:43:30.277
33.0, 34936.42478423414, 56562.98924243322, -38667.89205883647, -183.2619527890626, -187500.02235174447, -15279.898378836917, -10272.772344681305, -23248.742312042992, 0.636, -0.766, 0.194, 192.0, 0.0, 0.0, 0.0, 0.0, 0.0, 0.0, 0.0, 0.0, 0.0, 1.6635914102811532E9, 0.0, 2022-09-19 17:43:30.281
34.0, 35262.08970094797, 56630.58091766607, -38689.170919557924, -197.41060702927197, -187500.02235174447, -14186.51809531666, -10330.059865720257, -23263.36035291676, 0.636, -0.766, 0.194, 192.0, 0.0, 0.0, 0.0, 0.0, 0.0, 0.0, 0.0, 0.0, 0.0, 1.6635914102852013E9, 0.0, 2022-09-19 17:43:30.285
35.0, 34837.317149319315, 56490.591942142484, -38666.305084980144, -203.42322628774957, -187500.02235174447, -14910.736967413064, -10375.657424409083, -23201.446020775562, 0.636, -0.766, 0.194, 192.0, 0.0, 0.0, 0.0, 0.0, 0.0, 0.0, 0.0, 0.0, 0.0, 1.6635914102902052E9, 0.0, 2022-09-19 17:43:30.290
36.0, 34534.518067183264, 56446.0225636986, -38640.444116645354, -195.89068840631109, -187500.02235174447, -15774.341317932764, -10316.157080669056, -23192.59472997126, 0.636, -0.766, 0.194, 192.0, 0.0, 0.0, 0.0, 0.0, 0.0, 0.0, 0.0, 0.0, 0.0, 1.6635914102931492E9, 0.0, 2022-09-19 17:43:30.293
37.0, 34585.16712011899, 56503.51125043765, -38625.64726181594, -195.5777639839368, -187500.02235174447, -15766.674669584594, -10264.3233852772, -23223.663654764136, 0.636, -0.766, 0.194, 192.0, 0.0, 0.0, 0.0, 0.0, 0.0, 0.0, 0.0, 0.0, 0.0, 1.663591410296168E9, 0.0, 2022-09-19 17:43:30.296
38.0, 34955.06613910987, 56629.016295554204, -38639.59475035605, -195.9353918952217, -187500.02235174447, -14788.182352564616, -10244.855015856627, -23254.37495164573, 0.628, -0.768, 0.184, 192.0, 19.0, 160.0, 232.0, 0.0, 5.0, 192.0, 0.0, 0.0, 0.0, 1.6635914103011715E9, 0.0, 2022-09-19 17:43:30.301
39.0, 35193.1569210478, 56666.902502405945, -38681.03488457619, -219.11415089537513, -187500.02235174447, -13735.795168375394, -10328.003505230368, -23264.32147792834, 0.628, -0.768, 0.184, 192.0, 0.0, 0.0, 0.0, 0.0, 0.0, 0.0, 0.0, 0.0, 0.0, 1.6635914103052201E9, 0.0, 2022-09-19 17:43:30.305
40.0, 34701.50795000887, 56512.49665170869, -38664.09226227907, -241.1976744172185, -187500.02235174447, -14506.885648594576, -10364.81682834826, -23219.729747740002, 0.628, -0.768, 0.184, 192.0, 0.0, 0.0, 0.0, 0.0, 0.0, 0.0, 0.0, 0.0, 0.0, 1.6635914103091967E9, 0.0, 2022-09-19 17:43:30.309
41.0, 34333.37471882996, 56465.446229630266, -38643.57336086909, -245.48920935263746, -187500.02235174447, -15444.027238372237, -10320.605077815662, -23216.667558749625, 0.628, -0.768, 0.184, 192.0, 0.0, 0.0, 0.0, 0.0, 0.0, 0.0, 0.0, 0.0, 0.0, 1.663591410313233E9, 0.0, 2022-09-19 17:43:30.313
42.0, 34367.25996342421, 56544.43729453532, -38641.04761374564, -240.8176947614783, -187500.02235174447, -15462.95916592588, -10302.075481662212, -23238.996951460478, 0.628, -0.768, 0.184, 192.0, 0.0, 0.0, 0.0, 0.0, 0.0, 0.0, 0.0, 0.0, 0.0, 1.6635914103171911E9, 0.0, 2022-09-19 17:43:30.317
43.0, 34726.94423519901, 56683.21927585832, -38658.50432616524, -247.63497682034694, -187500.02235174447, -14504.58341891568, -10272.437068514475, -23279.721829858045, 0.628, -0.768, 0.184, 192.0, 0.0, 0.0, 0.0, 0.0, 0.0, 0.0, 0.0, 0.0, 0.0, 1.6635914103212357E9, 0.0, 2022-09-19 17:43:30.321
44.0, 34971.2040986066, 56742.45139866488, -38663.734634367785, -252.32884315596144, -187500.02235174447, -13454.051429516248, -10313.027836445313, -23265.103788984274, 0.628, -0.768, 0.184, 192.0, 0.0, 0.0, 0.0, 0.0, 0.0, 0.0, 0.0, 0.0, 0.0, 1.663591410324192E9, 0.0, 2022-09-19 17:43:30.324
45.0, 34455.2811330892, 56577.38376586244, -38668.24968674775, -280.04500628054217, -187500.02235174447, -14261.619956686493, -10381.111250056178, -23229.966846700532, 0.628, -0.768, 0.184, 192.0, 0.0, 0.0, 0.0, 0.0, 0.0, 0.0, 0.0, 0.0, 0.0, 1.6635914103282647E9, 0.0, 2022-09-19 17:43:30.328
46.0, 34074.47446280414, 56526.242974548695, -38645.74148008126, -281.34140745895, -187500.02235174447, -15224.510756076665, -10314.27953413481, -23238.79578576038, 0.628, -0.768, 0.184, 192.0, 0.0, 0.0, 0.0, 0.0, 0.0, 0.0, 0.0, 0.0, 0.0, 1.6635914103342032E9, 0.0, 2022-09-19 17:43:30.334
47.0, 34092.06528569046, 56597.38857714994, -38631.79399154115, -271.5289916430702, -187500.02235174447, -15280.077192792558, -10263.250501543343, -23255.492538868493, 0.628, -0.768, 0.184, 192.0, 0.0, 0.0, 0.0, 0.0, 0.0, 0.0, 0.0, 0.0, 0.0, 1.6635914103372416E9, 0.0, 2022-09-19 17:43:30.337
48.0, 34444.686406217385, 56736.684648595416, -38665.187497757375, -283.889506326855, -187500.02235174447, -14356.234890965807, -10246.665507157506, -23308.89085637222, 0.618, -0.774, 0.18, 192.0, 19.0, 80.0, 231.0, 208.0, 5.0, 160.0, 0.0, 0.0, 0.0, 1.6635914103403368E9, 0.0, 2022-09-19 17:43:30.340
49.0, 34700.77034244184, 56800.34241680413, -38674.910506595435, -283.73304411566784, -187500.02235174447, -13314.308323181669, -10308.982170698902, -23268.434198908115, 0.618, -0.774, 0.18, 192.0, 0.0, 0.0, 0.0, 0.0, 0.0, 0.0, 0.0, 0.0, 0.0, 1.6635914103452249E9, 0.0, 2022-09-19 17:43:30.345
50.0, 34189.49653977115, 56631.85496710002, -38670.84248910457, -313.43851249677095, -187500.02235174447, -14141.591088961493, -10367.499037682896, -23222.814288474834, 0.618, -0.774, 0.18, 192.0, 0.0, 0.0, 0.0, 0.0, 0.0, 0.0, 0.0, 0.0, 0.0, 1.6635914103492622E9, 0.0, 2022-09-19 17:43:30.349
51.0, 33818.81520972434, 56596.60626609401, -38640.17589571189, -304.02842808108664, -187500.02235174447, -15132.265106709614, -10306.970513697925, -23213.203038359054, 0.618, -0.774, 0.18, 192.0, 0.0, 0.0, 0.0, 0.0, 0.0, 0.0, 0.0, 0.0, 0.0, 1.6635914103532388E9, 0.0, 2022-09-19 17:43:30.353
52.0, 33852.85691652977, 56684.26980784772, -38635.12440146499, -292.36081747541635, -187500.02235174447, -15204.48359304471, -10286.161039610033, -23237.007646203954, 0.618, -0.774, 0.18, 192.0, 0.0, 0.0, 0.0, 0.0, 0.0, 0.0, 0.0, 0.0, 0.0, 1.6635914103573487E9, 0.0, 2022-09-19 17:43:30.357
53.0, 34220.52076107511, 56836.77576026628, -38656.35855869753, -292.76314887561193, -187500.02235174447, -14298.075651893098, -10271.520646991808, -23285.622690394248, 0.618, -0.774, 0.18, 192.0, 0.0, 0.0, 0.0, 0.0, 0.0, 0.0, 0.0, 0.0, 0.0, 1.6635914103612885E9, 0.0, 2022-09-19 17:43:30.361
54.0, 34476.24706938828, 56902.17696454251, -38685.14760555597, -314.533747975081, -187500.02235174447, -13283.619378044532, -10334.574918100228, -23297.75968763348, 0.618, -0.774, 0.18, 192.0, 0.0, 0.0, 0.0, 0.0, 0.0, 0.0, 0.0, 0.0, 0.0, 1.6635914103652935E9, 0.0, 2022-09-19 17:43:30.365
55.0, 33999.998450279054, 56761.94211982991, -38652.670520862404, -317.953564876743, -187500.02235174447, -14106.834126333491, -10358.737153856417, -23229.765681000434, 0.618, -0.774, 0.18, 192.0, 0.0, 0.0, 0.0, 0.0, 0.0, 0.0, 0.0, 0.0, 0.0, 1.6635914103683193E9, 0.0, 2022-09-19 17:43:30.368
56.0, 33643.01873958334, 56721.999552488276, -38640.06413698961, -314.6008032084469, -187500.02235174447, -15118.09410072495, -10317.386426614097, -23231.151489156662, 0.618, -0.774, 0.18, 192.0, 0.0, 0.0, 0.0, 0.0, 0.0, 0.0, 0.0, 0.0, 0.0, 1.6635914103723376E9, 0.0, 2022-09-19 17:43:30.372
57.0, 33687.94574593851, 56800.76709994878, -38657.4761459203, -316.85832939843294, -187500.02235174447, -15207.590485523999, -10318.928696981513, -23267.98716401901, 0.618, -0.774, 0.18, 192.0, 0.0, 0.0, 0.0, 0.0, 0.0, 0.0, 0.0, 0.0, 0.0, 1.6635914103773575E9, 0.0, 2022-09-19 17:43:30.377
58.0, 34056.99539864009, 56940.30904058326, -38690.221451547324, -332.5716057505138, -187500.02235174447, -14322.30494288265, -10311.127938166612, -23326.66049321419, 0.616, -0.768, 0.176, 192.0, 19.0, 64.0, 232.0, 0.0, 5.0, 128.0, 0.0, 0.0, 0.0, 1.6635914103812747E9, 0.0, 2022-09-19 17:43:30.381
59.0, 34348.708015526296, 57020.082416544254, -38688.053332335156, -325.2849370580837, -187500.02235174447, -13277.070316919127, -10335.938374512003, -23303.168809791663, 0.616, -0.768, 0.176, 192.0, 0.0, 0.0, 0.0, 0.0, 0.0, 0.0, 0.0, 0.0, 0.0, 1.6635914103853676E9, 0.0, 2022-09-19 17:43:30.385
60.0, 33906.61286194478, 56902.46753722043, -38630.34112815155, -307.403541493838, -187500.02235174447, -14078.961500997722, -10324.740150539894, -23220.44500356257, 0.616, -0.768, 0.176, 192.0, 0.0, 0.0, 0.0, 0.0, 0.0, 0.0, 0.0, 0.0, 0.0, 1.663591410389378E9, 0.0, 2022-09-19 17:43:30.389
61.0, 33556.69630249695, 56860.24509194435, -38617.55593032312, -298.86517511191073, -187500.02235174447, -15106.22532441918, -10293.827687958204, -23207.905674923146, 0.616, -0.768, 0.176, 192.0, 0.0, 0.0, 0.0, 0.0, 0.0, 0.0, 0.0, 0.0, 0.0, 1.6635914103933344E9, 0.0, 2022-09-19 17:43:30.393
62.0, 33609.31230894474, 56954.90472971258, -38624.55202633763, -292.5172796866035, -187500.02235174447, -15203.3883575664, -10275.007519126835, -23242.394416617684, 0.616, -0.768, 0.176, 192.0, 0.0, 0.0, 0.0, 0.0, 0.0, 0.0, 0.0, 0.0, 0.0, 1.6635914103963425E9, 0.0, 2022-09-19 17:43:30.396
63.0, 33999.48436015658, 57117.22309794702, -38641.896980034944, -281.40846269231594, -187500.02235174447, -14308.178640386897, -10253.661603172017, -23279.31949845785, 0.616, -0.768, 0.176, 192.0, 0.0, 0.0, 0.0, 0.0, 0.0, 0.0, 0.0, 0.0, 0.0, 1.663591410400346E9, 0.0, 2022-09-19 17:43:30.400
64.0, 34298.863625390964, 57196.72825297454, -38671.15541352695, -284.94003831625446, -187500.02235174447, -13264.732153979798, -10329.724589553427, -23273.88802455521, 0.616, -0.768, 0.176, 192.0, 0.0, 0.0, 0.0, 0.0, 0.0, 0.0, 0.0, 0.0, 0.0, 1.6635914104053652E9, 0.0, 2022-09-19 17:43:30.405
65.0, 33846.15139319318, 57052.33598379326, -38650.14477373895, -304.1401868033632, -187500.02235174447, -14089.377413913897, -10359.72063061245, -23231.79968974587, 0.616, -0.768, 0.176, 192.0, 0.0, 0.0, 0.0, 0.0, 0.0, 0.0, 0.0, 0.0, 0.0, 1.6635914104094498E9, 0.0, 2022-09-19 17:43:30.409
66.0, 33499.028801802255, 57016.61789615368, -38622.29450014764, -297.8369948669666, -187500.02235174447, -15126.967743273706, -10295.03468215879, -23232.514945568437, 0.616, -0.768, 0.176, 192.0, 0.0, 0.0, 0.0, 0.0, 0.0, 0.0, 0.0, 0.0, 0.0, 1.6635914104133623E9, 0.0, 2022-09-19 17:43:30.413
67.0, 33551.57775301668, 57109.66820832112, -38635.43732588737, -284.13537551586336, -187500.02235174447, -15233.607916069976, -10285.80341169875, -23245.50130909697, 0.616, -0.768, 0.176, 192.0, 0.0, 0.0, 0.0, 0.0, 0.0, 0.0, 0.0, 0.0, 0.0, 1.6635914104173777E9, 0.0, 2022-09-19 17:43:30.417
68.0, 33936.47479253707, 57274.08764053436, -38673.010608316734, -283.80009934903376, -187500.02235174447, -14351.451617652372, -10299.03564441629, -23285.13095201623, 0.616, -0.768, 0.176, 192.0, 0.0, 0.0, 0.0, 0.0, 0.0, 0.0, 0.0, 0.0, 0.0, 1.6635914104203813E9, 0.0, 2022-09-19 17:43:30.420
69.0, 34236.39049963838, 57340.762894244544, -38672.51886993872, -284.40359644932704, -187500.02235174447, -13295.286988650203, -10313.698388778972, -23279.47596066904, 0.614, -0.772, 0.168, 192.0, 19.0, 48.0, 231.0, 224.0, 5.0, 64.0, 0.0, 0.0, 0.0, 1.663591410424442E9, 0.0, 2022-09-19 17:43:30.424
70.0, 33786.986325619975, 57176.83520040932, -38645.69677659235, -291.1091197859192, -187500.02235174447, -14102.654350120349, -10345.706086838973, -23221.808459974345, 0.614, -0.772, 0.168, 192.0, 0.0, 0.0, 0.0, 0.0, 0.0, 0.0, 0.0, 0.0, 0.0, 1.6635914104284637E9, 0.0, 2022-09-19 17:43:30.428
71.0, 33436.37686209403, 57123.19101371658, -38614.33727912155, -276.4463754232377, -187500.02235174447, -15145.363228960423, -10291.681920490495, -23222.054329163355, 0.614, -0.772, 0.168, 192.0, 0.0, 0.0, 0.0, 0.0, 0.0, 0.0, 0.0, 0.0, 0.0, 1.6635914104334166E9, 0.0, 2022-09-19 17:43:30.433
72.0, 33475.134786979535, 57195.141279118216, -38634.7667735537, -271.5289916430702, -187500.02235174447, -15258.30659369309, -10290.765498967827, -23257.75006505848, 0.614, -0.772, 0.168, 192.0, 0.0, 0.0, 0.0, 0.0, 0.0, 0.0, 0.0, 0.0, 0.0, 1.6635914104374404E9, 0.0, 2022-09-19 17:43:30.437
73.0, 33863.58575386831, 57367.45087712418, -38664.0252070457, -256.3968606468273, -187500.02235174447, -14361.196978234886, -10292.687748990984, -23291.99293756401, 0.614, -0.772, 0.168, 192.0, 0.0, 0.0, 0.0, 0.0, 0.0, 0.0, 0.0, 0.0, 0.0, 1.6635914104413946E9, 0.0, 2022-09-19 17:43:30.441
74.0, 34158.00293183362, 57433.96966862318, -38696.88227139501, -267.8633055523998, -187500.02235174447, -13299.757337541263, -10352.970403786947, -23287.544940417403, 0.614, -0.772, 0.168, 192.0, 0.0, 0.0, 0.0, 0.0, 0.0, 0.0, 0.0, 0.0, 0.0, 1.6635914104444413E9, 0.0, 2022-09-19 17:43:30.444
75.0, 33701.78147575635, 57273.171219011696, -38675.26813450672, -304.1401868033632, -187500.02235174447, -14116.132452026899, -10395.997511863412, -23258.286506925408, 0.614, -0.772, 0.168, 192.0, 0.0, 0.0, 0.0, 0.0, 0.0, 0.0, 0.0, 0.0, 0.0, 1.6635914104484348E9, 0.0, 2022-09-19 17:43:30.448
76.0, 33357.251686722244, 57242.77284655248, -38615.94660472234, -295.0430268100532, -187500.02235174447, -15159.422476222811, -10304.355359596653, -23254.21848943454, 0.614, -0.772, 0.168, 192.0, 0.0, 0.0, 0.0, 0.0, 0.0, 0.0, 0.0, 0.0, 0.0, 1.6635914104524367E9, 0.0, 2022-09-19 17:43:30.452
77.0, 33400.34585003208, 57315.08073986539, -38627.74832579474, -293.16548027580745, -187500.02235174447, -15270.175369998859, -10284.84228668717, -23265.439065151106, 0.614, -0.772, 0.168, 192.0, 0.0, 0.0, 0.0, 0.0, 0.0, 0.0, 0.0, 0.0, 0.0, 1.6635914104565325E9, 0.0, 2022-09-19 17:43:30.456
78.0, 33784.01354360742, 57452.6110234989, -38655.50919240823, -300.4521489682375, -187500.02235174447, -14374.876245841533, -10269.710155690927, -23300.08426905683, 0.614, -0.772, 0.168, 192.0, 0.0, 0.0, 0.0, 0.0, 0.0, 0.0, 0.0, 0.0, 0.0, 1.6635914104615161E9, 0.0, 2022-09-19 17:43:30.461
79.0, 34096.55798632598, 57518.79453883106, -38681.57132644312, -318.89233814386586, -187500.02235174447, -13274.075183162116, -10331.892708765592, -23297.156190533184, 0.626, -0.78, 0.17200000000000001, 192.0, 19.0, 144.0, 231.0, 160.0, 5.0, 96.0, 0.0, 0.0, 0.0, 1.6635914104654984E9, 0.0, 2022-09-19 17:43:30.465
80.0, 33653.5911147107, 57365.03688872301, -38659.51015466573, -351.90586470435437, -187500.02235174447, -14067.606814814428, -10383.078203568246, -23246.59654457528, 0.626, -0.78, 0.17200000000000001, 192.0, 0.0, 0.0, 0.0, 0.0, 0.0, 0.0, 0.0, 0.0, 0.0, 1.6635914104694624E9, 0.0, 2022-09-19 17:43:30.469
81.0, 33283.93796490884, 57295.321797766905, -38626.36251763851, -362.9699782097314, -187500.02235174447, -15153.275746497602, -10319.062807448247, -23254.93374525711, 0.626, -0.78, 0.17200000000000001, 192.0, 0.0, 0.0, 0.0, 0.0, 0.0, 0.0, 0.0, 0.0, 0.0, 1.663591410472505E9, 0.0, 2022-09-19 17:43:30.472
82.0, 33326.58509332956, 57374.22345569414, -38641.85227654604, -353.64930077186835, -187500.02235174447, -15281.910035837895, -10301.494336306374, -23276.9949170345, 0.626, -0.78, 0.17200000000000001, 192.0, 0.0, 0.0, 0.0, 0.0, 0.0, 0.0, 0.0, 0.0, 0.0, 1.663591410476524E9, 0.0, 2022-09-19 17:43:30.476
83.0, 33725.92135976808, 57546.018963577626, -38650.7706225837, -327.74362894816744, -187500.02235174447, -14389.427231481939, -10256.433219484476, -23291.724716630546, 0.626, -0.78, 0.17200000000000001, 192.0, 0.0, 0.0, 0.0, 0.0, 0.0, 0.0, 0.0, 0.0, 0.0, 1.6635914104804916E9, 0.0, 2022-09-19 17:43:30.480
84.0, 34044.746642678576, 57596.93623744682, -38683.650038677464, -324.2344050686842, -187500.02235174447, -13294.05764270516, -10322.259106905354, -23297.357356233282, 0.626, -0.78, 0.17200000000000001, 192.0, 0.0, 0.0, 0.0, 0.0, 0.0, 0.0, 0.0, 0.0, 0.0, 1.6635914104844847E9, 0.0, 2022-09-19 17:43:30.484
85.0, 33598.382305906096, 57437.00950586909, -38655.196267985855, -318.7135241882234, -187500.02235174447, -14103.190791987276, -10373.690470897016, -23249.27875390992, 0.626, -0.78, 0.17200000000000001, 192.0, 0.0, 0.0, 0.0, 0.0, 0.0, 0.0, 0.0, 0.0, 0.0, 1.663591410488485E9, 0.0, 2022-09-19 17:43:30.488
86.0, 33228.483286915216, 57395.59172339341, -38615.43251459987, -275.7534713451232, -187500.02235174447, -15202.136659876904, -10299.03564441629, -23228.581038544304, 0.626, -0.78, 0.17200000000000001, 192.0, 0.0, 0.0, 0.0, 0.0, 0.0, 0.0, 0.0, 0.0, 0.0, 1.6635914104936233E9, 0.0, 2022-09-19 17:43:30.493
87.0, 33257.96523785177, 57453.77331421058, -38640.64528234545, -251.8594565224, -187500.02235174447, -15353.569728561608, -10300.89083920608, -23260.36521915975, 0.626, -0.78, 0.17200000000000001, 192.0, 0.0, 0.0, 0.0, 0.0, 0.0, 0.0, 0.0, 0.0, 0.0, 1.6635914104975233E9, 0.0, 2022-09-19 17:43:30.497
88.0, 33636.4920302024, 57603.5970572945, -38653.63164587398, -211.04517114700928, -187500.02235174447, -14467.993613242343, -10272.45942025893, -23278.85011182429, 0.626, -0.78, 0.17200000000000001, 192.0, 0.0, 0.0, 0.0, 0.0, 0.0, 0.0, 0.0, 0.0, 0.0, 1.6635914105005908E9, 0.0, 2022-09-19 17:43:30.500
89.0, 33940.85573445031, 57667.299528992124, -38666.70741638034, -212.2968688365065, -187500.02235174447, -13348.595899176109, -10328.115263952644, -23279.65477462468, 0.616, -0.762, 0.162, 192.0, 19.0, 64.0, 232.0, 48.0, 5.0, 16.0, 0.0, 0.0, 0.0, 1.663591410504508E9, 0.0, 2022-09-19 17:43:30.504
90.0, 33486.78004584075, 57490.85485826193, -38654.436308674376, -233.10634292439735, -187500.02235174447, -14119.46286195074, -10404.245305567421, -23245.590716074792, 0.616, -0.762, 0.162, 192.0, 0.0, 0.0, 0.0, 0.0, 0.0, 0.0, 0.0, 0.0, 0.0, 1.6635914105085044E9, 0.0, 2022-09-19 17:43:30.508
91.0, 33101.525378409075, 57429.52167147657, -38622.965052481304, -225.23852887612927, -187500.02235174447, -15192.167781849836, -10335.916022767547, -23248.40703587616, 0.616, -0.762, 0.162, 192.0, 0.0, 0.0, 0.0, 0.0, 0.0, 0.0, 0.0, 0.0, 0.0, 1.6635914105125642E9, 0.0, 2022-09-19 17:43:30.512
92.0, 33131.83434389047, 57516.26879170761, -38612.39267735394, -202.5515082539926, -187500.02235174447, -15301.244294791735, -10271.028908613791, -23267.540129129902, 0.616, -0.762, 0.162, 192.0, 0.0, 0.0, 0.0, 0.0, 0.0, 0.0, 0.0, 0.0, 0.0, 1.6635914105166295E9, 0.0, 2022-09-19 17:43:30.516
93.0, 33496.68186863445, 57682.27519777718, -38641.628759101484, -194.77310118354575, -187500.02235174447, -14392.89175187251, -10265.820952155704, -23303.839362125324, 0.616, -0.762, 0.162, 192.0, 0.0, 0.0, 0.0, 0.0, 0.0, 0.0, 0.0, 0.0, 0.0, 1.6635914105215766E9, 0.0, 2022-09-19 17:43:30.521
94.0, 33798.20690133654, 57765.82601855112, -38676.83275661859, -207.58065075643668, -187500.02235174447, -13239.631144956487, -10346.62250836164, -23309.09202207232, 0.616, -0.762, 0.162, 192.0, 0.0, 0.0, 0.0, 0.0, 0.0, 0.0, 0.0, 0.0, 0.0, 1.6635914105255313E9, 0.0, 2022-09-19 17:43:30.525
95.0, 33307.407296586905, 57580.15007736088, -38654.011625529725, -240.59417731692523, -187500.02235174447, -14024.78087243806, -10375.165686031067, -23265.28260293992, 0.616, -0.762, 0.162, 192.0, 0.0, 0.0, 0.0, 0.0, 0.0, 0.0, 0.0, 0.0, 0.0, 1.663591410528538E9, 0.0, 2022-09-19 17:43:30.528
96.0, 32919.64923377624, 57530.75272211465, -38608.10114241852, -219.18120612874105, -187500.02235174447, -15110.025120976583, -10314.793624257281, -23240.807442761357, 0.616, -0.762, 0.162, 192.0, 0.0, 0.0, 0.0, 0.0, 0.0, 0.0, 0.0, 0.0, 0.0, 1.663591410532659E9, 0.0, 2022-09-19 17:43:30.532
97.0, 32941.08455670888, 57600.333702604024, -38631.12343920749, -231.6534795348024, -187500.02235174447, -15254.305631435589, -10317.967571969935, -23279.721829858045, 0.616, -0.762, 0.162, 192.0, 0.0, 0.0, 0.0, 0.0, 0.0, 0.0, 0.0, 0.0, 0.0, 1.663591410536592E9, 0.0, 2022-09-19 17:43:30.536
98.0, 33312.54819781163, 57745.35182063006, -38655.55389589714, -241.04121220603136, -187500.02235174447, -14372.305795229173, -10292.643045502073, -23310.65664418419, 0.616, -0.762, 0.162, 192.0, 0.0, 0.0, 0.0, 0.0, 0.0, 0.0, 0.0, 0.0, 0.0, 1.6635914105405965E9, 0.0, 2022-09-19 17:43:30.540
99.0, 33656.38508276762, 57825.3487140356, -38680.2302217758, -264.8458200509334, -187500.02235174447, -13206.841135840552, -10351.562243886263, -23302.632367924736, 0.632, -0.768, 0.164, 192.0, 19.0, 192.0, 232.0, 0.0, 5.0, 32.0, 0.0, 0.0, 0.0, 1.663591410544577E9, 0.0, 2022-09-19 17:43:30.544
100.0, 33215.76514432015, 57633.39193265342, -38657.990236042766, -335.9243674188098, -187500.02235174447, -13978.132781759834, -10393.985854862434, -23268.590661119302, 0.632, -0.768, 0.164, 192.0, 0.0, 0.0, 0.0, 0.0, 0.0, 0.0, 0.0, 0.0, 0.0, 1.6635914105496223E9, 0.0, 2022-09-19 17:43:30.549
101.0, 32840.92638980465, 57529.948059314265, -38637.20311369933, -381.49957436318095, -187500.02235174447, -15096.70348128122, -10341.28044143682, -23263.785036061414, 0.632, -0.768, 0.164, 192.0, 0.0, 0.0, 0.0, 0.0, 0.0, 0.0, 0.0, 0.0, 0.0, 1.6635914105536103E9, 0.0, 2022-09-19 17:43:30.553
102.0, 32872.17412855317, 57557.39600150538, -38642.56753236861, -420.39160971541526, -187500.02235174447, -15236.312477149067, -10296.979283926403, -23280.437085680616, 0.632, -0.768, 0.164, 192.0, 0.0, 0.0, 0.0, 0.0, 0.0, 0.0, 0.0, 0.0, 0.0, 1.6635914105566113E9, 0.0, 2022-09-19 17:43:30.556
103.0, 33260.088653575025, 57698.72608169629, -38658.638436631976, -426.0466010626079, -187500.02235174447, -14321.030893448698, -10268.637271957074, -23310.14255406172, 0.632, -0.768, 0.164, 192.0, 0.0, 0.0, 0.0, 0.0, 0.0, 0.0, 0.0, 0.0, 0.0, 1.6635914105606468E9, 0.0, 2022-09-19 17:43:30.560
104.0, 33610.45224791196, 57804.2933707587, -38691.674314936914, -462.0552613801076, -187500.02235174447, -13127.98418140223, -10329.054037219768, -23321.43018501165, 0.632, -0.768, 0.164, 192.0, 0.0, 0.0, 0.0, 0.0, 0.0, 0.0, 0.0, 0.0, 0.0, 1.663591410564751E9, 0.0, 2022-09-19 17:43:30.564
105.0, 33170.0781786535, 57659.11879052148, -38680.58784968709, -526.5400441336685, -187500.02235174447, -13879.896864878758, -10392.175363561555, -23290.115391029765, 0.632, -0.768, 0.164, 192.0, 0.0, 0.0, 0.0, 0.0, 0.0, 0.0, 0.0, 0.0, 0.0, 1.663591410568632E9, 0.0, 2022-09-19 17:43:30.568
106.0, 32781.78367397591, 57621.74667379221, -38644.75800332522, -521.6673638424115, -187500.02235174447, -14972.852465254364, -10321.454444104964, -23281.107638014277, 0.632, -0.768, 0.164, 192.0, 0.0, 0.0, 0.0, 0.0, 0.0, 0.0, 0.0, 0.0, 0.0, 1.6635914105726724E9, 0.0, 2022-09-19 17:43:30.572
107.0, 32808.42695336664, 57718.216802861316, -38654.145735996455, -504.56827933410165, -187500.02235174447, -15111.030949477072, -10283.009443641835, -23295.300995743393, 0.632, -0.768, 0.164, 192.0, 0.0, 0.0, 0.0, 0.0, 0.0, 0.0, 0.0, 0.0, 0.0, 1.6635914105766869E9, 0.0, 2022-09-19 17:43:30.576
108.0, 33182.975135204215, 57900.20470621642, -38695.250594049765, -487.0892151700515, -187500.02235174447, -14216.312970675584, -10274.716946448916, -23307.32623426035, 0.632, -0.768, 0.164, 192.0, 0.0, 0.0, 0.0, 0.0, 0.0, 0.0, 0.0, 0.0, 0.0, 1.663591410581736E9, 0.0, 2022-09-19 17:43:30.581
109.0, 33492.77031335477, 57991.35512010517, -38733.7402980018, -504.8365002675653, -187500.02235174447, -13051.272994431614, -10335.75956055636, -23321.22901931155, 0.658, -0.786, 0.156, 192.0, 20.0, 144.0, 231.0, 112.0, 4.0, 224.0, 0.0, 0.0, 0.0, 1.6635914105846744E9, 0.0, 2022-09-19 17:43:30.584
110.0, 32968.57720238891, 57807.98140859383, -38723.637309508005, -549.1823612668945, -187500.02235174447, -13857.433361701174, -10395.841049652225, -23306.208647037583, 0.658, -0.786, 0.156, 192.0, 0.0, 0.0, 0.0, 0.0, 0.0, 0.0, 0.0, 0.0, 0.0, 1.6635914105887256E9, 0.0, 2022-09-19 17:43:30.588
111.0, 32486.114798321105, 57739.36155311603, -38680.0290560757, -516.1911864508613, -187500.02235174447, -15031.905774105284, -10304.288304363288, -23288.52841717344, 0.658, -0.786, 0.156, 192.0, 0.0, 0.0, 0.0, 0.0, 0.0, 0.0, 0.0, 0.0, 0.0, 1.663591410592657E9, 0.0, 2022-09-19 17:43:30.592
112.0, 32417.316128887673, 57831.741312949816, -38687.22631779031, -453.33808104253785, -187500.02235174447, -15226.433006099822, -10265.508027733329, -23292.104696286286, 0.658, -0.786, 0.156, 192.0, 0.0, 0.0, 0.0, 0.0, 0.0, 0.0, 0.0, 0.0, 0.0, 1.663591410596675E9, 0.0, 2022-09-19 17:43:30.596
113.0, 32664.124091163172, 58023.47457688744, -38726.67714675393, -426.49363595171405, -187500.02235174447, -14420.585563252636, -10267.74320217886, -23326.056996113897, 0.658, -0.786, 0.156, 192.0, 0.0, 0.0, 0.0, 0.0, 0.0, 0.0, 0.0, 0.0, 0.0, 1.663591410600719E9, 0.0, 2022-09-19 17:43:30.600
114.0, 32873.17995705366, 58153.78524706188, -38780.36603693558, -446.6102059614904, -187500.02235174447, -13316.632904605021, -10344.543796127296, -23346.732359735055, 0.658, -0.786, 0.156, 192.0, 0.0, 0.0, 0.0, 0.0, 0.0, 0.0, 0.0, 0.0, 0.0, 1.66359141060475E9, 0.0, 2022-09-19 17:43:30.604
115.0, 32326.746860354768, 58026.53676587782, -38760.562391348176, -460.3565288015043, -187500.02235174447, -14143.692152940292, -10406.614590479683, -23295.412754465673, 0.658, -0.786, 0.156, 192.0, 0.0, 0.0, 0.0, 0.0, 0.0, 0.0, 0.0, 0.0, 0.0, 1.6635914106108656E9, 0.0, 2022-09-19 17:43:30.610
116.0, 31836.59545619434, 57969.07043088322, -38722.296204840684, -416.1671300133622, -187500.02235174447, -15362.443371110365, -10339.33583966921, -23276.257309467474, 0.658, -0.786, 0.156, 192.0, 0.0, 0.0, 0.0, 0.0, 0.0, 0.0, 0.0, 0.0, 0.0, 1.6635914106128294E9, 0.0, 2022-09-19 17:43:30.612
117.0, 31784.694705569116, 58032.59408862521, -38739.082364926624, -379.1526411953737, -187500.02235174447, -15583.882103429092, -10311.239696888888, -23302.989995836022, 0.658, -0.786, 0.156, 192.0, 0.0, 0.0, 0.0, 0.0, 0.0, 0.0, 0.0, 0.0, 0.0, 1.6635914106169045E9, 0.0, 2022-09-19 17:43:30.616
118.0, 32104.63757570238, 58194.55482894836, -38753.90157150049, -328.8165126820222, -187500.02235174447, -14743.814139820832, -10284.574065753706, -23318.7032721881, 0.658, -0.786, 0.156, 192.0, 0.0, 0.0, 0.0, 0.0, 0.0, 0.0, 0.0, 0.0, 0.0, 1.6635914106207733E9, 0.0, 2022-09-19 17:43:30.620
119.0, 32420.110096944583, 58260.33601288033, -38761.81408903767, -292.5619831755141, -187500.02235174447, -13557.137674944124, -10318.101682436667, -23296.910321344178, 0.654, -0.802, 0.146, 192.0, 20.0, 112.0, 230.0, 240.0, 4.0, 144.0, 0.0, 0.0, 0.0, 1.6635914106247704E9, 0.0, 2022-09-19 17:43:30.624
120.0, 31922.04617524698, 57991.77980324982, -38739.8423242381, -323.1391695903742, -187500.02235174447, -14341.907422769955, -10365.15210451509, -23264.120312228242, 0.654, -0.802, 0.146, 192.0, 0.0, 0.0, 0.0, 0.0, 0.0, 0.0, 0.0, 0.0, 0.0, 1.6635914106288102E9, 0.0, 2022-09-19 17:43:30.628
121.0, 31454.090053330667, 57818.28556278772, -38717.9376146719, -322.98270737918705, -187500.02235174447, -15545.638268666062, -10320.381560371108, -23262.019248249442, 0.654, -0.802, 0.146, 192.0, 0.0, 0.0, 0.0, 0.0, 0.0, 0.0, 0.0, 0.0, 0.0, 1.663591410632887E9, 0.0, 2022-09-19 17:43:30.632
122.0, 31440.27667525729, 57837.172786852454, -38733.31561485715, -293.7019221427348, -187500.02235174447, -15727.1120818987, -10313.676037034516, -23265.70728608457, 0.654, -0.802, 0.146, 192.0, 0.0, 0.0, 0.0, 0.0, 0.0, 0.0, 0.0, 0.0, 0.0, 1.6635914106377976E9, 0.0, 2022-09-19 17:43:30.637
123.0, 31792.115484728278, 57948.193901561965, -38768.54196411872, -270.9925497761428, -187500.02235174447, -14860.154969710706, -10324.583688328707, -23289.601300907292, 0.654, -0.802, 0.146, 192.0, 0.0, 0.0, 0.0, 0.0, 0.0, 0.0, 0.0, 0.0, 0.0, 1.6635914106407623E9, 0.0, 2022-09-19 17:43:30.640
124.0, 32121.177866599308, 57984.53783804629, -38781.19305148042, -284.0236167935868, -187500.02235174447, -13649.629193500185, -10351.517540397352, -23304.979301092542, 0.654, -0.802, 0.146, 192.0, 0.0, 0.0, 0.0, 0.0, 0.0, 0.0, 0.0, 0.0, 0.0, 1.6635914106447368E9, 0.0, 2022-09-19 17:43:30.644
125.0, 31641.241209654956, 57750.89505325497, -38734.880236969024, -311.65037294034636, -187500.02235174447, -14399.194943808907, -10350.399953174587, -23242.059140450852, 0.654, -0.802, 0.146, 192.0, 0.0, 0.0, 0.0, 0.0, 0.0, 0.0, 0.0, 0.0, 0.0, 1.663591410648801E9, 0.0, 2022-09-19 17:43:30.648
126.0, 31184.952698344317, 57610.57080156456, -38719.05520189467, -304.34135250346094, -187500.02235174447, -15596.130859390601, -10313.877202734615, -23236.27003863693, 0.654, -0.802, 0.146, 192.0, 0.0, 0.0, 0.0, 0.0, 0.0, 0.0, 0.0, 0.0, 0.0, 1.6635914106528168E9, 0.0, 2022-09-19 17:43:30.652
127.0, 31166.512509168686, 57633.23547044223, -38752.80633602218, -281.0061312921204, -187500.02235174447, -15797.028338554901, -10321.1862231715, -23272.166940232153, 0.654, -0.802, 0.146, 192.0, 0.0, 0.0, 0.0, 0.0, 0.0, 0.0, 0.0, 0.0, 0.0, 1.6635914106567767E9, 0.0, 2022-09-19 17:43:30.656
128.0, 31509.23180690191, 57756.97472774681, -38766.23973443982, -251.47947686665975, -187500.02235174447, -14949.874871954307, -10287.435089043985, -23293.244635253508, 0.654, -0.802, 0.146, 192.0, 0.0, 0.0, 0.0, 0.0, 0.0, 0.0, 0.0, 0.0, 0.0, 1.6635914106609056E9, 0.0, 2022-09-19 17:43:30.660
129.0, 31861.249430328542, 57819.2466877993, -38794.40293245351, -240.08008719445317, -187500.02235174447, -13722.250011235477, -10336.988906501401, -23295.52451318795, 0.66, -0.8, 0.138, 192.0, 20.0, 160.0, 231.0, 0.0, 4.0, 80.0, 0.0, 0.0, 0.0, 1.663591410665876E9, 0.0, 2022-09-19 17:43:30.665
130.0, 31395.17085494648, 57566.82843766552, -38771.023007753254, -264.17526771727415, -187500.02235174447, -14453.442627601939, -10385.335729758232, -23253.16795744514, 0.66, -0.8, 0.138, 192.0, 0.0, 0.0, 0.0, 0.0, 0.0, 0.0, 0.0, 0.0, 0.0, 1.6635914106688612E9, 0.0, 2022-09-19 17:43:30.668
131.0, 30932.489744721624, 57419.15046204931, -38735.81901023615, -250.47364836617095, -187500.02235174447, -15650.892633306103, -10329.054037219768, -23237.45468109306, 0.66, -0.8, 0.138, 192.0, 0.0, 0.0, 0.0, 0.0, 0.0, 0.0, 0.0, 0.0, 0.0, 1.66359141067185E9, 0.0, 2022-09-19 17:43:30.671
132.0, 30913.714279379165, 57454.779142711064, -38729.96285318886, -207.53594726752607, -187500.02235174447, -15845.75514146747, -10284.015272142324, -23234.548954313872, 0.66, -0.8, 0.138, 192.0, 0.0, 0.0, 0.0, 0.0, 0.0, 0.0, 0.0, 0.0, 0.0, 1.663591410676904E9, 0.0, 2022-09-19 17:43:30.676
133.0, 31241.45790832733, 57572.997519135184, -38757.85783026908, -182.68080743322463, -187500.02235174447, -15002.78145108002, -10271.028908613791, -23272.03282976542, 0.66, -0.8, 0.138, 192.0, 0.0, 0.0, 0.0, 0.0, 0.0, 0.0, 0.0, 0.0, 0.0, 1.6635914106808343E9, 0.0, 2022-09-19 17:43:30.680
134.0, 31585.2053863055, 57648.97109853877, -38791.25133648531, -171.79550788349007, -187500.02235174447, -13761.902005899192, -10333.189109944, -23284.393344449207, 0.66, -0.8, 0.138, 192.0, 0.0, 0.0, 0.0, 0.0, 0.0, 0.0, 0.0, 0.0, 0.0, 1.6635914106850028E9, 0.0, 2022-09-19 17:43:30.685
135.0, 31105.983985183717, 57449.07944787496, -38765.39036815052, -203.26676407656242, -187500.02235174447, -14491.328834453683, -10367.923720827546, -23253.346771400782, 0.66, -0.8, 0.138, 192.0, 0.0, 0.0, 0.0, 0.0, 0.0, 0.0, 0.0, 0.0, 0.0, 1.663591410688898E9, 0.0, 2022-09-19 17:43:30.688
136.0, 30634.608046365745, 57355.090362440395, -38738.724737015335, -201.50097626459316, -187500.02235174447, -15695.730232683449, -10327.221194174434, -23250.75396904397, 0.66, -0.8, 0.138, 192.0, 0.0, 0.0, 0.0, 0.0, 0.0, 0.0, 0.0, 0.0, 0.0, 1.66359141069291E9, 0.0, 2022-09-19 17:43:30.692
137.0, 30612.792743777365, 57435.04255235703, -38758.796603536204, -185.63123770132515, -187500.02235174447, -15893.453764135094, -10318.19108941449, -23270.624669864737, 0.66, -0.8, 0.138, 192.0, 0.0, 0.0, 0.0, 0.0, 0.0, 0.0, 0.0, 0.0, 0.0, 1.6635914106968536E9, 0.0, 2022-09-19 17:43:30.696
138.0, 30945.587866972433, 57601.92067646035, -38786.44571142742, -156.88689433180028, -187500.02235174447, -15056.716210450675, -10313.1842986565, -23296.485638199527, 0.66, -0.8, 0.138, 192.0, 0.0, 0.0, 0.0, 0.0, 0.0, 0.0, 0.0, 0.0, 0.0, 1.6635914106999261E9, 0.0, 2022-09-19 17:43:30.699
139.0, 31299.550092166675, 57715.24402084876, -38814.161874552, -160.79844961147901, -187500.02235174447, -13818.11664320429, -10366.448505693497, -23309.42729823915, 0.65, -0.792, 0.138, 192.0, 20.0, 80.0, 231.0, 64.0, 4.0, 80.0, 0.0, 0.0, 0.0, 1.6635914107048788E9, 0.0, 2022-09-19 17:43:30.704
140.0, 30814.271368297505, 57518.95100104225, -38786.49041491633, -214.10736013738637, -187500.02235174447, -14555.813617207245, -10395.416366507574, -23293.155228275686, 0.65, -0.792, 0.138, 192.0, 0.0, 0.0, 0.0, 0.0, 0.0, 0.0, 0.0, 0.0, 0.0, 1.663591410708872E9, 0.0, 2022-09-19 17:43:30.708
141.0, 30326.42219381597, 57430.16987206577, -38742.18925740591, -194.37076978335023, -187500.02235174447, -15794.591998409272, -10333.189109944, -23262.22041394954, 0.65, -0.792, 0.138, 192.0, 0.0, 0.0, 0.0, 0.0, 0.0, 0.0, 0.0, 0.0, 0.0, 1.663591410712914E9, 0.0, 2022-09-19 17:43:30.712
142.0, 30289.698277675903, 57530.1268732699, -38740.91520797196, -142.78294358050152, -187500.02235174447, -16028.570059367426, -10298.789775227282, -23260.9910680045, 0.65, -0.792, 0.138, 192.0, 0.0, 0.0, 0.0, 0.0, 0.0, 0.0, 0.0, 0.0, 0.0, 1.663591410716926E9, 0.0, 2022-09-19 17:43:30.716
143.0, 30596.543025558356, 57714.72993072629, -38763.75869080528, -106.03667569597671, -187500.02235174447, -15244.58262259753, -10285.736356465382, -23298.653757411692, 0.65, -0.792, 0.138, 192.0, 0.0, 0.0, 0.0, 0.0, 0.0, 0.0, 0.0, 0.0, 0.0, 1.6635914107209568E9, 0.0, 2022-09-19 17:43:30.720
144.0, 30913.960148568174, 57827.8521094146, -38791.29603997422, -113.47980659959396, -187500.02235174447, -14060.007221699623, -10334.261993677854, -23314.00940585249, 0.65, -0.792, 0.138, 192.0, 0.0, 0.0, 0.0, 0.0, 0.0, 0.0, 0.0, 0.0, 0.0, 1.663591410724906E9, 0.0, 2022-09-19 17:43:30.724
145.0, 30347.276371392774, 57609.296752130605, -38771.09006298662, -176.95876085266602, -187500.02235174447, -14893.436717204657, -10391.393052505618, -23297.156190533184, 0.65, -0.792, 0.138, 192.0, 0.0, 0.0, 0.0, 0.0, 0.0, 0.0, 0.0, 0.0, 0.0, 1.663591410727883E9, 0.0, 2022-09-19 17:43:30.727
146.0, 29725.495544135043, 57477.89084647785, -38738.9929579488, -198.3940837853055, -187500.02235174447, -16302.267170222662, -10335.089008222702, -23298.38553647823, 0.65, -0.792, 0.138, 192.0, 0.0, 0.0, 0.0, 0.0, 0.0, 0.0, 0.0, 0.0, 0.0, 1.663591410732934E9, 0.0, 2022-09-19 17:43:30.732
147.0, 29544.71463498052, 57537.77116987362, -38738.81414399316, -190.07923484793127, -187500.02235174447, -16731.308905042282, -10317.498185336373, -23306.119240059765, 0.65, -0.792, 0.138, 192.0, 0.0, 0.0, 0.0, 0.0, 0.0, 0.0, 0.0, 0.0, 0.0, 1.6635914107369225E9, 0.0, 2022-09-19 17:43:30.736
148.0, 29684.97183143757, 57667.36658422549, -38769.27957168574, -183.9325051227218, -187500.02235174447, -16183.087668786964, -10304.310656107744, -23334.75182470701, 0.65, -0.792, 0.138, 192.0, 0.0, 0.0, 0.0, 0.0, 0.0, 0.0, 0.0, 0.0, 0.0, 1.6635914107410114E9, 0.0, 2022-09-19 17:43:30.741
149.0, 29837.321321644944, 57734.3771141025, -38780.120167746565, -181.94319986619948, -187500.02235174447, -15243.912070263872, -10328.808168030759, -23339.266877086982, 0.642, -0.784, 0.138, 192.0, 20.0, 16.0, 231.0, 128.0, 4.0, 80.0, 0.0, 0.0, 0.0, 1.66359141074492E9, 0.0, 2022-09-19 17:43:30.744
150.0, 29145.892458664475, 57509.56326837102, -38747.84424875311, -231.0052789455985, -187500.02235174447, -16300.814306833066, -10361.95580505798, -23311.99774885151, 0.642, -0.784, 0.138, 192.0, 0.0, 0.0, 0.0, 0.0, 0.0, 0.0, 0.0, 0.0, 0.0, 1.6635914107489703E9, 0.0, 2022-09-19 17:43:30.748
151.0, 28461.92907833208, 57414.54600269151, -38718.94344317239, -234.8721307363666, -187500.02235174447, -17894.069003351808, -10316.022970202324, -23302.408850480184, 0.642, -0.784, 0.138, 192.0, 0.0, 0.0, 0.0, 0.0, 0.0, 0.0, 0.0, 0.0, 0.0, 1.663591410752958E9, 0.0, 2022-09-19 17:43:30.752
152.0, 28287.093733202666, 57511.79844281655, -38734.612016035564, -215.82844446044498, -187500.02235174447, -18452.817911245576, -10305.674112519517, -23316.132821575742, 0.642, -0.784, 0.138, 192.0, 0.0, 0.0, 0.0, 0.0, 0.0, 0.0, 0.0, 0.0, 0.0, 1.66359141075595E9, 0.0, 2022-09-19 17:43:30.755
153.0, 28533.23114314451, 57719.244983106255, -38762.84226928261, -186.88293539082235, -187500.02235174447, -17941.8346812528, -10296.152269381557, -23340.585630009846, 0.642, -0.784, 0.138, 192.0, 0.0, 0.0, 0.0, 0.0, 0.0, 0.0, 0.0, 0.0, 0.0, 1.6635914107610157E9, 0.0, 2022-09-19 17:43:30.761
154.0, 28850.715321387688, 57875.37191812658, -38794.380580709054, -171.97432183913253, -187500.02235174447, -16961.59892816531, -10343.85089204918, -23346.084159145852, 0.642, -0.784, 0.138, 192.0, 0.0, 0.0, 0.0, 0.0, 0.0, 0.0, 0.0, 0.0, 0.0, 1.6635914107650146E9, 0.0, 2022-09-19 17:43:30.765
155.0, 28343.0401495743, 57723.40240757495, -38768.653722840994, -195.71187445066863, -187500.02235174447, -17926.903715956654, -10391.303645527798, -23308.779097649945, 0.642, -0.784, 0.138, 192.0, 0.0, 0.0, 0.0, 0.0, 0.0, 0.0, 0.0, 0.0, 0.0, 1.6635914107690504E9, 0.0, 2022-09-19 17:43:30.769
156.0, 27834.69442542725, 57660.392839955435, -38739.149420159985, -178.56808645344813, -187500.02235174447, -19423.531821195105, -10344.052057749279, -23302.14062954672, 0.642, -0.784, 0.138, 192.0, 0.0, 0.0, 0.0, 0.0, 0.0, 0.0, 0.0, 0.0, 0.0, 1.663591410772996E9, 0.0, 2022-09-19 17:43:30.772
157.0, 27832.83923063746, 57790.30117872968, -38752.895743, -132.21056845314126, -187500.02235174447, -19863.414152075547, -10328.495243608386, -23306.298054015406, 0.642, -0.784, 0.138, 192.0, 0.0, 0.0, 0.0, 0.0, 0.0, 0.0, 0.0, 0.0, 0.0, 1.6635914107771108E9, 0.0, 2022-09-19 17:43:30.777
158.0, 28225.648787695027, 58042.85353933019, -38773.839327554626, -94.16789939020866, -187500.02235174447, -19227.99876070008, -10288.664434989028, -23327.7557286925, 0.642, -0.784, 0.138, 192.0, 0.0, 0.0, 0.0, 0.0, 0.0, 0.0, 0.0, 0.0, 0.0, 1.6635914107810276E9, 0.0, 2022-09-19 17:43:30.781
159.0, 28664.033551696964, 58241.404085326685, -38785.9539730494, -86.4118440642171, -187500.02235174447, -18122.235610751584, -10331.177452943022, -23344.296019589427, 0.646, -0.78, 0.14200000000000002, 192.0, 20.0, 48.0, 231.0, 160.0, 4.0, 112.0, 0.0, 0.0, 0.0, 1.663591410784031E9, 0.0, 2022-09-19 17:43:30.784
160.0, 28246.748834460835, 58101.75038596993, -38761.97055124886, -125.90737651674469, -187500.02235174447, -18974.99936521046, -10383.458183223986, -23317.161001820685, 0.646, -0.78, 0.14200000000000002, 192.0, 0.0, 0.0, 0.0, 0.0, 0.0, 0.0, 0.0, 0.0, 0.0, 1.663591410788016E9, 0.0, 2022-09-19 17:43:30.788
161.0, 27806.97826230267, 58060.10908604969, -38727.124181643034, -98.72765525909129, -187500.02235174447, -20387.517856063587, -10325.321295895732, -23285.354469460784, 0.646, -0.78, 0.14200000000000002, 192.0, 0.0, 0.0, 0.0, 0.0, 0.0, 0.0, 0.0, 0.0, 0.0, 1.6635914107930777E9, 0.0, 2022-09-19 17:43:30.793
162.0, 27876.022800925115, 58220.214631583054, -38733.7402980018, -39.2496632635192, -187500.02235174447, -20744.4975667593, -10298.476850804907, -23287.88021658423, 0.646, -0.78, 0.14200000000000002, 192.0, 0.0, 0.0, 0.0, 0.0, 0.0, 0.0, 0.0, 0.0, 0.0, 1.6635914107971425E9, 0.0, 2022-09-19 17:43:30.797
163.0, 28314.586378882694, 58459.06537283247, -38760.36122564808, 6.884337292234576, -187500.02235174447, -20054.946250313074, -10290.117298378624, -23299.36901323426, 0.646, -0.78, 0.14200000000000002, 192.0, 0.0, 0.0, 0.0, 0.0, 0.0, 0.0, 0.0, 0.0, 0.0, 1.6635914108010936E9, 0.0, 2022-09-19 17:43:30.801
164.0, 28780.68730600921, 58628.7374649927, -38806.137598292546, 11.466444905572523, -187500.02235174447, -18897.01412880589, -10364.570959159251, -23322.637179212237, 0.646, -0.78, 0.14200000000000002, 192.0, 0.0, 0.0, 0.0, 0.0, 0.0, 0.0, 0.0, 0.0, 0.0, 1.66359141080513E9, 0.0, 2022-09-19 17:43:30.805
165.0, 28378.86999593616, 58468.542512481516, -38782.60121138111, -39.36142198579574, -187500.02235174447, -19697.631263450538, -10404.871154412169, -23299.503123700993, 0.646, -0.78, 0.14200000000000002, 192.0, 0.0, 0.0, 0.0, 0.0, 0.0, 0.0, 0.0, 0.0, 0.0, 1.6635914108091643E9, 0.0, 2022-09-19 17:43:30.809
166.0, 27941.714577879262, 58400.05676747046, -38738.21064689287, -48.413878490195096, -187500.02235174447, -21080.75721034494, -10325.701275551472, -23280.392382191705, 0.646, -0.78, 0.14200000000000002, 192.0, 0.0, 0.0, 0.0, 0.0, 0.0, 0.0, 0.0, 0.0, 0.0, 1.663591410812147E9, 0.0, 2022-09-19 17:43:30.812
167.0, 27979.511377753184, 58520.08563519546, -38750.63821681002, -47.430401734161585, -187500.02235174447, -21441.402607131316, -10315.106548679656, -23291.389440463718, 0.646, -0.78, 0.14200000000000002, 192.0, 0.0, 0.0, 0.0, 0.0, 0.0, 0.0, 0.0, 0.0, 0.0, 1.663591410816152E9, 0.0, 2022-09-19 17:43:30.816
168.0, 28396.729039755948, 58748.90044318443, -38764.65276058349, -25.838616590334965, -187500.02235174447, -20750.48783427332, -10291.883086190592, -23299.03373706743, 0.646, -0.78, 0.14200000000000002, 192.0, 0.0, 0.0, 0.0, 0.0, 0.0, 0.0, 0.0, 0.0, 0.0, 1.663591410821136E9, 0.0, 2022-09-19 17:43:30.821
169.0, 28871.413036753303, 58919.91364001199, -38829.04813635923, -49.57616920187107, -187500.02235174447, -19563.565500207606, -10395.125793829655, -23331.443766527627, 0.632, -0.782, 0.146, 192.0, 19.0, 192.0, 231.0, 144.0, 4.0, 144.0, 0.0, 0.0, 0.0, 1.6635914108252037E9, 0.0, 2022-09-19 17:43:30.825
170.0, 28503.9280061636, 58775.61077780853, -38787.96563005038, -98.81706223691252, -187500.02235174447, -20301.173067232736, -10405.809927679293, -23301.112449301774, 0.632, -0.782, 0.146, 192.0, 0.0, 0.0, 0.0, 0.0, 0.0, 0.0, 0.0, 0.0, 0.0, 1.6635914108291411E9, 0.0, 2022-09-19 17:43:30.829
171.0, 28094.444047742374, 58700.68773039433, -38742.636292295014, -82.32147482889592, -187500.02235174447, -21636.51098448169, -10328.1376156971, -23283.722792115546, 0.632, -0.782, 0.146, 192.0, 0.0, 0.0, 0.0, 0.0, 0.0, 0.0, 0.0, 0.0, 0.0, 1.663591410833217E9, 0.0, 2022-09-19 17:43:30.833
172.0, 28206.560397930196, 58841.570775696135, -38760.94237100391, -43.787067387946536, -187500.02235174447, -21908.934045902974, -10313.51957482333, -23296.57504517735, 0.632, -0.782, 0.146, 192.0, 0.0, 0.0, 0.0, 0.0, 0.0, 0.0, 0.0, 0.0, 0.0, 1.6635914108372097E9, 0.0, 2022-09-19 17:43:30.837
173.0, 28730.7311571516, 59104.96373235747, -38771.53709787573, -0.9387732671228967, -187500.02235174447, -21096.60459716375, -10295.012330414334, -23304.174638292152, 0.632, -0.782, 0.146, 192.0, 0.0, 0.0, 0.0, 0.0, 0.0, 0.0, 0.0, 0.0, 0.0, 1.6635914108402057E9, 0.0, 2022-09-19 17:43:30.840
174.0, 29304.969823952895, 59299.15568818518, -38804.595327925126, -4.71621808006979, -187500.02235174447, -19773.828360298678, -10347.76244732886, -23308.019138338466, 0.632, -0.782, 0.146, 192.0, 0.0, 0.0, 0.0, 0.0, 0.0, 0.0, 0.0, 0.0, 0.0, 1.663591410844132E9, 0.0, 2022-09-19 17:43:30.844
175.0, 28969.268973978636, 59111.781014416345, -38786.11043526059, -79.48280328307192, -187500.02235174447, -20422.475984391687, -10407.262791068888, -23279.9453473026, 0.632, -0.782, 0.146, 192.0, 0.0, 0.0, 0.0, 0.0, 0.0, 0.0, 0.0, 0.0, 0.0, 1.6635914108482122E9, 0.0, 2022-09-19 17:43:30.848
176.0, 28580.37097220075, 59021.815242983736, -38743.709176028875, -90.99395167755505, -187500.02235174447, -21698.425316622892, -10331.84800527668, -23259.426445892626, 0.632, -0.782, 0.146, 192.0, 0.0, 0.0, 0.0, 0.0, 0.0, 0.0, 0.0, 0.0, 0.0, 1.663591410853163E9, 0.0, 2022-09-19 17:43:30.853
177.0, 28678.696296059647, 59145.330982843756, -38758.08134771363, -86.99298942005508, -187500.02235174447, -21943.132214919595, -10312.84902248967, -23284.862731082765, 0.632, -0.782, 0.146, 192.0, 0.0, 0.0, 0.0, 0.0, 0.0, 0.0, 0.0, 0.0, 0.0, 1.6635914108571513E9, 0.0, 2022-09-19 17:43:30.857
178.0, 29176.15672065696, 59393.10007013084, -38779.89665030201, -59.52269548448271, -187500.02235174447, -21122.443213754086, -10306.434071830998, -23304.04052782542, 0.632, -0.782, 0.146, 192.0, 0.0, 0.0, 0.0, 0.0, 0.0, 0.0, 0.0, 0.0, 0.0, 1.6635914108602116E9, 0.0, 2022-09-19 17:43:30.860
179.0, 29737.386672185265, 59574.41742115229, -38810.98792683935, -61.467297252094426, -187500.02235174447, -19769.067438729697, -10352.925700298036, -23319.060900099386, 0.632, -0.782, 0.146, 192.0, 0.0, 0.0, 0.0, 0.0, 0.0, 0.0, 0.0, 0.0, 0.0, 1.6635914108641355E9, 0.0, 2022-09-19 17:43:30.864
180.0, 29390.644060450086, 59387.489782272554, -38783.02589452576, -119.55948109143748, -187500.02235174447, -20377.50427454761, -10400.557267732294, -23297.782039377933, 0.636, -0.782, 0.15, 192.0, 19.0, 224.0, 231.0, 144.0, 4.0, 176.0, 0.0, 0.0, 0.0, 1.663591410868245E9, 0.0, 2022-09-19 17:43:30.868
181.0, 28976.98032581572, 59290.5949700588, -38756.00263547929, -120.18532993618608, -187500.02235174447, -21645.228164819262, -10370.29300573981, -23277.21843447905, 0.636, -0.782, 0.15, 192.0, 0.0, 0.0, 0.0, 0.0, 0.0, 0.0, 0.0, 0.0, 0.0, 1.663591410872197E9, 0.0, 2022-09-19 17:43:30.872
182.0, 29059.815890767088, 59399.40326206724, -38771.24652519781, -98.50413781453823, -187500.02235174447, -21884.28007176877, -10351.584595630717, -23304.845190625812, 0.636, -0.782, 0.15, 192.0, 0.0, 0.0, 0.0, 0.0, 0.0, 0.0, 0.0, 0.0, 0.0, 1.663591410876165E9, 0.0, 2022-09-19 17:43:30.876
183.0, 29536.623303487697, 59631.1237968354, -38771.98413276483, -46.8492563783236, -187500.02235174447, -21058.98661124547, -10293.648874002562, -23310.678995928647, 0.636, -0.782, 0.15, 192.0, 0.0, 0.0, 0.0, 0.0, 0.0, 0.0, 0.0, 0.0, 0.0, 1.6635914108811831E9, 0.0, 2022-09-19 17:43:30.881
184.0, 30079.994211196212, 59807.791985010146, -38813.84895012963, -33.08058179385445, -187500.02235174447, -19699.106478584585, -10365.688546382016, -23302.27474001345, 0.636, -0.782, 0.15, 192.0, 0.0, 0.0, 0.0, 0.0, 0.0, 0.0, 0.0, 0.0, 0.0, 1.6635914108852522E9, 0.0, 2022-09-19 17:43:30.885
185.0, 29726.680186591173, 59625.468805488206, -38775.33689443313, -89.38462607677295, -187500.02235174447, -20287.71731707064, -10384.195790791011, -23283.298108970896, 0.636, -0.782, 0.15, 192.0, 0.0, 0.0, 0.0, 0.0, 0.0, 0.0, 0.0, 0.0, 0.0, 1.6635914108882444E9, 0.0, 2022-09-19 17:43:30.888
186.0, 29287.5131115333, 59522.6507809938, -38737.98712944831, -91.32922784438466, -187500.02235174447, -21560.045666700087, -10338.151197213077, -23275.36323968926, 0.636, -0.782, 0.15, 192.0, 0.0, 0.0, 0.0, 0.0, 0.0, 0.0, 0.0, 0.0, 0.0, 1.6635914108922145E9, 0.0, 2022-09-19 17:43:30.892
187.0, 29358.05521703425, 59638.23165157219, -38755.48854535682, -54.739422171046996, -187500.02235174447, -21795.990681170308, -10330.886880265103, -23286.293242727905, 0.636, -0.782, 0.15, 192.0, 0.0, 0.0, 0.0, 0.0, 0.0, 0.0, 0.0, 0.0, 0.0, 1.663591410896242E9, 0.0, 2022-09-19 17:43:30.896
188.0, 29830.1911151637, 59870.645090418475, -38764.33983616112, -3.4645203905725945, -187500.02235174447, -20967.612679912174, -10308.915115465536, -23276.74904784549, 0.636, -0.782, 0.15, 192.0, 0.0, 0.0, 0.0, 0.0, 0.0, 0.0, 0.0, 0.0, 0.0, 1.663591410900221E9, 0.0, 2022-09-19 17:43:30.900
189.0, 30374.567851372703, 60039.49016803386, -38792.212461496885, 0.357627911284913, -187500.02235174447, -19590.029965642687, -10351.249319463888, -23287.813161350867, 0.636, -0.782, 0.15, 192.0, 0.0, 0.0, 0.0, 0.0, 0.0, 0.0, 0.0, 0.0, 0.0, 1.6635914109042792E9, 0.0, 2022-09-19 17:43:30.904
190.0, 30001.42782943581, 59831.50718587723, -38771.98413276483, -67.7257856995804, -187500.02235174447, -20173.499902904023, -10396.19867756351, -23280.41473393616, 0.628, -0.778, 0.15, 192.0, 19.0, 160.0, 231.0, 176.0, 4.0, 176.0, 0.0, 0.0, 0.0, 1.6635914109092286E9, 0.0, 2022-09-19 17:43:30.909
191.0, 29544.08878613577, 59713.02058851965, -38738.165943403954, -71.01149213451053, -187500.02235174447, -21452.444368892237, -10348.030668262323, -23265.975507018033, 0.628, -0.778, 0.15, 192.0, 0.0, 0.0, 0.0, 0.0, 0.0, 0.0, 0.0, 0.0, 0.0, 1.6635914109132843E9, 0.0, 2022-09-19 17:43:30.913
192.0, 29602.963281031047, 59824.33227590708, -38743.217437650856, -36.3886399732399, -187500.02235174447, -21689.886950240965, -10327.601173830173, -23276.525530400937, 0.628, -0.778, 0.15, 192.0, 0.0, 0.0, 0.0, 0.0, 0.0, 0.0, 0.0, 0.0, 0.0, 1.6635914109162228E9, 0.0, 2022-09-19 17:43:30.916
193.0, 30056.815452196057, 60064.97115671291, -38777.616772367575, -0.4246831446508342, -187500.02235174447, -20879.52445501381, -10325.924792996026, -23288.416658451162, 0.628, -0.778, 0.15, 192.0, 0.0, 0.0, 0.0, 0.0, 0.0, 0.0, 0.0, 0.0, 0.0, 1.6635914109202669E9, 0.0, 2022-09-19 17:43:30.920
194.0, 30574.370095058694, 60238.35363845273, -38802.78483662425, -10.617078616270854, -187500.02235174447, -19521.834793309547, -10356.47962766643, -23304.733431903536, 0.628, -0.778, 0.15, 192.0, 0.0, 0.0, 0.0, 0.0, 0.0, 0.0, 0.0, 0.0, 0.0, 1.6635914109243486E9, 0.0, 2022-09-19 17:43:30.924
195.0, 30211.288358126683, 60053.90704320754, -38759.86948727006, -61.80257341892403, -187500.02235174447, -20076.135704056705, -10392.980026361945, -23279.252443224486, 0.628, -0.778, 0.15, 192.0, 0.0, 0.0, 0.0, 0.0, 0.0, 0.0, 0.0, 0.0, 0.0, 1.6635914109282887E9, 0.0, 2022-09-19 17:43:30.928
196.0, 29753.92696308219, 59938.37087611805, -38730.700460755885, -75.9735794035887, -187500.02235174447, -21342.764358850047, -10337.771217557338, -23265.46141689556, 0.628, -0.778, 0.15, 192.0, 0.0, 0.0, 0.0, 0.0, 0.0, 0.0, 0.0, 0.0, 0.0, 1.6635914109322944E9, 0.0, 2022-09-19 17:43:30.932
197.0, 29800.977385160615, 60042.775874468796, -38751.532286588226, -59.99208211804416, -187500.02235174447, -21583.112666977962, -10329.724589553427, -23272.189291976607, 0.628, -0.778, 0.15, 192.0, 0.0, 0.0, 0.0, 0.0, 0.0, 0.0, 0.0, 0.0, 0.0, 1.6635914109363585E9, 0.0, 2022-09-19 17:43:30.936
198.0, 30237.75282356177, 60263.63346143168, -38778.91317354598, -25.972727057066805, -187500.02235174447, -20782.808456755694, -10327.556470341262, -23291.702364886092, 0.628, -0.778, 0.15, 192.0, 0.0, 0.0, 0.0, 0.0, 0.0, 0.0, 0.0, 0.0, 0.0, 1.6635914109413893E9, 0.0, 2022-09-19 17:43:30.941
199.0, 30777.18982424615, 60447.16363515421, -38800.63906915654, -11.846424561312743, -187500.02235174447, -19398.386108682884, -10354.870302065649, -23301.67124291316, 0.628, -0.778, 0.15, 192.0, 0.0, 0.0, 0.0, 0.0, 0.0, 0.0, 0.0, 0.0, 0.0, 1.6635914109444172E9, 0.0, 2022-09-19 17:43:30.944
200.0, 30427.45207875396, 60271.68008943559, -38778.42143516796, -52.61600644779283, -187500.02235174447, -19926.04374003932, -10407.262791068888, -23271.47403615404, 0.626, -0.764, 0.152, 192.0, 19.0, 144.0, 232.0, 32.0, 4.0, 192.0, 0.0, 0.0, 0.0, 1.6635914109483256E9, 0.0, 2022-09-19 17:43:30.948
201.0, 29961.26174464962, 60165.06226838378, -38751.68874879942, -60.23795130705253, -187500.02235174447, -21198.081516990846, -10358.156008500579, -23265.729637829023, 0.626, -0.764, 0.152, 192.0, 0.0, 0.0, 0.0, 0.0, 0.0, 0.0, 0.0, 0.0, 0.0, 1.6635914109523716E9, 0.0, 2022-09-19 17:43:30.952
202.0, 30012.916626085836, 60283.61592097473, -38759.489507614315, -32.87941609375669, -187500.02235174447, -21434.071234949977, -10333.27851692182, -23274.469169911048, 0.626, -0.764, 0.152, 192.0, 0.0, 0.0, 0.0, 0.0, 0.0, 0.0, 0.0, 0.0, 0.0, 1.6635914109563684E9, 0.0, 2022-09-19 17:43:30.956
203.0, 30450.429672054015, 60505.74755737157, -38795.87814758756, -14.036895517932836, -187500.02235174447, -20628.469661291798, -10341.61571760365, -23303.57114119186, 0.626, -0.764, 0.152, 192.0, 0.0, 0.0, 0.0, 0.0, 0.0, 0.0, 0.0, 0.0, 0.0, 1.6635914109603665E9, 0.0, 2022-09-19 17:43:30.960
204.0, 31019.61684460841, 60723.29708615507, -38826.43298225796, 2.3916366567178557, -187500.02235174447, -19190.626643970805, -10378.853723866192, -23312.109507573787, 0.626, -0.764, 0.152, 192.0, 0.0, 0.0, 0.0, 0.0, 0.0, 0.0, 0.0, 0.0, 0.0, 1.663591410965419E9, 0.0, 2022-09-19 17:43:30.965
205.0, 30694.622480228245, 60553.06620038345, -38806.62933667056, -51.185494802653174, -187500.02235174447, -19653.821844318136, -10428.273430856876, -23307.013309837977, 0.626, -0.764, 0.152, 192.0, 0.0, 0.0, 0.0, 0.0, 0.0, 0.0, 0.0, 0.0, 0.0, 1.663591410969394E9, 0.0, 2022-09-19 17:43:30.969
206.0, 30244.525402131727, 60441.08396066236, -38765.32331291716, -65.08827985385416, -187500.02235174447, -20886.94523417297, -10380.53010470034, -23305.873370870755, 0.626, -0.764, 0.152, 192.0, 0.0, 0.0, 0.0, 0.0, 0.0, 0.0, 0.0, 0.0, 0.0, 1.663591410972346E9, 0.0, 2022-09-19 17:43:30.972
207.0, 30305.81388542818, 60559.27998534203, -38789.9549353069, -44.524674954971665, -187500.02235174447, -21094.615291907226, -10380.53010470034, -23313.584722707837, 0.626, -0.764, 0.152, 192.0, 0.0, 0.0, 0.0, 0.0, 0.0, 0.0, 0.0, 0.0, 0.0, 1.663591410976433E9, 0.0, 2022-09-19 17:43:30.976
208.0, 30769.880803809265, 60808.56899125207, -38784.456406170895, 11.019410016466383, -187500.02235174447, -20240.152804869747, -10316.179432413512, -23310.500181973002, 0.626, -0.764, 0.152, 192.0, 0.0, 0.0, 0.0, 0.0, 0.0, 0.0, 0.0, 0.0, 0.0, 1.663591410980397E9, 0.0, 2022-09-19 17:43:30.980
209.0, 31317.185618541913, 60993.08264173063, -38812.77606639577, 18.686058364636704, -187500.02235174447, -18782.461438472445, -10351.875168308636, -23323.508897245993, 0.626, -0.764, 0.152, 192.0, 0.0, 0.0, 0.0, 0.0, 0.0, 0.0, 0.0, 0.0, 0.0, 1.6635914109844532E9, 0.0, 2022-09-19 17:43:30.984
210.0, 30966.911431182794, 60804.52332550566, -38800.70612438991, -59.299178039929636, -187500.02235174447, -19232.357350868864, -10409.229744580955, -23324.179449579653, 0.634, -0.766, 0.154, 192.0, 19.0, 208.0, 232.0, 16.0, 4.0, 208.0, 0.0, 0.0, 0.0, 1.6635914109883816E9, 0.0, 2022-09-19 17:43:30.988
211.0, 30492.22743418544, 60682.81807694651, -38792.43597894144, -93.07266391189862, -187500.02235174447, -20464.81018839004, -10398.366796775676, -23336.227039841062, 0.634, -0.766, 0.154, 192.0, 0.0, 0.0, 0.0, 0.0, 0.0, 0.0, 0.0, 0.0, 0.0, 1.6635914109924304E9, 0.0, 2022-09-19 17:43:30.992
212.0, 30535.120431795174, 60792.31927303306, -38797.84510109963, -70.36329154530664, -187500.02235174447, -20669.686278067384, -10380.932436100537, -23347.939353935642, 0.634, -0.766, 0.154, 192.0, 0.0, 0.0, 0.0, 0.0, 0.0, 0.0, 0.0, 0.0, 0.0, 1.6635914109974885E9, 0.0, 2022-09-19 17:43:30.997
213.0, 30967.425521305267, 61032.242898016324, -38821.87322638908, -47.34099475634036, -187500.02235174447, -19827.137270824584, -10371.209427262476, -23383.746848553044, 0.634, -0.766, 0.154, 192.0, 0.0, 0.0, 0.0, 0.0, 0.0, 0.0, 0.0, 0.0, 0.0, 1.6635914110004616E9, 0.0, 2022-09-19 17:43:31.000
214.0, 31501.922786465024, 61216.86830721716, -38850.394052314055, -30.554834670404755, -187500.02235174447, -18364.662631113843, -10394.745814173915, -23382.85277877483, 0.634, -0.766, 0.154, 192.0, 0.0, 0.0, 0.0, 0.0, 0.0, 0.0, 0.0, 0.0, 0.0, 1.6635914110044432E9, 0.0, 2022-09-19 17:43:31.004
215.0, 31163.629134133953, 61037.786130641245, -38823.951938623424, -85.40601556372829, -187500.02235174447, -18776.42646746951, -10428.228727367965, -23358.62348778528, 0.634, -0.766, 0.154, 192.0, 0.0, 0.0, 0.0, 0.0, 0.0, 0.0, 0.0, 0.0, 0.0, 1.6635914110084164E9, 0.0, 2022-09-19 17:43:31.008
216.0, 30699.22693958604, 60924.68630369739, -38790.24550798482, -104.7626262620242, -187500.02235174447, -19978.52563602038, -10383.1005553127, -23350.82272897038, 0.634, -0.766, 0.154, 192.0, 0.0, 0.0, 0.0, 0.0, 0.0, 0.0, 0.0, 0.0, 0.0, 1.6635914110124748E9, 0.0, 2022-09-19 17:43:31.012
217.0, 30733.112184180285, 61028.30899099219, -38809.53506344975, -83.90844868522271, -187500.02235174447, -20173.432847670658, -10388.844953637714, -23348.8110719694, 0.634, -0.766, 0.154, 192.0, 0.0, 0.0, 0.0, 0.0, 0.0, 0.0, 0.0, 0.0, 0.0, 1.663591411016497E9, 0.0, 2022-09-19 17:43:31.016
218.0, 31125.72057553775, 61227.1501096666, -38834.725479450884, -65.80353567642399, -187500.02235174447, -19353.615564538904, -10361.307604468777, -23373.979136226077, 0.634, -0.766, 0.154, 192.0, 0.0, 0.0, 0.0, 0.0, 0.0, 0.0, 0.0, 0.0, 0.0, 1.6635914110204692E9, 0.0, 2022-09-19 17:43:31.020
219.0, 31646.382110879676, 61416.62584741424, -38859.602971029635, -58.42746000617266, -187500.02235174447, -17894.78425917438, -10420.20445110851, -23375.074371704384, 0.634, -0.766, 0.154, 192.0, 0.0, 0.0, 0.0, 0.0, 0.0, 0.0, 0.0, 0.0, 0.0, 1.663591411025458E9, 0.0, 2022-09-19 17:43:31.025
220.0, 31285.133216993003, 61238.773016783365, -38808.372772738076, -121.05704796994306, -187500.02235174447, -18320.450880581247, -10424.58539302175, -23360.277516874972, 0.646, -0.772, 0.15, 192.0, 20.0, 48.0, 231.0, 224.0, 4.0, 176.0, 0.0, 0.0, 0.0, 1.6635914110284407E9, 0.0, 2022-09-19 17:43:31.028
221.0, 30768.69616135313, 61104.1708116735, -38783.45057767041, -152.57300765192602, -187500.02235174447, -19581.0222126272, -10383.480534968441, -23364.792569254943, 0.646, -0.772, 0.15, 192.0, 0.0, 0.0, 0.0, 0.0, 0.0, 0.0, 0.0, 0.0, 0.0, 1.6635914110324354E9, 0.0, 2022-09-19 17:43:31.032
222.0, 30759.822518804376, 61185.86643765765, -38805.981136081355, -148.88496981680035, -187500.02235174447, -19832.45698600495, -10378.607854677184, -23378.047153716943, 0.646, -0.772, 0.15, 192.0, 0.0, 0.0, 0.0, 0.0, 0.0, 0.0, 0.0, 0.0, 0.0, 1.6635914110365725E9, 0.0, 2022-09-19 17:43:31.036
223.0, 31127.173438927348, 61386.406288910664, -38832.02091837179, -131.78588530849044, -187500.02235174447, -19060.718305196562, -10373.936340086024, -23403.304624951437, 0.646, -0.772, 0.15, 192.0, 0.0, 0.0, 0.0, 0.0, 0.0, 0.0, 0.0, 0.0, 0.0, 1.6635914110405176E9, 0.0, 2022-09-19 17:43:31.040
224.0, 31624.767973991395, 61578.944215648684, -38846.08016563418, -112.20575716564146, -187500.02235174447, -17633.559421725204, -10397.562133975283, -23399.638938860768, 0.646, -0.772, 0.15, 192.0, 0.0, 0.0, 0.0, 0.0, 0.0, 0.0, 0.0, 0.0, 0.0, 1.663591411044492E9, 0.0, 2022-09-19 17:43:31.044
225.0, 31243.246047883757, 61374.045774226885, -38828.10936309211, -181.29499927699558, -187500.02235174447, -18080.370793386795, -10437.504701316919, -23380.10351420683, 0.646, -0.772, 0.15, 192.0, 0.0, 0.0, 0.0, 0.0, 0.0, 0.0, 0.0, 0.0, 0.0, 1.663591411048468E9, 0.0, 2022-09-19 17:43:31.048
226.0, 30721.64573927471, 61232.35806612469, -38798.649763900015, -198.34938029639488, -187500.02235174447, -19363.02564895459, -10399.618494465172, -23358.981115696566, 0.646, -0.772, 0.15, 192.0, 0.0, 0.0, 0.0, 0.0, 0.0, 0.0, 0.0, 0.0, 0.0, 1.6635914110524907E9, 0.0, 2022-09-19 17:43:31.052
227.0, 30712.481524048035, 61329.0740643828, -38811.34555475063, -163.6147694128477, -187500.02235174447, -19632.967666741333, -10383.77110764636, -23365.597232055337, 0.646, -0.772, 0.15, 192.0, 0.0, 0.0, 0.0, 0.0, 0.0, 0.0, 0.0, 0.0, 0.0, 1.6635914110566137E9, 0.0, 2022-09-19 17:43:31.056
228.0, 31081.173548838324, 61538.15228201775, -38822.23085430037, -127.60610909534802, -187500.02235174447, -18871.48843663793, -10336.765389056849, -23385.512636365016, 0.646, -0.772, 0.15, 192.0, 0.0, 0.0, 0.0, 0.0, 0.0, 0.0, 0.0, 0.0, 0.0, 1.6635914110605748E9, 0.0, 2022-09-19 17:43:31.060
229.0, 31578.76808390237, 61723.76116797462, -38854.149145382544, -120.2747369140073, -187500.02235174447, -17448.37521891299, -10384.48636346893, -23405.00335753004, 0.646, -0.772, 0.15, 192.0, 0.0, 0.0, 0.0, 0.0, 0.0, 0.0, 0.0, 0.0, 0.0, 1.6635914110645328E9, 0.0, 2022-09-19 17:43:31.064
230.0, 31238.440422825865, 61549.68578215668, -38840.29106382025, -164.218266513141, -187500.02235174447, -17851.0642470198, -10444.009058953412, -23368.927641979175, 0.65, -0.772, 0.148, 192.0, 20.0, 80.0, 231.0, 224.0, 4.0, 160.0, 0.0, 0.0, 0.0, 1.6635914110685885E9, 0.0, 2022-09-19 17:43:31.068
231.0, 30744.22100117457, 61427.10881556378, -38793.262993486285, -170.14147879379735, -187500.02235174447, -19105.846477251827, -10374.495133697406, -23359.00346744102, 0.65, -0.772, 0.148, 192.0, 0.0, 0.0, 0.0, 0.0, 0.0, 0.0, 0.0, 0.0, 0.0, 1.6635914110725467E9, 0.0, 2022-09-19 17:43:31.072
232.0, 30748.46783262108, 61529.18923249117, -38798.40389471101, -135.25040569906304, -187500.02235174447, -19359.270555886098, -10350.444656663496, -23370.849892002334, 0.65, -0.772, 0.148, 192.0, 0.0, 0.0, 0.0, 0.0, 0.0, 0.0, 0.0, 0.0, 0.0, 1.6635914110765696E9, 0.0, 2022-09-19 17:43:31.076
233.0, 31131.174401184846, 61744.23536589568, -38825.02482235728, -97.4536058251388, -187500.02235174447, -18580.44637208538, -10341.638069348106, -23382.562206096914, 0.65, -0.772, 0.148, 192.0, 0.0, 0.0, 0.0, 0.0, 0.0, 0.0, 0.0, 0.0, 0.0, 1.6635914110805635E9, 0.0, 2022-09-19 17:43:31.080
234.0, 31666.40927391163, 61940.19310953535, -38857.792479728756, -80.75685271702442, -187500.02235174447, -17114.52956372852, -10387.459145481485, -23388.843046288854, 0.65, -0.772, 0.148, 192.0, 0.0, 0.0, 0.0, 0.0, 0.0, 0.0, 0.0, 0.0, 0.0, 1.663591411084545E9, 0.0, 2022-09-19 17:43:31.084
235.0, 31351.473194536353, 61766.74357256217, -38844.44848828894, -142.1123912468423, -187500.02235174447, -17476.627823904495, -10437.504701316919, -23381.422267129692, 0.65, -0.772, 0.148, 192.0, 0.0, 0.0, 0.0, 0.0, 0.0, 0.0, 0.0, 0.0, 0.0, 1.6635914110875375E9, 0.0, 2022-09-19 17:43:31.087
236.0, 30828.844705682364, 61614.68465503272, -38795.699333631914, -148.97437679462158, -187500.02235174447, -18744.91050778753, -10374.38337497513, -23366.133673922264, 0.65, -0.772, 0.148, 192.0, 0.0, 0.0, 0.0, 0.0, 0.0, 0.0, 0.0, 0.0, 0.0, 1.6635914110925925E9, 0.0, 2022-09-19 17:43:31.092
237.0, 30735.41441385918, 61657.644707875814, -38803.52244419127, -130.31067017444016, -187500.02235174447, -19096.43639283614, -10357.15018000009, -23382.361040396816, 0.65, -0.772, 0.148, 192.0, 0.0, 0.0, 0.0, 0.0, 0.0, 0.0, 0.0, 0.0, 0.0, 1.6635914110966816E9, 0.0, 2022-09-19 17:43:31.096
238.0, 31045.410757709833, 61856.23995736122, -38810.943223350434, -91.32922784438466, -187500.02235174447, -18415.959884638774, -10335.156063456066, -23383.143351452753, 0.65, -0.772, 0.148, 192.0, 0.0, 0.0, 0.0, 0.0, 0.0, 0.0, 0.0, 0.0, 0.0, 1.6635914111005695E9, 0.0, 2022-09-19 17:43:31.100
239.0, 31533.259932191366, 62065.27347150725, -38848.15887786852, -79.05812013842107, -187500.02235174447, -17019.17702188218, -10379.43486922203, -23390.00533700053, 0.65, -0.772, 0.148, 192.0, 0.0, 0.0, 0.0, 0.0, 0.0, 0.0, 0.0, 0.0, 0.0, 1.6635914111045647E9, 0.0, 2022-09-19 17:43:31.104
240.0, 31173.307439483102, 61899.423527648876, -38834.45725851742, -151.6342343848031, -187500.02235174447, -17438.74161705275, -10436.96825944999, -23383.92566250869, 0.648, -0.774, 0.14400000000000002, 192.0, 20.0, 64.0, 231.0, 208.0, 4.0, 128.0, 0.0, 0.0, 0.0, 1.6635914111085732E9, 0.0, 2022-09-19 17:43:31.108
241.0, 30605.170798918105, 61751.29851714355, -38785.43988292693, -168.86742935984486, -187500.02235174447, -18790.15043856507, -10376.730308142938, -23367.67594428968, 0.648, -0.774, 0.14400000000000002, 192.0, 0.0, 0.0, 0.0, 0.0, 0.0, 0.0, 0.0, 0.0, 0.0, 1.6635914111125844E9, 0.0, 2022-09-19 17:43:31.112
242.0, 30552.174812814574, 61831.89890764939, -38788.88205157305, -139.05020225646524, -187500.02235174447, -19140.82695732438, -10336.206595445467, -23374.090894948353, 0.648, -0.774, 0.14400000000000002, 192.0, 0.0, 0.0, 0.0, 0.0, 0.0, 0.0, 0.0, 0.0, 0.0, 1.663591411115596E9, 0.0, 2022-09-19 17:43:31.115
243.0, 30867.848499756874, 62013.640941815494, -38811.68083091746, -105.27671638449627, -187500.02235174447, -18487.284301195657, -10326.908269752059, -23384.43975263116, 0.648, -0.774, 0.14400000000000002, 192.0, 0.0, 0.0, 0.0, 0.0, 0.0, 0.0, 0.0, 0.0, 0.0, 1.6635914111206E9, 0.0, 2022-09-19 17:43:31.120
244.0, 31335.469345506353, 62182.53072291979, -38848.09182263516, -98.92882095918905, -187500.02235174447, -17136.188404105713, -10376.104459298189, -23395.749735325546, 0.648, -0.774, 0.14400000000000002, 192.0, 0.0, 0.0, 0.0, 0.0, 0.0, 0.0, 0.0, 0.0, 0.0, 1.6635914111246147E9, 0.0, 2022-09-19 17:43:31.124
245.0, 31009.826780536987, 62023.922744264935, -38839.53110450877, -169.6273886713253, -187500.02235174447, -17537.491624056296, -10435.224823382476, -23394.16276146922, 0.648, -0.774, 0.14400000000000002, 192.0, 0.0, 0.0, 0.0, 0.0, 0.0, 0.0, 0.0, 0.0, 0.0, 1.663591411128621E9, 0.0, 2022-09-19 17:43:31.128
246.0, 30497.524797621347, 61894.88612352445, -38807.83633087115, -195.06367386146474, -187500.02235174447, -18852.802378273296, -10394.656407196095, -23390.966462012108, 0.648, -0.774, 0.14400000000000002, 192.0, 0.0, 0.0, 0.0, 0.0, 0.0, 0.0, 0.0, 0.0, 0.0, 1.663591411132624E9, 0.0, 2022-09-19 17:43:31.132
247.0, 30478.726980534433, 61986.438868813384, -38814.25128152982, -151.3213099624288, -187500.02235174447, -19182.468257244618, -10377.825543621248, -23369.352325123826, 0.648, -0.774, 0.14400000000000002, 192.0, 0.0, 0.0, 0.0, 0.0, 0.0, 0.0, 0.0, 0.0, 0.0, 1.6635914111366205E9, 0.0, 2022-09-19 17:43:31.136
248.0, 30848.49188905858, 62199.27217951682, -38827.75173518083, -107.13191117428676, -187500.02235174447, -18479.058859236105, -10339.402894902576, -23367.541833822947, 0.648, -0.774, 0.14400000000000002, 192.0, 0.0, 0.0, 0.0, 0.0, 0.0, 0.0, 0.0, 0.0, 0.0, 1.6635914111406384E9, 0.0, 2022-09-19 17:43:31.140
249.0, 31362.246735363813, 62382.51178056143, -38857.01016867282, -91.39628307775058, -187500.02235174447, -17066.540368382975, -10373.824581363748, -23382.182226441175, 0.648, -0.774, 0.14400000000000002, 192.0, 0.0, 0.0, 0.0, 0.0, 0.0, 0.0, 0.0, 0.0, 0.0, 1.6635914111456795E9, 0.0, 2022-09-19 17:43:31.145
250.0, 31017.202856207237, 62184.54237992077, -38833.183209083465, -160.217304255641, -187500.02235174447, -17461.87567256399, -10424.1607098771, -23390.117095722806, 0.646, -0.774, 0.14400000000000002, 192.0, 20.0, 48.0, 231.0, 208.0, 4.0, 128.0, 0.0, 0.0, 0.0, 1.6635914111496491E9, 0.0, 2022-09-19 17:43:31.149
251.0, 30475.12834967713, 62018.91595350695, -38788.97145855087, -155.94812106467737, -187500.02235174447, -18800.164020081047, -10365.33091847073, -23357.99763894053, 0.646, -0.774, 0.14400000000000002, 192.0, 0.0, 0.0, 0.0, 0.0, 0.0, 0.0, 0.0, 0.0, 0.0, 1.6635914111536689E9, 0.0, 2022-09-19 17:43:31.153
252.0, 30436.035148624796, 62088.42987876295, -38799.02974355576, -116.7878647789794, -187500.02235174447, -19155.467349942606, -10352.456313664474, -23365.77604601098, 0.646, -0.774, 0.14400000000000002, 192.0, 0.0, 0.0, 0.0, 0.0, 0.0, 0.0, 0.0, 0.0, 0.0, 1.6635914111577048E9, 0.0, 2022-09-19 17:43:31.157
253.0, 30736.17437317066, 62259.733648268426, -38814.13952280754, -83.26024809601881, -187500.02235174447, -18534.200612807348, -10327.824691274725, -23389.6700608337, 0.646, -0.774, 0.14400000000000002, 192.0, 0.0, 0.0, 0.0, 0.0, 0.0, 0.0, 0.0, 0.0, 0.0, 1.6635914111617644E9, 0.0, 2022-09-19 17:43:31.161
254.0, 31181.555233187108, 62423.63899035919, -38846.10251737863, -67.59167523284856, -187500.02235174447, -17210.530306164062, -10371.298834240299, -23395.861494047822, 0.646, -0.774, 0.14400000000000002, 192.0, 0.0, 0.0, 0.0, 0.0, 0.0, 0.0, 0.0, 0.0, 0.0, 1.6635914111647072E9, 0.0, 2022-09-19 17:43:31.164
255.0, 30813.891388641765, 62244.80268297228, -38828.24347355884, -116.69845780115817, -187500.02235174447, -17650.367933555597, -10430.463901813497, -23382.29398516345, 0.646, -0.774, 0.14400000000000002, 192.0, 0.0, 0.0, 0.0, 0.0, 0.0, 0.0, 0.0, 0.0, 0.0, 1.6635914111686728E9, 0.0, 2022-09-19 17:43:31.168
0.0, 30255.70127435938, 62097.750556200815, -38797.44276969943, -132.16586496423065, -187500.02235174447, -19031.86220310476, -10392.063604839279, -23379.365906639803, 0.646, -0.774, 0.14400000000000002, 192.0, 0.0, 0.0, 0.0, 0.0, 0.0, 0.0, 0.0, 0.0, 0.0, 1.6635914111717021E9, 0.0, 2022-09-19 17:43:31.171
1.0, 30192.8258172066, 62168.80675182423, -38818.073429831675, -102.68391402768064, -187500.02235174447, -19435.154728311867, -10393.2035438065, -23389.848874789343, 0.646, -0.774, 0.14400000000000002, 192.0, 0.0, 0.0, 0.0, 0.0, 0.0, 0.0, 0.0, 0.0, 0.0, 1.6635914111757247E9, 0.0, 2022-09-19 17:43:31.175
2.0, 30503.38095466864, 62313.48959368344, -38827.68467994746, -64.75300368702456, -187500.02235174447, -18833.11049140817, -10352.456313664474, -23396.10736323683, 0.646, -0.774, 0.14400000000000002, 192.0, 0.0, 0.0, 0.0, 0.0, 0.0, 0.0, 0.0, 0.0, 0.0, 1.6635914111806712E9, 0.0, 2022-09-19 17:43:31.180
3.0, 30989.173768660283, 62432.62439163023, -38859.06652916271, -52.61600644779283, -187500.02235174447, -17495.135068313488, -10379.703090155494, -23397.850799304342, 0.646, -0.774, 0.14400000000000002, 192.0, 0.0, 0.0, 0.0, 0.0, 0.0, 0.0, 0.0, 0.0, 0.0, 1.6635914111847084E9, 0.0, 2022-09-19 17:43:31.184
4.0, 30662.346561234783, 62214.9854558689, -38848.31534007971, -121.25821367004082, -187500.02235174447, -17899.88045691019, -10436.409465838608, -23393.78278181348, 0.644, -0.778, 0.146, 192.0, 20.0, 32.0, 231.0, 176.0, 4.0, 144.0, 0.0, 0.0, 0.0, 1.6635914111887147E9, 0.0, 2022-09-19 17:43:31.188
5.0, 30151.340979497552, 62035.456244403875, -38804.81884536968, -118.86657701332295, -187500.02235174447, -19244.42729287473, -10384.329901257743, -23372.59332806985, 0.644, -0.778, 0.146, 192.0, 0.0, 0.0, 0.0, 0.0, 0.0, 0.0, 0.0, 0.0, 0.0, 1.663591411192743E9, 0.0, 2022-09-19 17:43:31.192
6.0, 30164.617915704002, 62087.535808984736, -38801.42138021247, -74.85599218082335, -187500.02235174447, -19585.760782451725, -10346.778970572826, -23362.33387736486, 0.644, -0.778, 0.146, 192.0, 0.0, 0.0, 0.0, 0.0, 0.0, 0.0, 0.0, 0.0, 0.0, 1.6635914111967523E9, 0.0, 2022-09-19 17:43:31.196
7.0, 30539.881353364155, 62240.30998233676, -38821.26972928879, -40.00962257499964, -187500.02235174447, -18932.240478067455, -10326.908269752059, -23381.511674107514, 0.644, -0.778, 0.146, 192.0, 0.0, 0.0, 0.0, 0.0, 0.0, 0.0, 0.0, 0.0, 0.0, 1.6635914111997821E9, 0.0, 2022-09-19 17:43:31.199
8.0, 31079.363057537445, 62390.4242980986, -38859.55826754073, -25.12336076776514, -187500.02235174447, -17540.911440957956, -10370.807095862281, -23401.91881679521, 0.644, -0.778, 0.146, 192.0, 0.0, 0.0, 0.0, 0.0, 0.0, 0.0, 0.0, 0.0, 0.0, 1.6635914112037315E9, 0.0, 2022-09-19 17:43:31.203
9.0, 30827.28008357049, 62194.46655445893, -38838.838200430655, -77.76171896001327, -187500.02235174447, -17847.53267139586, -10427.781692478859, -23391.48055213458, 0.644, -0.778, 0.146, 192.0, 0.0, 0.0, 0.0, 0.0, 0.0, 0.0, 0.0, 0.0, 0.0, 1.6635914112087424E9, 0.0, 2022-09-19 17:43:31.208
10.0, 30355.97119998589, 62019.653561073974, -38803.902423847016, -96.64894302474774, -187500.02235174447, -19127.013579251, -10387.280331525842, -23376.706049049622, 0.644, -0.778, 0.146, 192.0, 0.0, 0.0, 0.0, 0.0, 0.0, 0.0, 0.0, 0.0, 0.0, 1.663591411212733E9, 0.0, 2022-09-19 17:43:31.212
11.0, 30380.44636016445, 62090.01685261928, -38809.15508379401, -61.95903563011118, -187500.02235174447, -19432.293705021584, -10371.38824121812, -23364.8149209994, 0.644, -0.778, 0.146, 192.0, 0.0, 0.0, 0.0, 0.0, 0.0, 0.0, 0.0, 0.0, 0.0, 1.663591411216759E9, 0.0, 2022-09-19 17:43:31.216
12.0, 30784.700010383134, 62273.99406123091, -38827.57292122518, -21.100046765809868, -187500.02235174447, -18724.70453079993, -10350.33289794122, -23369.799360012934, 0.644, -0.778, 0.146, 192.0, 0.0, 0.0, 0.0, 0.0, 0.0, 0.0, 0.0, 0.0, 0.0, 1.6635914112208E9, 0.0, 2022-09-19 17:43:31.220
13.0, 31360.458595807388, 62450.48343545001, -38863.112194909125, -8.806587315390983, -187500.02235174447, -17265.023859146102, -10396.891581641625, -23385.8702642763, 0.644, -0.778, 0.146, 192.0, 0.0, 0.0, 0.0, 0.0, 0.0, 0.0, 0.0, 0.0, 0.0, 1.6635914112238197E9, 0.0, 2022-09-19 17:43:31.223
14.0, 31134.951845997795, 62275.98336648743, -38844.69435747795, -79.92983817217805, -187500.02235174447, -17501.55001897216, -10442.869119986191, -23390.362964911816, 0.632, -0.78, 0.146, 192.0, 19.0, 192.0, 231.0, 160.0, 4.0, 144.0, 0.0, 0.0, 0.0, 1.6635914112277691E9, 0.0, 2022-09-19 17:43:31.227
15.0, 30700.07630587534, 62118.716492499894, -38814.228929785364, -90.79278597745729, -187500.02235174447, -18708.18659164746, -10388.934360615536, -23368.346496623337, 0.632, -0.78, 0.146, 192.0, 0.0, 0.0, 0.0, 0.0, 0.0, 0.0, 0.0, 0.0, 0.0, 1.6635914112317955E9, 0.0, 2022-09-19 17:43:31.231
16.0, 30759.576649615366, 62186.039946799276, -38826.902368891526, -60.21559956259723, -187500.02235174447, -18937.828414181284, -10363.453371936486, -23363.987906454553, 0.632, -0.78, 0.146, 192.0, 0.0, 0.0, 0.0, 0.0, 0.0, 0.0, 0.0, 0.0, 0.0, 1.6635914112367828E9, 0.0, 2022-09-19 17:43:31.236
17.0, 31184.863291366495, 62353.78978893635, -38836.24539807384, -29.21373000308633, -187500.02235174447, -18172.6387944983, -10342.152159470577, -23385.266767176006, 0.632, -0.78, 0.146, 192.0, 0.0, 0.0, 0.0, 0.0, 0.0, 0.0, 0.0, 0.0, 0.0, 1.6635914112407968E9, 0.0, 2022-09-19 17:43:31.240
18.0, 31794.52947312945, 62534.95067774662, -38866.01792168831, -16.115607752276393, -187500.02235174447, -16645.947592967463, -10382.944093101512, -23405.383337185784, 0.632, -0.78, 0.146, 192.0, 0.0, 0.0, 0.0, 0.0, 0.0, 0.0, 0.0, 0.0, 0.0, 1.6635914112448208E9, 0.0, 2022-09-19 17:43:31.244
19.0, 31617.481305298963, 62383.182332895085, -38848.47180229089, -69.58098048937089, -187500.02235174447, -16775.297138130325, -10433.034352425857, -23394.520389380505, 0.632, -0.78, 0.146, 192.0, 0.0, 0.0, 0.0, 0.0, 0.0, 0.0, 0.0, 0.0, 0.0, 1.6635914112478492E9, 0.0, 2022-09-19 17:43:31.247
20.0, 31211.08188761257, 62246.50141555088, -38822.94611012293, -79.54985851643784, -187500.02235174447, -17892.7726021734, -10405.049968367812, -23362.736208765058, 0.632, -0.78, 0.146, 192.0, 0.0, 0.0, 0.0, 0.0, 0.0, 0.0, 0.0, 0.0, 0.0, 1.663591411251818E9, 0.0, 2022-09-19 17:43:31.251
21.0, 31285.312030948644, 62343.552689975826, -38831.48447650486, -45.21757903308619, -187500.02235174447, -18054.08514190735, -10366.537912671318, -23357.058865673407, 0.632, -0.78, 0.146, 192.0, 0.0, 0.0, 0.0, 0.0, 0.0, 0.0, 0.0, 0.0, 0.0, 1.6635914112558172E9, 0.0, 2022-09-19 17:43:31.255
22.0, 31715.29253903539, 62538.102273714816, -38847.82360170169, -2.7045610790921546, -187500.02235174447, -17239.14053906686, -10341.012220503357, -23374.24735715954, 0.632, -0.78, 0.146, 192.0, 0.0, 0.0, 0.0, 0.0, 0.0, 0.0, 0.0, 0.0, 0.0, 1.6635914112598927E9, 0.0, 2022-09-19 17:43:31.259
23.0, 32328.423241188913, 62730.57314521947, -38884.011075974835, 12.09229375032112, -187500.02235174447, -15662.917871823058, -10398.277389797853, -23391.614662601314, 0.632, -0.78, 0.146, 192.0, 0.0, 0.0, 0.0, 0.0, 0.0, 0.0, 0.0, 0.0, 0.0, 1.6635914112638383E9, 0.0, 2022-09-19 17:43:31.263
24.0, 32156.5383263276, 62569.86410258581, -38879.76424452833, -47.7880296454465, -187500.02235174447, -15727.514413298895, -10469.802972054837, -23376.594290327346, 0.632, -0.78, 0.146, 192.0, 0.0, 0.0, 0.0, 0.0, 0.0, 0.0, 0.0, 0.0, 0.0, 1.663591411268829E9, 0.0, 2022-09-19 17:43:31.268
25.0, 31750.13890864121, 62413.89362977668, -38851.46693604791, -76.64413173724792, -187500.02235174447, -16787.70235630302, -10421.34439007573, -23375.946089738143, 0.628, -0.788, 0.136, 192.0, 19.0, 160.0, 231.0, 96.0, 4.0, 64.0, 0.0, 0.0, 0.0, 1.6635914112728727E9, 0.0, 2022-09-19 17:43:31.272
26.0, 31868.960782165625, 62525.25002065302, -38835.17251433999, -28.520825924971813, -187500.02235174447, -16856.43397050309, -10367.946072572002, -23355.315429605893, 0.628, -0.788, 0.136, 192.0, 0.0, 0.0, 0.0, 0.0, 0.0, 0.0, 0.0, 0.0, 0.0, 1.6635914112759826E9, 0.0, 2022-09-19 17:43:31.275
27.0, 32322.38827018598, 62726.21455505068, -38860.89937220805, 3.7774448129468934, -187500.02235174447, -15968.600328993838, -10350.891691552602, -23362.9150227207, 0.628, -0.788, 0.136, 192.0, 0.0, 0.0, 0.0, 0.0, 0.0, 0.0, 0.0, 0.0, 0.0, 1.6635914112798667E9, 0.0, 2022-09-19 17:43:31.279
28.0, 32978.74724611607, 62935.65040059691, -38879.27250615031, 42.75888714300241, -187500.02235174447, -14298.54503852666, -10381.513581456373, -23358.66819127419, 0.628, -0.788, 0.136, 192.0, 0.0, 0.0, 0.0, 0.0, 0.0, 0.0, 0.0, 0.0, 0.0, 1.6635914112838445E9, 0.0, 2022-09-19 17:43:31.283
29.0, 32902.17016961219, 62808.021939757105, -38866.75552925534, 18.239023475530562, -187500.02235174447, -14185.042880182611, -10444.92548047608, -23347.42526381317, 0.628, -0.788, 0.136, 192.0, 0.0, 0.0, 0.0, 0.0, 0.0, 0.0, 0.0, 0.0, 0.0, 1.6635914112878747E9, 0.0, 2022-09-19 17:43:31.287
30.0, 32603.774381133844, 62676.43722014871, -38841.20748534292, 10.147691982709407, -187500.02235174447, -15038.231317786136, -10396.980988619445, -23341.122071876773, 0.628, -0.788, 0.136, 192.0, 0.0, 0.0, 0.0, 0.0, 0.0, 0.0, 0.0, 0.0, 0.0, 1.663591411291891E9, 0.0, 2022-09-19 17:43:31.291
31.0, 32830.35401467729, 62806.50202113415, -38838.54762775274, 65.15533508722008, -187500.02235174447, -14891.313301481403, -10366.604967904685, -23327.532211247948, 0.628, -0.788, 0.136, 192.0, 0.0, 0.0, 0.0, 0.0, 0.0, 0.0, 0.0, 0.0, 0.0, 1.6635914112969065E9, 0.0, 2022-09-19 17:43:31.296
32.0, 33442.9929784528, 63058.45088463437, -38859.49121230736, 119.33596364688441, -187500.02235174447, -13726.273325237433, -10345.661383350061, -23323.888876901732, 0.628, -0.788, 0.136, 192.0, 0.0, 0.0, 0.0, 0.0, 0.0, 0.0, 0.0, 0.0, 0.0, 1.6635914113009388E9, 0.0, 2022-09-19 17:43:31.300
33.0, 34210.59658653696, 63290.327881613724, -38914.74472460088, 119.38066713579502, -187500.02235174447, -11789.002929807059, -10399.86436365418, -23359.472854074582, 0.628, -0.788, 0.136, 192.0, 0.0, 0.0, 0.0, 0.0, 0.0, 0.0, 0.0, 0.0, 0.0, 1.663591411303903E9, 0.0, 2022-09-19 17:43:31.303
34.0, 34102.59295732891, 63124.94732438891, -38891.29774466727, 47.4751052230722, -187500.02235174447, -11535.265926750413, -10459.565873094305, -23351.314467348395, 0.628, -0.788, 0.136, 192.0, 0.0, 0.0, 0.0, 0.0, 0.0, 0.0, 0.0, 0.0, 0.0, 1.6635914113079045E9, 0.0, 2022-09-19 17:43:31.307
35.0, 33649.63485594212, 62911.063481696074, -38824.84600840163, 24.475160178561232, -187500.02235174447, -12409.68852158648, -10369.533046428329, -23325.22998156905, 0.63, -0.78, 0.134, 192.0, 19.0, 176.0, 231.0, 160.0, 4.0, 48.0, 0.0, 0.0, 0.0, 1.6635914113119128E9, 0.0, 2022-09-19 17:43:31.311
36.0, 33605.020774009325, 62909.43180435083, -38829.91985439299, 33.63937540523713, -187500.02235174447, -12465.724344935936, -10370.337709228721, -23336.875240430265, 0.63, -0.78, 0.134, 192.0, 0.0, 0.0, 0.0, 0.0, 0.0, 0.0, 0.0, 0.0, 0.0, 1.6635914113159156E9, 0.0, 2022-09-19 17:43:31.315
37.0, 33857.260210187465, 63009.83584044407, -38845.566075511706, 45.35168949981803, -187500.02235174447, -11659.809846855385, -10346.75661882837, -23344.206612611608, 0.63, -0.78, 0.134, 192.0, 0.0, 0.0, 0.0, 0.0, 0.0, 0.0, 0.0, 0.0, 0.0, 1.6635914113199425E9, 0.0, 2022-09-19 17:43:31.319
38.0, 34279.50701469267, 63127.20485057889, -38868.007226944836, 55.72289892708051, -187500.02235174447, -10141.522901239741, -10382.474706467952, -23354.823691227877, 0.63, -0.78, 0.134, 192.0, 0.0, 0.0, 0.0, 0.0, 0.0, 0.0, 0.0, 0.0, 0.0, 1.66359141132505E9, 0.0, 2022-09-19 17:43:31.325
39.0, 33987.03443849498, 62932.4541011398, -38857.70307275094, -5.722046580558608, -187500.02235174447, -10158.286709581222, -10436.96825944999, -23354.9130982057, 0.63, -0.78, 0.134, 192.0, 0.0, 0.0, 0.0, 0.0, 0.0, 0.0, 0.0, 0.0, 0.0, 1.6635914113289635E9, 0.0, 2022-09-19 17:43:31.328
40.0, 33469.90447877699, 62753.37192456388, -38815.279461774764, -17.88139556424565, -187500.02235174447, -11186.265788825249, -10377.24439826541, -23338.886897431243, 0.63, -0.78, 0.134, 192.0, 0.0, 0.0, 0.0, 0.0, 0.0, 0.0, 0.0, 0.0, 0.0, 1.663591411331938E9, 0.0, 2022-09-19 17:43:31.331
41.0, 33401.0834575991, 62795.41555588431, -38822.34261302264, 4.157424468687114, -187500.02235174447, -11355.066162951727, -10352.232796219922, -23357.595307540334, 0.63, -0.78, 0.134, 192.0, 0.0, 0.0, 0.0, 0.0, 0.0, 0.0, 0.0, 0.0, 0.0, 1.663591411335935E9, 0.0, 2022-09-19 17:43:31.335
42.0, 33668.23150732893, 62957.73392411875, -38831.372717782586, 48.77150640148001, -187500.02235174447, -10620.05139828341, -10330.886880265103, -23359.62931628577, 0.63, -0.78, 0.134, 192.0, 0.0, 0.0, 0.0, 0.0, 0.0, 0.0, 0.0, 0.0, 0.0, 1.6635914113399982E9, 0.0, 2022-09-19 17:43:31.339
43.0, 34099.3966578718, 63114.53141147273, -38867.94017171147, 61.86962865228995, -187500.02235174447, -9169.043203478243, -10375.500962197895, -23390.765296312013, 0.63, -0.78, 0.134, 192.0, 0.0, 0.0, 0.0, 0.0, 0.0, 0.0, 0.0, 0.0, 0.0, 1.66359141134402E9, 0.0, 2022-09-19 17:43:31.344
44.0, 33844.251494914475, 62983.25961628671, -38849.58938951366, 17.81434033087973, -187500.02235174447, -9192.065500267208, -10427.401712823119, -23383.031592730476, 0.63, -0.78, 0.134, 192.0, 0.0, 0.0, 0.0, 0.0, 0.0, 0.0, 0.0, 0.0, 0.0, 1.663591411347973E9, 0.0, 2022-09-19 17:43:31.347
45.0, 33326.987424729756, 62827.15503301085, -38814.787723396745, -7.063151247877032, -187500.02235174447, -10257.573158451696, -10390.767203660871, -23366.82657800038, 0.636, -0.782, 0.132, 192.0, 19.0, 224.0, 231.0, 144.0, 4.0, 32.0, 0.0, 0.0, 0.0, 1.663591411352962E9, 0.0, 2022-09-19 17:43:31.352
46.0, 33223.9905862797, 62859.050972348574, -38810.69735416143, 11.131168738742916, -187500.02235174447, -10507.867992862224, -10372.908159841081, -23364.166720410198, 0.636, -0.782, 0.132, 192.0, 0.0, 0.0, 0.0, 0.0, 0.0, 0.0, 0.0, 0.0, 0.0, 1.6635914113580334E9, 0.0, 2022-09-19 17:43:31.358
47.0, 33452.827746013136, 63006.03604388667, -38831.59623522714, 42.64712842072588, -187500.02235174447, -9872.094973575471, -10360.61470039066, -23372.727438536578, 0.636, -0.782, 0.132, 192.0, 0.0, 0.0, 0.0, 0.0, 0.0, 0.0, 0.0, 0.0, 0.0, 1.6635914113611102E9, 0.0, 2022-09-19 17:43:31.361
48.0, 33862.73638757901, 63167.12506617607, -38847.42127030149, 64.8871141537564, -187500.02235174447, -8509.35381762431, -10366.828485349237, -23375.990793227054, 0.636, -0.782, 0.132, 192.0, 0.0, 0.0, 0.0, 0.0, 0.0, 0.0, 0.0, 0.0, 0.0, 1.663591411365016E9, 0.0, 2022-09-19 17:43:31.365
49.0, 33580.187985919474, 63021.101119649546, -38830.21042707091, 11.80172107240213, -187500.02235174447, -8602.158260602744, -10415.48823302844, -23372.302755391927, 0.636, -0.782, 0.132, 192.0, 0.0, 0.0, 0.0, 0.0, 0.0, 0.0, 0.0, 0.0, 0.0, 1.6635914113679943E9, 0.0, 2022-09-19 17:43:31.367
50.0, 33045.82483122645, 62865.15299858487, -38795.654630143006, -14.573337384860205, -187500.02235174447, -9722.20417525818, -10368.236645249921, -23374.984964726566, 0.636, -0.782, 0.132, 192.0, 0.0, 0.0, 0.0, 0.0, 0.0, 0.0, 0.0, 0.0, 0.0, 1.6635914113720975E9, 0.0, 2022-09-19 17:43:31.372
51.0, 32958.630676106295, 62909.521211328654, -38798.76152262229, 19.155444998198153, -187500.02235174447, -10004.819632151084, -10341.123979225633, -23362.512691320502, 0.636, -0.782, 0.132, 192.0, 0.0, 0.0, 0.0, 0.0, 0.0, 0.0, 0.0, 0.0, 0.0, 1.6635914113760211E9, 0.0, 2022-09-19 17:43:31.376
52.0, 33183.44452183777, 63044.86102400554, -38811.18909253944, 57.846314650334676, -187500.02235174447, -9428.569308348813, -10335.223118689433, -23370.224043157585, 0.636, -0.782, 0.132, 192.0, 0.0, 0.0, 0.0, 0.0, 0.0, 0.0, 0.0, 0.0, 0.0, 1.6635914113801136E9, 0.0, 2022-09-19 17:43:31.380
53.0, 33583.07136095421, 63202.597284626645, -38841.81098244322, 73.96192240261107, -187500.02235174447, -8133.151606697036, -10380.038366322324, -23389.62535734479, 0.636, -0.782, 0.132, 192.0, 0.0, 0.0, 0.0, 0.0, 0.0, 0.0, 0.0, 0.0, 0.0, 1.6635914113841512E9, 0.0, 2022-09-19 17:43:31.384
54.0, 33312.59290130054, 63058.42853288991, -38826.63414795806, 21.480026421550086, -187500.02235174447, -8248.039573197315, -10431.983820436457, -23387.5689968549, 0.636, -0.782, 0.132, 192.0, 0.0, 0.0, 0.0, 0.0, 0.0, 0.0, 0.0, 0.0, 0.0, 1.6635914113891425E9, 0.0, 2022-09-19 17:43:31.389
55.0, 32791.70784851407, 62889.62815876343, -38786.95980154989, 2.3469331678072414, -187500.02235174447, -9388.112650884706, -10374.025747063846, -23377.220139172096, 0.644, -0.784, 0.12, 192.0, 20.0, 32.0, 231.0, 128.0, 3.0, 192.0, 0.0, 0.0, 0.0, 1.6635914113921032E9, 0.0, 2022-09-19 17:43:31.392
56.0, 32701.719725337, 62921.16647018987, -38800.63906915654, 27.8502735913126, -187500.02235174447, -9718.225564745137, -10369.063659794767, -23389.535950366968, 0.644, -0.784, 0.12, 192.0, 0.0, 0.0, 0.0, 0.0, 0.0, 0.0, 0.0, 0.0, 0.0, 1.6635914113960953E9, 0.0, 2022-09-19 17:43:31.396
57.0, 32927.13706816877, 63059.255547434754, -38817.7605054093, 60.93085538516705, -187500.02235174447, -9196.759366602822, -10359.966499801458, -23382.271633418994, 0.644, -0.784, 0.12, 192.0, 0.0, 0.0, 0.0, 0.0, 0.0, 0.0, 0.0, 0.0, 0.0, 1.663591411400113E9, 0.0, 2022-09-19 17:43:31.400
58.0, 33318.60552055902, 63203.2678369603, -38841.431002787474, 63.32249204188491, -187500.02235174447, -7972.889598952484, -10386.252151280898, -23382.0704677189, 0.644, -0.784, 0.12, 192.0, 0.0, 0.0, 0.0, 0.0, 0.0, 0.0, 0.0, 0.0, 0.0, 1.6635914114071448E9, 0.0, 2022-09-19 17:43:31.407
59.0, 33050.16106965078, 63050.672477563916, -38834.12198235059, 2.5704506123603124, -187500.02235174447, -8127.921298494494, -10435.515396060395, -23375.87903450478, 0.644, -0.784, 0.12, 192.0, 0.0, 0.0, 0.0, 0.0, 0.0, 0.0, 0.0, 0.0, 0.0, 1.6635914114101667E9, 0.0, 2022-09-19 17:43:31.410
60.0, 32537.121479168116, 62869.37747828692, -38787.42918818345, -12.002886772499892, -187500.02235174447, -9291.933094493521, -10377.177343032045, -23374.336764137362, 0.644, -0.784, 0.12, 192.0, 0.0, 0.0, 0.0, 0.0, 0.0, 0.0, 0.0, 0.0, 0.0, 1.663591411414172E9, 0.0, 2022-09-19 17:43:31.414
61.0, 32442.014806510786, 62873.62430973343, -38794.648801642514, 3.263354690474831, -187500.02235174447, -9668.984671710095, -10362.559302158274, -23382.964537497108, 0.644, -0.784, 0.12, 192.0, 0.0, 0.0, 0.0, 0.0, 0.0, 0.0, 0.0, 0.0, 0.0, 1.6635914114171414E9, 0.0, 2022-09-19 17:43:31.417
62.0, 32652.41177706859, 62971.256729514214, -38800.192034267435, 31.337145726340502, -187500.02235174447, -9208.96341907542, -10332.406798888063, -23391.25703469003, 0.644, -0.784, 0.12, 192.0, 0.0, 0.0, 0.0, 0.0, 0.0, 0.0, 0.0, 0.0, 0.0, 1.6635914114202073E9, 0.0, 2022-09-19 17:43:31.420
63.0, 33038.29229334501, 63072.33131794111, -38832.624415472084, 38.847331863323674, -187500.02235174447, -8044.079905042638, -10361.732287613428, -23409.697223865656, 0.644, -0.784, 0.12, 192.0, 0.0, 0.0, 0.0, 0.0, 0.0, 0.0, 0.0, 0.0, 0.0, 1.6635914114241693E9, 0.0, 2022-09-19 17:43:31.424
64.0, 32741.796403145363, 62857.41929500333, -38831.19390382694, -13.187529228631167, -187500.02235174447, -8257.96374773547, -10429.748645990927, -23409.451354676647, 0.644, -0.784, 0.12, 192.0, 0.0, 0.0, 0.0, 0.0, 0.0, 0.0, 0.0, 0.0, 0.0, 1.663591411428188E9, 0.0, 2022-09-19 17:43:31.428
65.0, 32188.747190087703, 62656.521815839034, -38793.128883019555, -21.14475025472048, -187500.02235174447, -9502.151251095684, -10393.896447884614, -23402.276444706495, 0.646, -0.782, 0.11800000000000001, 192.0, 20.0, 48.0, 231.0, 144.0, 3.0, 176.0, 0.0, 0.0, 0.0, 1.6635914114321876E9, 0.0, 2022-09-19 17:43:31.432
66.0, 32045.651322084825, 62661.17097868574, -38796.50399643231, 3.19629945710891, -187500.02235174447, -9980.478582439255, -10366.76143011587, -23398.789572571466, 0.646, -0.782, 0.11800000000000001, 192.0, 0.0, 0.0, 0.0, 0.0, 0.0, 0.0, 0.0, 0.0, 0.0, 1.6635914114361916E9, 0.0, 2022-09-19 17:43:31.436
67.0, 32196.48089366924, 62757.70816298821, -38809.53506344975, 16.74145659702499, -187500.02235174447, -9655.90890120374, -10356.09964801069, -23407.953787798142, 0.646, -0.782, 0.11800000000000001, 192.0, 0.0, 0.0, 0.0, 0.0, 0.0, 0.0, 0.0, 0.0, 0.0, 1.663591411441203E9, 0.0, 2022-09-19 17:43:31.441
68.0, 32540.92127572552, 62884.084926138516, -38828.24347355884, 30.845407348323747, -187500.02235174447, -8619.302048599964, -10375.925645342546, -23420.11313678183, 0.646, -0.782, 0.11800000000000001, 192.0, 0.0, 0.0, 0.0, 0.0, 0.0, 0.0, 0.0, 0.0, 0.0, 1.6635914114442315E9, 0.0, 2022-09-19 17:43:31.444
69.0, 32207.880283341445, 62702.34289197242, -38822.23085430037, -32.767657371480155, -187500.02235174447, -8938.127331510465, -10427.625230267671, -23426.46103220714, 0.646, -0.782, 0.11800000000000001, 192.0, 0.0, 0.0, 0.0, 0.0, 0.0, 0.0, 0.0, 0.0, 0.0, 1.6635914114482212E9, 0.0, 2022-09-19 17:43:31.448
70.0, 31587.239395050932, 62490.02367139145, -38798.225080755365, -71.14560260124237, -187500.02235174447, -10325.27659240682, -10406.569886990774, -23421.387186215783, 0.646, -0.782, 0.11800000000000001, 192.0, 0.0, 0.0, 0.0, 0.0, 0.0, 0.0, 0.0, 0.0, 0.0, 1.663591411452223E9, 0.0, 2022-09-19 17:43:31.452
71.0, 31378.250584393812, 62478.91485439717, -38797.040438299235, -54.00181460402187, -187500.02235174447, -10981.143829958895, -10379.904255855592, -23412.8264680894, 0.646, -0.782, 0.11800000000000001, 192.0, 0.0, 0.0, 0.0, 0.0, 0.0, 0.0, 0.0, 0.0, 0.0, 1.6635914114562595E9, 0.0, 2022-09-19 17:43:31.456
72.0, 31475.435969285485, 62569.59588165235, -38796.124016776565, -29.258433491996946, -187500.02235174447, -10844.865244014889, -10346.197825216988, -23414.659311134736, 0.646, -0.782, 0.11800000000000001, 192.0, 0.0, 0.0, 0.0, 0.0, 0.0, 0.0, 0.0, 0.0, 0.0, 1.66359141146026E9, 0.0, 2022-09-19 17:43:31.460
73.0, 31769.54022282842, 62689.46828716616, -38812.217272784386, -8.024276259455236, -187500.02235174447, -9995.945989602327, -10360.994680046402, -23407.216180231117, 0.646, -0.782, 0.11800000000000001, 192.0, 0.0, 0.0, 0.0, 0.0, 0.0, 0.0, 0.0, 0.0, 0.0, 1.6635914114642255E9, 0.0, 2022-09-19 17:43:31.464
74.0, 31426.575055906185, 62517.47161358257, -38810.76440939479, -51.72193666958054, -187500.02235174447, -10437.325887361276, -10425.68062850006, -23400.220084216606, 0.646, -0.782, 0.11800000000000001, 192.0, 0.0, 0.0, 0.0, 0.0, 0.0, 0.0, 0.0, 0.0, 0.0, 1.6635914114682746E9, 0.0, 2022-09-19 17:43:31.468
75.0, 30844.33446458989, 62343.19506206454, -38785.5516416492, -70.43034677867256, -187500.02235174447, -11886.814163543482, -10390.700148427504, -23393.022822501996, 0.652, -0.78, 0.116, 192.0, 20.0, 96.0, 231.0, 160.0, 3.0, 160.0, 0.0, 0.0, 0.0, 1.66359141147221E9, 0.0, 2022-09-19 17:43:31.472
76.0, 30737.64958830471, 62393.531190577894, -38771.33593217563, -36.56745392888235, -187500.02235174447, -12509.399653601606, -10350.578767130228, -23390.027688744987, 0.652, -0.78, 0.116, 192.0, 0.0, 0.0, 0.0, 0.0, 0.0, 0.0, 0.0, 0.0, 0.0, 1.6635914114752283E9, 0.0, 2022-09-19 17:43:31.475
77.0, 30981.440065078747, 62544.405465651216, -38792.59244115263, 1.1622907116759673, -187500.02235174447, -12259.887130247012, -10349.394124674098, -23408.28906396497, 0.652, -0.78, 0.116, 192.0, 0.0, 0.0, 0.0, 0.0, 0.0, 0.0, 0.0, 0.0, 0.0, 1.6635914114802308E9, 0.0, 2022-09-19 17:43:31.480
78.0, 31447.429233482988, 62718.1008718134, -38833.92081665049, 19.80364558740206, -187500.02235174447, -11242.03339124124, -10384.329901257743, -23427.131584540795, 0.652, -0.78, 0.116, 192.0, 0.0, 0.0, 0.0, 0.0, 0.0, 0.0, 0.0, 0.0, 0.0, 1.6635914114842522E9, 0.0, 2022-09-19 17:43:31.484
79.0, 31242.173164149903, 62571.04874504194, -38827.528217736275, -32.164160271186866, -187500.02235174447, -11505.359292669213, -10434.442512326541, -23416.670968135713, 0.652, -0.78, 0.116, 192.0, 0.0, 0.0, 0.0, 0.0, 0.0, 0.0, 0.0, 0.0, 0.0, 1.6635914114882567E9, 0.0, 2022-09-19 17:43:31.488
80.0, 30751.21709718908, 62403.63417907169, -38792.19010975243, -50.38083200226212, -187500.02235174447, -12809.270657214005, -10397.830354908749, -23396.040308003463, 0.652, -0.78, 0.116, 192.0, 0.0, 0.0, 0.0, 0.0, 0.0, 0.0, 0.0, 0.0, 0.0, 1.6635914114922707E9, 0.0, 2022-09-19 17:43:31.492
81.0, 30705.328965822337, 62464.85560713478, -38779.494318901816, -3.7103895795809723, -187500.02235174447, -13332.21207049037, -10356.926662555536, -23384.707973564622, 0.652, -0.78, 0.116, 192.0, 0.0, 0.0, 0.0, 0.0, 0.0, 0.0, 0.0, 0.0, 0.0, 1.6635914114973323E9, 0.0, 2022-09-19 17:43:31.497
82.0, 30960.541184013033, 62610.83485017239, -38799.566185422686, 33.63937540523713, -187500.02235174447, -13041.10295070445, -10353.372735187142, -23393.58161611338, 0.652, -0.78, 0.116, 192.0, 0.0, 0.0, 0.0, 0.0, 0.0, 0.0, 0.0, 0.0, 0.0, 1.6635914115003223E9, 0.0, 2022-09-19 17:43:31.500
83.0, 31431.291273986255, 62783.278558645085, -38829.24930205933, 47.27393952297444, -187500.02235174447, -11999.623417809418, -10377.892598854614, -23414.48049717909, 0.652, -0.78, 0.116, 192.0, 0.0, 0.0, 0.0, 0.0, 0.0, 0.0, 0.0, 0.0, 0.0, 1.6635914115032787E9, 0.0, 2022-09-19 17:43:31.503
84.0, 31238.082794914582, 62632.73955973859, -38824.33191827917, -13.500453651005467, -187500.02235174447, -12225.443092041385, -10434.174291393078, -23413.474668678602, 0.652, -0.78, 0.116, 192.0, 0.0, 0.0, 0.0, 0.0, 0.0, 0.0, 0.0, 0.0, 0.0, 1.663591411508337E9, 0.0, 2022-09-19 17:43:31.508
85.0, 30742.052881962405, 62449.27644124943, -38787.943278305924, -32.34297422682932, -187500.02235174447, -13515.29520932379, -10395.595180463217, -23399.9742150276, 0.648, -0.778, 0.11800000000000001, 192.0, 20.0, 64.0, 231.0, 176.0, 3.0, 176.0, 0.0, 0.0, 0.0, 1.6635914115123632E9, 0.0, 2022-09-19 17:43:31.512
86.0, 30688.7439714365, 62498.182058117636, -38784.612868382086, 0.11175872227653531, -187500.02235174447, -14032.671038230783, -10360.502941668385, -23391.569959112403, 0.648, -0.778, 0.11800000000000001, 192.0, 0.0, 0.0, 0.0, 0.0, 0.0, 0.0, 0.0, 0.0, 0.0, 1.6635914115163543E9, 0.0, 2022-09-19 17:43:31.516
87.0, 30946.973675128662, 62648.81046400195, -38808.75275239381, 18.3507821978071, -187500.02235174447, -13729.648438650185, -10350.198787474488, -23409.987796543577, 0.648, -0.778, 0.11800000000000001, 192.0, 0.0, 0.0, 0.0, 0.0, 0.0, 0.0, 0.0, 0.0, 0.0, 1.6635914115223603E9, 0.0, 2022-09-19 17:43:31.522
88.0, 31411.867608054592, 62824.785748098584, -38840.29106382025, 18.88722406473447, -187500.02235174447, -12684.056184775376, -10381.737098900927, -23439.73796841359, 0.648, -0.778, 0.11800000000000001, 192.0, 0.0, 0.0, 0.0, 0.0, 0.0, 0.0, 0.0, 0.0, 0.0, 1.6635914115253072E9, 0.0, 2022-09-19 17:43:31.525
89.0, 31208.243216066745, 62689.78121158853, -38824.04134560125, -34.98048007255555, -187500.02235174447, -12900.242257147105, -10431.87206171418, -23427.176288029706, 0.648, -0.778, 0.11800000000000001, 192.0, 0.0, 0.0, 0.0, 0.0, 0.0, 0.0, 0.0, 0.0, 0.0, 1.6635914115283132E9, 0.0, 2022-09-19 17:43:31.528
90.0, 30671.26490727245, 62500.86426745228, -38780.99188578032, -59.835619906857005, -187500.02235174447, -14226.997104525222, -10386.833296636736, -23404.26574996302, 0.648, -0.778, 0.11800000000000001, 192.0, 0.0, 0.0, 0.0, 0.0, 0.0, 0.0, 0.0, 0.0, 0.0, 1.6635914115324216E9, 0.0, 2022-09-19 17:43:31.532
91.0, 30545.648103433625, 62524.62417180827, -38781.036589269235, -34.555796927904716, -187500.02235174447, -14845.492225348024, -10361.419363191053, -23391.525255623492, 0.648, -0.778, 0.11800000000000001, 192.0, 0.0, 0.0, 0.0, 0.0, 0.0, 0.0, 0.0, 0.0, 0.0, 1.6635914115363796E9, 0.0, 2022-09-19 17:43:31.536
92.0, 30715.4990095495, 62641.21087088715, -38798.29213598873, -9.678305349147958, -187500.02235174447, -14689.72291823899, -10345.773142072338, -23403.550494140447, 0.648, -0.778, 0.11800000000000001, 192.0, 0.0, 0.0, 0.0, 0.0, 0.0, 0.0, 0.0, 0.0, 0.0, 1.6635914115403707E9, 0.0, 2022-09-19 17:43:31.540
93.0, 31072.746941178673, 62777.64591904234, -38825.985947368856, 0.06705523336592119, -187500.02235174447, -13833.74051257855, -10370.069488295256, -23423.60000891686, 0.648, -0.778, 0.11800000000000001, 192.0, 0.0, 0.0, 0.0, 0.0, 0.0, 0.0, 0.0, 0.0, 0.0, 1.663591411544361E9, 0.0, 2022-09-19 17:43:31.544
94.0, 30728.999463200507, 62585.80089638244, -38819.68275543246, -68.59750373333738, -187500.02235174447, -14289.11260236652, -10438.555233306317, -23425.00816881754, 0.648, -0.778, 0.11800000000000001, 192.0, 0.0, 0.0, 0.0, 0.0, 0.0, 0.0, 0.0, 0.0, 0.0, 1.6635914115483444E9, 0.0, 2022-09-19 17:43:31.548
95.0, 30037.928228131324, 62347.53130048887, -38777.125033989556, -109.56825131991522, -187500.02235174447, -15901.634502605737, -10387.481497225941, -23415.218104746116, 0.648, -0.78, 0.116, 192.0, 20.0, 64.0, 231.0, 160.0, 3.0, 160.0, 0.0, 0.0, 0.0, 1.663591411552393E9, 0.0, 2022-09-19 17:43:31.552
96.0, 29786.60521347585, 62347.08426559976, -38774.71104558838, -101.34280936036222, -187500.02235174447, -16801.828658798775, -10349.707049096472, -23430.461994464637, 0.648, -0.78, 0.116, 192.0, 0.0, 0.0, 0.0, 0.0, 0.0, 0.0, 0.0, 0.0, 0.0, 1.6635914115553892E9, 0.0, 2022-09-19 17:43:31.555
97.0, 29895.97229909567, 62478.08783985232, -38795.11818827608, -81.29329458395179, -187500.02235174447, -16862.938328139582, -10345.102589738679, -23446.77876791701, 0.648, -0.78, 0.116, 192.0, 0.0, 0.0, 0.0, 0.0, 0.0, 0.0, 0.0, 0.0, 0.0, 1.663591411559366E9, 0.0, 2022-09-19 17:43:31.559
98.0, 30252.884954558012, 62649.99510645808, -38845.25315108933, -77.8734776822898, -187500.02235174447, -16146.38610439135, -10404.312360800786, -23484.77673349103, 0.648, -0.78, 0.116, 192.0, 0.0, 0.0, 0.0, 0.0, 0.0, 0.0, 0.0, 0.0, 0.0, 1.663591411563383E9, 0.0, 2022-09-19 17:43:31.563
99.0, 29968.235488919676, 62528.20045092112, -38810.29502276123, -116.72080954561348, -187500.02235174447, -16634.078816661695, -10423.82543371027, -23444.230669049106, 0.648, -0.78, 0.116, 192.0, 0.0, 0.0, 0.0, 0.0, 0.0, 0.0, 0.0, 0.0, 0.0, 1.663591411568414E9, 0.0, 2022-09-19 17:43:31.568
100.0, 29367.197080516467, 62357.321364560295, -38764.78687105022, -136.59151036638147, -187500.02235174447, -18210.45794611668, -10368.884845839126, -23415.419270446215, 0.648, -0.78, 0.116, 192.0, 0.0, 0.0, 0.0, 0.0, 0.0, 0.0, 0.0, 0.0, 0.0, 1.6635914115724125E9, 0.0, 2022-09-19 17:43:31.572
101.0, 29254.611343695087, 62424.711874093045, -38774.3534176771, -119.20185318015257, -187500.02235174447, -18991.33849040729, -10350.28819445231, -23432.071320065417, 0.648, -0.78, 0.116, 192.0, 0.0, 0.0, 0.0, 0.0, 0.0, 0.0, 0.0, 0.0, 0.0, 1.6635914115763829E9, 0.0, 2022-09-19 17:43:31.576
102.0, 29538.970236655503, 62627.26338234704, -38790.759598107295, -82.81321320691266, -187500.02235174447, -18863.68767782303, -10339.872281536136, -23432.317189254427, 0.648, -0.78, 0.116, 192.0, 0.0, 0.0, 0.0, 0.0, 0.0, 0.0, 0.0, 0.0, 0.0, 1.6635914115804255E9, 0.0, 2022-09-19 17:43:31.580
103.0, 30093.405257869395, 62873.98193764472, -38823.035517100754, -56.99694836103301, -187500.02235174447, -17891.275035294897, -10361.017031790858, -23434.954695100154, 0.648, -0.78, 0.116, 192.0, 0.0, 0.0, 0.0, 0.0, 0.0, 0.0, 0.0, 0.0, 0.0, 1.6635914115844314E9, 0.0, 2022-09-19 17:43:31.584
104.0, 29985.15575947234, 62786.363099379916, -38825.9635956244, -104.06972218390969, -187500.02235174447, -18101.82846806389, -10431.268564613887, -23425.41050021774, 0.648, -0.78, 0.116, 192.0, 0.0, 0.0, 0.0, 0.0, 0.0, 0.0, 0.0, 0.0, 0.0, 1.66359141158751E9, 0.0, 2022-09-19 17:43:31.587
105.0, 29526.006224871428, 62623.30712357845, -38795.989906309835, -134.37868766530607, -187500.02235174447, -19427.711597408248, -10398.67972119805, -23418.749680370056, 0.65, -0.778, 0.124, 192.0, 20.0, 80.0, 231.0, 176.0, 3.0, 224.0, 0.0, 0.0, 0.0, 1.6635914115915585E9, 0.0, 2022-09-19 17:43:31.591
106.0, 29542.61357100172, 62689.13301099933, -38797.28630748824, -95.12902440178686, -187500.02235174447, -19964.75696143591, -10360.234720734921, -23408.132601753787, 0.65, -0.778, 0.124, 192.0, 0.0, 0.0, 0.0, 0.0, 0.0, 0.0, 0.0, 0.0, 0.0, 1.6635914115964315E9, 0.0, 2022-09-19 17:43:31.596
107.0, 29911.082078347456, 62872.059687621564, -38807.6128134266, -47.430401734161585, -187500.02235174447, -19646.065788992142, -10343.917947282547, -23400.77887782799, 0.65, -0.778, 0.124, 192.0, 0.0, 0.0, 0.0, 0.0, 0.0, 0.0, 0.0, 0.0, 0.0, 1.6635914116004293E9, 0.0, 2022-09-19 17:43:31.600
108.0, 30512.679280362045, 63078.76862034424, -38831.93151139397, -22.84348283332382, -187500.02235174447, -18531.406644750434, -10369.063659794767, -23411.887694822275, 0.65, -0.778, 0.124, 192.0, 0.0, 0.0, 0.0, 0.0, 0.0, 0.0, 0.0, 0.0, 0.0, 1.6635914116044445E9, 0.0, 2022-09-19 17:43:31.604
109.0, 30424.144020574575, 62951.25191822671, -38833.71965095039, -80.04159689445459, -187500.02235174447, -18623.45112841739, -10428.407541323608, -23423.868229850323, 0.65, -0.778, 0.124, 192.0, 0.0, 0.0, 0.0, 0.0, 0.0, 0.0, 0.0, 0.0, 0.0, 1.663591411607471E9, 0.0, 2022-09-19 17:43:31.607
110.0, 29978.0255529911, 62767.74409624864, -38795.498167931815, -98.7723587480019, -187500.02235174447, -19849.60077400217, -10392.041253094823, -23405.271578463507, 0.65, -0.778, 0.124, 192.0, 0.0, 0.0, 0.0, 0.0, 0.0, 0.0, 0.0, 0.0, 0.0, 1.6635914116114795E9, 0.0, 2022-09-19 17:43:31.611
111.0, 29994.767009588126, 62826.260963232635, -38795.29700223172, -65.4906112540497, -187500.02235174447, -20317.892172085307, -10366.29204348231, -23408.40082268725, 0.65, -0.778, 0.124, 192.0, 0.0, 0.0, 0.0, 0.0, 0.0, 0.0, 0.0, 0.0, 0.0, 1.663591411615532E9, 0.0, 2022-09-19 17:43:31.615
112.0, 30375.037238006265, 63020.832898716086, -38825.3153950352, -31.80653235990195, -187500.02235174447, -19916.544248645812, -10381.804154134292, -23425.566962428926, 0.65, -0.778, 0.124, 192.0, 0.0, 0.0, 0.0, 0.0, 0.0, 0.0, 0.0, 0.0, 0.0, 1.663591411619507E9, 0.0, 2022-09-19 17:43:31.619
113.0, 31014.453591639234, 63250.698238694466, -38860.31822685221, -9.074808248854668, -187500.02235174447, -18683.68907972444, -10398.076224097756, -23434.664122422233, 0.65, -0.778, 0.124, 192.0, 0.0, 0.0, 0.0, 0.0, 0.0, 0.0, 0.0, 0.0, 0.0, 1.663591411624468E9, 0.0, 2022-09-19 17:43:31.624
114.0, 30943.93383788274, 63119.82877490864, -38846.43779354546, -71.34676830134015, -187500.02235174447, -18656.151730555503, -10426.552346533817, -23427.39980547426, 0.65, -0.778, 0.124, 192.0, 0.0, 0.0, 0.0, 0.0, 0.0, 0.0, 0.0, 0.0, 0.0, 1.663591411628484E9, 0.0, 2022-09-19 17:43:31.628
115.0, 30509.08064950474, 62942.64649661142, -38806.137598292546, -89.33992258786233, -187500.02235174447, -19772.0178689978, -10393.270599039864, -23415.48632567958, 0.654, -0.78, 0.126, 192.0, 20.0, 112.0, 231.0, 160.0, 3.0, 240.0, 0.0, 0.0, 0.0, 1.6635914116324873E9, 0.0, 2022-09-19 17:43:31.632
116.0, 30554.365283771192, 63019.82707021559, -38807.0093163263, -42.44596272062811, -187500.02235174447, -20118.000521421494, -10370.024784806346, -23407.238531975574, 0.654, -0.78, 0.126, 192.0, 0.0, 0.0, 0.0, 0.0, 0.0, 0.0, 0.0, 0.0, 0.0, 1.6635914116355217E9, 0.0, 2022-09-19 17:43:31.635
117.0, 30925.895980107307, 63200.764441581305, -38814.13952280754, 6.683171592136811, -187500.02235174447, -19637.79564354368, -10347.896557795591, -23401.78470632848, 0.654, -0.78, 0.126, 192.0, 0.0, 0.0, 0.0, 0.0, 0.0, 0.0, 0.0, 0.0, 0.0, 1.6635914116395187E9, 0.0, 2022-09-19 17:43:31.639
118.0, 31549.464946921464, 63422.42669134459, -38861.279351863785, 22.709372366591975, -187500.02235174447, -18340.76861629112, -10393.605875206695, -23420.73898562658, 0.654, -0.78, 0.126, 192.0, 0.0, 0.0, 0.0, 0.0, 0.0, 0.0, 0.0, 0.0, 0.0, 1.663591411643567E9, 0.0, 2022-09-19 17:43:31.643
119.0, 31483.549652522765, 63295.87111423864, -38859.71472975192, -35.1145905392874, -187500.02235174447, -18230.46275740418, -10458.001250982434, -23420.02372980401, 0.654, -0.78, 0.126, 192.0, 0.0, 0.0, 0.0, 0.0, 0.0, 0.0, 0.0, 0.0, 0.0, 1.66359141164755E9, 0.0, 2022-09-19 17:43:31.647
120.0, 31026.70234760074, 63111.17864980444, -38814.363040252094, -60.95320712962236, -187500.02235174447, -19301.29013076903, -10417.924573174068, -23413.474668678602, 0.654, -0.78, 0.126, 192.0, 0.0, 0.0, 0.0, 0.0, 0.0, 0.0, 0.0, 0.0, 0.0, 1.6635914116515157E9, 0.0, 2022-09-19 17:43:31.651
121.0, 31035.039548282573, 63181.27372041628, -38814.83242688566, -39.8755121082678, -187500.02235174447, -19629.905477750955, -10375.277444753343, -23422.325959482903, 0.654, -0.78, 0.126, 192.0, 0.0, 0.0, 0.0, 0.0, 0.0, 0.0, 0.0, 0.0, 0.0, 1.6635914116565251E9, 0.0, 2022-09-19 17:43:31.656
122.0, 31386.40897112, 63358.09837080221, -38838.65938647502, -16.540290896927225, -187500.02235174447, -19122.520878615487, -10371.455296451486, -23425.991645573577, 0.654, -0.78, 0.126, 192.0, 0.0, 0.0, 0.0, 0.0, 0.0, 0.0, 0.0, 0.0, 0.0, 1.6635914116605568E9, 0.0, 2022-09-19 17:43:31.660
123.0, 31998.220920350665, 63575.424382141166, -38864.90033446554, 4.649162846703869, -187500.02235174447, -17795.14018239262, -10379.457220966486, -23428.11506129683, 0.654, -0.78, 0.126, 192.0, 0.0, 0.0, 0.0, 0.0, 0.0, 0.0, 0.0, 0.0, 0.0, 1.6635914116636348E9, 0.0, 2022-09-19 17:43:31.663
124.0, 31916.212369944144, 63449.87463353571, -38859.58061928518, -46.8492563783236, -187500.02235174447, -17642.656581718515, -10446.132474676666, -23418.615569903322, 0.654, -0.78, 0.126, 192.0, 0.0, 0.0, 0.0, 0.0, 0.0, 0.0, 0.0, 0.0, 0.0, 1.6635914116675367E9, 0.0, 2022-09-19 17:43:31.667
125.0, 31439.89669560155, 63258.923680654014, -38827.371755525084, -84.31078008541824, -187500.02235174447, -18677.251777321315, -10430.30743960231, -23417.855610591843, 0.658, -0.778, 0.132, 192.0, 20.0, 144.0, 231.0, 176.0, 4.0, 32.0, 0.0, 0.0, 0.0, 1.663591411671558E9, 0.0, 2022-09-19 17:43:31.671
126.0, 31427.916160573503, 63317.57465810474, -38824.2648630458, -76.53237301497138, -187500.02235174447, -18981.391964124676, -10390.096651327212, -23434.038273577487, 0.658, -0.778, 0.132, 192.0, 0.0, 0.0, 0.0, 0.0, 0.0, 0.0, 0.0, 0.0, 0.0, 1.663591411675567E9, 0.0, 2022-09-19 17:43:31.675
127.0, 31755.369216843752, 63481.79292461788, -38827.170589824986, -35.29340449492985, -187500.02235174447, -18462.675030550367, -10349.192958974, -23419.129660025796, 0.658, -0.778, 0.132, 192.0, 0.0, 0.0, 0.0, 0.0, 0.0, 0.0, 0.0, 0.0, 0.0, 1.6635914116805997E9, 0.0, 2022-09-19 17:43:31.680
128.0, 32332.29009297968, 63687.540732328984, -38860.54174429676, -19.02133453146631, -187500.02235174447, -17145.374971076842, -10374.584540675229, -23435.625247433814, 0.658, -0.778, 0.132, 192.0, 0.0, 0.0, 0.0, 0.0, 0.0, 0.0, 0.0, 0.0, 0.0, 1.6635914116846328E9, 0.0, 2022-09-19 17:43:31.684
129.0, 32222.632434681946, 63562.750943035004, -38863.58158154268, -71.1679543456977, -187500.02235174447, -16963.387067721735, -10452.994460224445, -23425.276389751005, 0.658, -0.778, 0.132, 192.0, 0.0, 0.0, 0.0, 0.0, 0.0, 0.0, 0.0, 0.0, 0.0, 1.663591411688604E9, 0.0, 2022-09-19 17:43:31.688
130.0, 31705.301309263865, 63361.78640863734, -38821.26972928879, -98.95117270364436, -187500.02235174447, -17988.70628937558, -10418.840994696737, -23406.903255808742, 0.658, -0.778, 0.132, 192.0, 0.0, 0.0, 0.0, 0.0, 0.0, 0.0, 0.0, 0.0, 0.0, 1.663591411691681E9, 0.0, 2022-09-19 17:43:31.691
131.0, 31656.529802862384, 63405.43936555855, -38815.54768270823, -79.72867247208029, -187500.02235174447, -18313.76770898911, -10375.590369175718, -23414.033462289986, 0.658, -0.778, 0.132, 192.0, 0.0, 0.0, 0.0, 0.0, 0.0, 0.0, 0.0, 0.0, 0.0, 1.6635914116956823E9, 0.0, 2022-09-19 17:43:31.695
132.0, 31966.570850201948, 63572.07162047287, -38833.183209083465, -52.32543376987383, -187500.02235174447, -17804.81848774177, -10367.05200279379, -23432.428947976703, 0.658, -0.778, 0.132, 192.0, 0.0, 0.0, 0.0, 0.0, 0.0, 0.0, 0.0, 0.0, 0.0, 1.6635914116997137E9, 0.0, 2022-09-19 17:43:31.699
133.0, 32546.35274962816, 63783.56382650898, -38870.309456623734, -24.11753226727632, -187500.02235174447, -16467.133637325005, -10399.730253187448, -23443.426006248716, 0.658, -0.778, 0.132, 192.0, 0.0, 0.0, 0.0, 0.0, 0.0, 0.0, 0.0, 0.0, 0.0, 1.6635914117036257E9, 0.0, 2022-09-19 17:43:31.703
134.0, 32457.61632414059, 63669.45817106464, -38861.59227628616, -55.25351229351906, -187500.02235174447, -16236.664800246335, -10460.258777172421, -23412.044157033462, 0.658, -0.778, 0.132, 192.0, 0.0, 0.0, 0.0, 0.0, 0.0, 0.0, 0.0, 0.0, 0.0, 1.6635914117076356E9, 0.0, 2022-09-19 17:43:31.707
135.0, 31946.163707514253, 63467.37604944421, -38814.05011582972, -78.4769747825831, -187500.02235174447, -17218.37576846788, -10405.675817212561, -23400.73417433908, 0.658, -0.778, 0.132, 192.0, 0.0, 0.0, 0.0, 0.0, 0.0, 0.0, 0.0, 0.0, 0.0, 1.663591411712638E9, 0.0, 2022-09-19 17:43:31.712
136.0, 31902.376640126306, 63513.08536685531, -38809.87033961658, -47.63156743425935, -187500.02235174447, -17505.640388207485, -10372.23760750742, -23398.074316748898, 0.65, -0.77, 0.132, 192.0, 20.0, 80.0, 231.0, 240.0, 4.0, 32.0, 0.0, 0.0, 0.0, 1.6635914117166257E9, 0.0, 2022-09-19 17:43:31.716
137.0, 32200.906539071388, 63662.01504016102, -38829.3163572927, -12.539328639427263, -187500.02235174447, -16977.46866672858, -10366.984947560424, -23406.7244418531, 0.65, -0.77, 0.132, 192.0, 0.0, 0.0, 0.0, 0.0, 0.0, 0.0, 0.0, 0.0, 0.0, 1.6635914117196271E9, 0.0, 2022-09-19 17:43:31.719
138.0, 32768.909069169655, 63862.57724315849, -38860.56409604122, 14.729799596047354, -187500.02235174447, -15634.128824964622, -10388.062642581779, -23421.029558304497, 0.65, -0.77, 0.132, 192.0, 0.0, 0.0, 0.0, 0.0, 0.0, 0.0, 0.0, 0.0, 0.0, 1.6635914117246864E9, 0.0, 2022-09-19 17:43:31.724
139.0, 32670.27082088838, 63739.776759121036, -38864.140375154064, -23.469331678072415, -187500.02235174447, -15382.224664953312, -10466.78548655337, -23408.043194775964, 0.65, -0.77, 0.132, 192.0, 0.0, 0.0, 0.0, 0.0, 0.0, 0.0, 0.0, 0.0, 0.0, 1.6635914117276542E9, 0.0, 2022-09-19 17:43:31.727
140.0, 32153.789061759602, 63545.4506928266, -38815.078296074666, -45.61991043328172, -187500.02235174447, -16339.594583463024, -10418.326904574264, -23403.081107506885, 0.65, -0.77, 0.132, 192.0, 0.0, 0.0, 0.0, 0.0, 0.0, 0.0, 0.0, 0.0, 0.0, 1.6635914117316723E9, 0.0, 2022-09-19 17:43:31.731
141.0, 32079.804787612535, 63580.0064897545, -38814.34068850764, -34.220520761075115, -187500.02235174447, -16635.48697656238, -10382.251189023398, -23410.121907010307, 0.65, -0.77, 0.132, 192.0, 0.0, 0.0, 0.0, 0.0, 0.0, 0.0, 0.0, 0.0, 0.0, 1.6635914117376697E9, 0.0, 2022-09-19 17:43:31.737
142.0, 32365.41537826245, 63738.54741317599, -38822.767296167294, 7.398427414706638, -187500.02235174447, -16111.04799640751, -10357.060773022267, -23410.233665732583, 0.65, -0.77, 0.132, 192.0, 0.0, 0.0, 0.0, 0.0, 0.0, 0.0, 0.0, 0.0, 0.0, 1.663591411740684E9, 0.0, 2022-09-19 17:43:31.740
143.0, 32938.67056830771, 63948.251479655686, -38868.05193043374, 18.86487232027916, -187500.02235174447, -14753.291279469882, -10394.991683362923, -23447.896355139776, 0.65, -0.77, 0.132, 192.0, 0.0, 0.0, 0.0, 0.0, 0.0, 0.0, 0.0, 0.0, 0.0, 1.6635914117457857E9, 0.0, 2022-09-19 17:43:31.745
144.0, 32851.051730042906, 63830.48013812067, -38866.12968041059, -24.765732856480227, -187500.02235174447, -14463.165636439997, -10461.331660906275, -23429.6796834087, 0.65, -0.77, 0.132, 192.0, 0.0, 0.0, 0.0, 0.0, 0.0, 0.0, 0.0, 0.0, 0.0, 1.6635914117486916E9, 0.0, 2022-09-19 17:43:31.748
