%OpenBCI Raw EEG Data																								
%Number of channels = 8																								
%Sample Rate = 250 Hz																								
%Board = OpenBCI_GUI$BoardCytonSerial																								
Sample Index	 EXG Channel 0	 EXG Channel 1	 EXG Channel 2	 EXG Channel 3	 EXG Channel 4	 EXG Channel 5	 EXG Channel 6	 EXG Channel 7	 Accel Channel 0	 Accel Channel 1	 Accel Channel 2	 Other	 Other	 Other	 Other	 Other	 Other	 Other	 Analog Channel 0	 Analog Channel 1	 Analog Channel 2	 Timestamp	 Other	 Timestamp (Formatted)
0	31144.74191	1844.533008	4450.835818	-1305.0066	-185306.0422	187500	10696.71788	6731.96545	0.638	-0.712	0.366	192	0	0	0	0	0	0	0	0	0	1.66E+09	0	 2022-09-19 16:35:24.557
1	31143.11023	1849.003357	4449.025327	-1309.052266	-185177.5196	187500	10686.63725	6722.533014	0.638	-0.712	0.366	192	0	0	0	0	0	0	0	0	0	1.66E+09	0	 2022-09-19 16:35:24.562
2	31114.61176	1831.792513	4434.831969	-1303.129053	-185135.2525	187500	10676.71307	6727.249232	0.638	-0.712	0.366	192	0	0	0	0	0	0	0	0	0	1.66E+09	0	 2022-09-19 16:35:24.567
3	31106.36396	1827.38922	4435.815446	-1300.312734	-185203.2465	187500	10684.08915	6726.466921	0.628	-0.716	0.37	192	19	160	233	160	11	144	0	0	0	1.66E+09	0	 2022-09-19 16:35:24.571
4	31116.17638	1837.603967	4446.298414	-1304.11253	-185288.9654	187500	10691.26406	6727.47275	0.628	-0.716	0.37	192	0	0	0	0	0	0	0	0	0	1.66E+09	0	 2022-09-19 16:35:24.575
5	31136.36001	1856.334729	4457.0049	-1312.203862	-185274.4592	187500	10693.94627	6730.847863	0.628	-0.716	0.37	192	0	0	0	0	0	0	0	0	0	1.66E+09	0	 2022-09-19 16:35:24.578
6	31131.57673	1857.295854	4446.879559	-1315.914251	-185181.6547	187500	10679.6188	6726.802197	0.628	-0.716	0.37	192	0	0	0	0	0	0	0	0	0	1.66E+09	0	 2022-09-19 16:35:24.582
7	31106.43102	1843.057793	4430.607489	-1310.460426	-185157.0901	187500	10672.39918	6720.186081	0.628	-0.716	0.37	192	0	0	0	0	0	0	0	0	0	1.66E+09	0	 2022-09-19 16:35:24.586
8	31096.32803	1839.190941	4427.724114	-1301.02799	-185207.8733	187500	10678.94824	6726.042238	0.628	-0.716	0.37	192	0	0	0	0	0	0	0	0	0	1.66E+09	0	 2022-09-19 16:35:24.590
9	31102.54182	1846.09763	4435.904853	-1303.665495	-185252.8227	187500	10686.43608	6732.278375	0.628	-0.716	0.37	192	0	0	0	0	0	0	0	0	0	1.66E+09	0	 2022-09-19 16:35:24.595
10	31123.59716	1866.817697	4449.539417	-1310.594536	-185302.153	187500	10693.0522	6737.396924	0.628	-0.716	0.37	192	0	0	0	0	0	0	0	0	0	1.66E+09	0	 2022-09-19 16:35:24.599
11	31123.84303	1872.539743	4446.857208	-1316.093065	-185188.7849	187500	10685.74318	6729.104427	0.628	-0.716	0.37	192	0	0	0	0	0	0	0	0	0	1.66E+09	0	 2022-09-19 16:35:24.603
12	31096.03746	1856.960578	4429.355792	-1314.528443	-185141.891	187500	10674.81317	6726.153997	0.628	-0.716	0.37	192	0	0	0	0	0	0	0	0	0	1.66E+09	0	 2022-09-19 16:35:24.606
13	31084.41455	1853.138429	4426.114789	-1320.518711	-185189.3214	187500	10674.72377	6719.02379	0.63	-0.716	0.37	192	19	176	233	160	11	144	0	0	0	1.66E+09	0	 2022-09-19 16:35:24.610
14	31091.18713	1862.101479	4433.379106	-1320.317545	-185241.1104	187500	10677.45068	6724.969354	0.63	-0.716	0.37	192	0	0	0	0	0	0	0	0	0	1.66E+09	0	 2022-09-19 16:35:24.614
15	31105.98399	1875.624284	4446.343118	-1320.988097	-185290.7312	187500	10681.65281	6732.747761	0.63	-0.716	0.37	192	0	0	0	0	0	0	0	0	0	1.66E+09	0	 2022-09-19 16:35:24.620
16	31106.65454	1881.525145	4445.337289	-1323.536196	-185192.6965	187500	10676.44485	6728.076247	0.63	-0.716	0.37	192	0	0	0	0	0	0	0	0	0	1.66E+09	0	 2022-09-19 16:35:24.623
17	31081.75469	1866.840049	4428.796998	-1330.152313	-185144.2826	187500	10666.27481	6712.944116	0.63	-0.716	0.37	192	0	0	0	0	0	0	0	0	0	1.66E+09	0	 2022-09-19 16:35:24.627
18	31068.16483	1857.340557	4421.622088	-1336.52256	-185166.1203	187500	10659.27871	6709.27843	0.63	-0.716	0.37	192	0	0	0	0	0	0	0	0	0	1.66E+09	0	 2022-09-19 16:35:24.631
19	31068.88009	1860.022767	4427.053562	-1343.518656	-185239.2105	187500	10658.36229	6710.083092	0.63	-0.716	0.37	192	0	0	0	0	0	0	0	0	0	1.66E+09	0	 2022-09-19 16:35:24.634
20	31090.29306	1879.871116	4439.749353	-1347.54197	-185311.3395	187500	10656.21652	6712.988819	0.63	-0.716	0.37	192	0	0	0	0	0	0	0	0	0	1.66E+09	0	 2022-09-19 16:35:24.638
21	31094.78576	1889.951752	4442.342155	-1341.551702	-185228.5263	187500	10648.8628	6712.407674	0.63	-0.716	0.37	192	0	0	0	0	0	0	0	0	0	1.66E+09	0	 2022-09-19 16:35:24.642
22	31064.65561	1872.048005	4424.371353	-1334.533254	-185138.7617	187500	10634.24476	6699.398959	0.63	-0.716	0.37	192	0	0	0	0	0	0	0	0	0	1.66E+09	0	 2022-09-19 16:35:24.646
23	31046.66246	1860.179229	4415.542414	-1337.617795	-185174.3457	187500	10628.96974	6700.740063	0.63	-0.716	0.37	192	0	0	0	0	0	0	0	0	0	1.66E+09	0	 2022-09-19 16:35:24.650
24	31052.67507	1866.705938	4421.823254	-1333.482722	-185246.2066	187500	10638.0669	6708.317305	0.638	-0.712	0.372	192	19	240	233	192	11	160	0	0	0	1.66E+09	0	 2022-09-19 16:35:24.655
25	31073.30573	1884.632037	4435.010783	-1340.523522	-185307.8303	187500	10646.22529	6712.407674	0.638	-0.712	0.372	192	0	0	0	0	0	0	0	0	0	1.66E+09	0	 2022-09-19 16:35:24.659
26	31076.34557	1890.421139	4435.055487	-1342.535179	-185210.5779	187500	10642.06787	6713.25704	0.638	-0.712	0.372	192	0	0	0	0	0	0	0	0	0	1.66E+09	0	 2022-09-19 16:35:24.662
27	31047.37771	1872.897371	4415.050675	-1341.417592	-185152.061	187500	10628.72388	6703.64579	0.638	-0.712	0.372	192	0	0	0	0	0	0	0	0	0	1.66E+09	0	 2022-09-19 16:35:24.666
28	31033.31846	1862.950845	4408.926297	-1341.194074	-185153.7821	187500	10627.7851	6701.880002	0.638	-0.712	0.372	192	0	0	0	0	0	0	0	0	0	1.66E+09	0	 2022-09-19 16:35:24.670
29	31036.20184	1864.180191	4413.933088	-1340.165894	-185238.3834	187500	10628.88034	6706.46211	0.638	-0.712	0.372	192	0	0	0	0	0	0	0	0	0	1.66E+09	0	 2022-09-19 16:35:24.674
30	31055.31258	1880.943999	4431.63567	-1335.695545	-185303.6505	187500	10633.44009	6721.080151	0.638	-0.712	0.372	192	0	0	0	0	0	0	0	0	0	1.66E+09	0	 2022-09-19 16:35:24.678
31	31063.78389	1893.662142	4438.452952	-1339.517693	-185249.9616	187500	10630.71318	6715.872194	0.638	-0.712	0.372	192	0	0	0	0	0	0	0	0	0	1.66E+09	0	 2022-09-19 16:35:24.682
32	31038.03468	1878.328845	4422.516158	-1334.846179	-185156.2855	187500	10620.07375	6708.496119	0.638	-0.712	0.372	192	0	0	0	0	0	0	0	0	0	1.66E+09	0	 2022-09-19 16:35:24.687
33	31023.61781	1867.376491	4415.743579	-1336.790781	-185163.5051	187500	10619.55966	6703.086996	0.638	-0.712	0.372	192	0	0	0	0	0	0	0	0	0	1.66E+09	0	 2022-09-19 16:35:24.690
34	31028.93752	1867.845877	4417.956402	-1335.024993	-185210.0191	187500	10628.56741	6713.167633	0.64	-0.712	0.376	192	20	0	233	192	11	192	0	0	0	1.66E+09	0	 2022-09-19 16:35:24.694
35	31046.84127	1880.631075	4428.148798	-1333.639185	-185296.498	187500	10635.4741	6718.733218	0.64	-0.712	0.376	192	0	0	0	0	0	0	0	0	0	1.66E+09	0	 2022-09-19 16:35:24.698
36	31058.0842	1891.58343	4431.881539	-1329.48176	-185237.8246	187500	10636.61404	6722.465959	0.64	-0.712	0.376	192	0	0	0	0	0	0	0	0	0	1.66E+09	0	 2022-09-19 16:35:24.702
37	31040.04634	1884.252058	4415.743579	-1327.693621	-185165.0027	187500	10628.32154	6711.133624	0.64	-0.712	0.376	192	0	0	0	0	0	0	0	0	0	1.66E+09	0	 2022-09-19 16:35:24.706
38	31023.86368	1874.730214	4406.936992	-1329.34765	-185166.7685	187500	10626.93574	6699.510717	0.64	-0.712	0.376	192	0	0	0	0	0	0	0	0	0	1.66E+09	0	 2022-09-19 16:35:24.711
39	31025.24948	1874.41729	4411.317934	-1319.848158	-185234.8742	187500	10634.49063	6716.989781	0.64	-0.712	0.376	192	0	0	0	0	0	0	0	0	0	1.66E+09	0	 2022-09-19 16:35:24.714
40	31043.80143	1888.25302	4424.840739	-1327.335993	-185310.0878	187500	10643.29721	6719.627287	0.64	-0.712	0.376	192	0	0	0	0	0	0	0	0	0	1.66E+09	0	 2022-09-19 16:35:24.717
41	31055.22317	1902.759302	4429.534606	-1328.788856	-185240.1045	187500	10640.16797	6719.850805	0.64	-0.712	0.376	192	0	0	0	0	0	0	0	0	0	1.66E+09	0	 2022-09-19 16:35:24.722
42	31033.1173	1890.935229	4413.933088	-1322.798589	-185154.7209	187500	10629.32737	6712.497081	0.64	-0.712	0.376	192	0	0	0	0	0	0	0	0	0	1.66E+09	0	 2022-09-19 16:35:24.726
43	31015.68294	1877.300665	4403.092492	-1330.353478	-185142.6509	187500	10623.60533	6701.567078	0.64	-0.712	0.376	192	0	0	0	0	0	0	0	0	0	1.66E+09	0	 2022-09-19 16:35:24.730
44	31019.14746	1878.462956	4408.121634	-1329.526464	-185230.0462	187500	10626.66751	6706.886793	0.632	-0.71	0.374	192	19	192	233	208	11	176	0	0	0	1.66E+09	0	 2022-09-19 16:35:24.734
45	31044.44963	1900.211203	4428.417018	-1323.133865	-185330.6291	187500	10633.97654	6721.773055	0.632	-0.71	0.374	192	0	0	0	0	0	0	0	0	0	1.66E+09	0	 2022-09-19 16:35:24.739
46	31057.03366	1914.918651	4436.12837	-1322.418609	-185226.7829	187500	10629.05915	6725.505796	0.632	-0.71	0.374	192	0	0	0	0	0	0	0	0	0	1.66E+09	0	 2022-09-19 16:35:24.742
47	31035.03955	1902.401674	4417.755236	-1328.721801	-185147.8365	187500	10613.59174	6708.183194	0.632	-0.71	0.374	192	0	0	0	0	0	0	0	0	0	1.66E+09	0	 2022-09-19 16:35:24.745
48	31012.88897	1889.862345	4401.930201	-1329.437057	-185171.3729	187500	10610.93189	6699.354255	0.632	-0.71	0.374	192	0	0	0	0	0	0	0	0	0	1.66E+09	0	 2022-09-19 16:35:24.750
49	31008.1504	1887.694226	4402.444291	-1327.671269	-185197.3009	187500	10618.44207	6701.902354	0.632	-0.71	0.374	192	0	0	0	0	0	0	0	0	0	1.66E+09	0	 2022-09-19 16:35:24.754
50	31024.69069	1901.664067	4415.810635	-1324.474969	-185287.2444	187500	10624.36528	6713.435854	0.632	-0.71	0.374	192	0	0	0	0	0	0	0	0	0	1.66E+09	0	 2022-09-19 16:35:24.758
51	31039.71106	1919.634869	4427.232376	-1324.653783	-185280.9859	187500	10619.80553	6713.078226	0.632	-0.71	0.374	192	0	0	0	0	0	0	0	0	0	1.66E+09	0	 2022-09-19 16:35:24.762
52	31015.1465	1907.654334	4410.62503	-1325.50315	-185190.3942	187500	10609.14375	6708.071435	0.632	-0.71	0.374	192	0	0	0	0	0	0	0	0	0	1.66E+09	0	 2022-09-19 16:35:24.766
53	30992.05714	1891.024636	4397.68337	-1319.177606	-185144.4614	187500	10609.88135	6708.451415	0.632	-0.71	0.374	192	0	0	0	0	0	0	0	0	0	1.66E+09	0	 2022-09-19 16:35:24.770
54	30987.65385	1886.129604	4398.33157	-1318.32824	-185168.4895	187500	10616.2069	6715.291049	0.628	-0.712	0.366	192	19	160	233	192	11	112	0	0	0	1.66E+09	0	 2022-09-19 16:35:24.773
55	31003.63535	1897.953677	4412.122597	-1323.044458	-185275.3085	187500	10627.65099	6722.555366	0.628	-0.712	0.366	192	0	0	0	0	0	0	0	0	0	1.66E+09	0	 2022-09-19 16:35:24.778
56	31021.44969	1911.767055	4427.120617	-1322.575071	-185257.3377	187500	10636.41288	6727.673915	0.628	-0.712	0.366	192	0	0	0	0	0	0	0	0	0	1.66E+09	0	 2022-09-19 16:35:24.782
57	31008.32921	1904.14511	4419.476321	-1322.753885	-185167.2602	187500	10631.5849	6717.213299	0.628	-0.712	0.366	192	0	0	0	0	0	0	0	0	0	1.66E+09	0	 2022-09-19 16:35:24.786
58	30986.62567	1890.912877	4407.339323	-1319.043496	-185135.3419	187500	10632.05429	6716.989781	0.628	-0.712	0.366	192	0	0	0	0	0	0	0	0	0	1.66E+09	0	 2022-09-19 16:35:24.790
59	30981.2836	1887.805985	4408.054579	-1324.027935	-185200.1396	187500	10634.33416	6713.748779	0.628	-0.712	0.366	192	0	0	0	0	0	0	0	0	0	1.66E+09	0	 2022-09-19 16:35:24.794
60	30995.02993	1900.345314	4421.286812	-1325.033763	-185288.8984	187500	10639.72093	6717.61563	0.628	-0.712	0.366	192	0	0	0	0	0	0	0	0	0	1.66E+09	0	 2022-09-19 16:35:24.798
61	31014.96768	1917.220881	4434.831969	-1317.590632	-185278.0578	187500	10644.05717	6729.283241	0.628	-0.712	0.366	192	0	0	0	0	0	0	0	0	0	1.66E+09	0	 2022-09-19 16:35:24.801
62	31009.26799	1916.729142	4428.417018	-1319.401123	-185204.3641	187500	10637.48576	6725.68461	0.628	-0.712	0.366	192	0	0	0	0	0	0	0	0	0	1.66E+09	0	 2022-09-19 16:35:24.805
63	30978.91432	1896.858441	4411.764969	-1318.46235	-185145.4002	187500	10629.685	6720.677819	0.628	-0.712	0.366	192	0	0	0	0	0	0	0	0	0	1.66E+09	0	 2022-09-19 16:35:24.810
64	30974.66749	1895.249116	4415.341248	-1315.601327	-185186.3486	187500	10630.46731	6724.254098	0.632	-0.71	0.364	192	19	192	233	208	11	96	0	0	0	1.66E+09	0	 2022-09-19 16:35:24.814
65	30991.94538	1910.984744	4430.451027	-1318.663516	-185274.3697	187500	10637.30695	6721.482482	0.632	-0.71	0.364	192	0	0	0	0	0	0	0	0	0	1.66E+09	0	 2022-09-19 16:35:24.818
66	31006.74224	1925.66984	4440.017574	-1316.271879	-185261.0258	187500	10642.13492	6729.953793	0.632	-0.71	0.364	192	0	0	0	0	0	0	0	0	0	1.66E+09	0	 2022-09-19 16:35:24.822
67	30993.06297	1923.322907	4429.020516	-1310.505129	-185165.6509	187500	10635.04942	6724.768189	0.632	-0.71	0.364	192	0	0	0	0	0	0	0	0	0	1.66E+09	0	 2022-09-19 16:35:24.826
68	30965.72679	1906.96143	4413.173129	-1310.058094	-185150.2058	187500	10632.07664	6718.152072	0.632	-0.71	0.364	192	0	0	0	0	0	0	0	0	0	1.66E+09	0	 2022-09-19 16:35:24.829
69	30960.69765	1908.973087	4414.558937	-1314.349629	-185211.9637	187500	10637.44106	6717.369761	0.632	-0.71	0.364	192	0	0	0	0	0	0	0	0	0	1.66E+09	0	 2022-09-19 16:35:24.833
70	30966.53145	1917.623212	4423.924318	-1304.760731	-185286.8644	187500	10651.34384	6731.652526	0.632	-0.71	0.364	192	0	0	0	0	0	0	0	0	0	1.66E+09	0	 2022-09-19 16:35:24.838
71	30984.61401	1936.398677	4433.244995	-1310.326315	-185272.4699	187500	10656.48474	6736.301689	0.632	-0.71	0.364	192	0	0	0	0	0	0	0	0	0	1.66E+09	0	 2022-09-19 16:35:24.842
72	30970.82299	1934.185855	4420.146873	-1312.18151	-185177.162	187500	10639.94445	6725.952831	0.632	-0.71	0.364	192	0	0	0	0	0	0	0	0	0	1.66E+09	0	 2022-09-19 16:35:24.846
73	30941.16222	1918.405523	4404.791225	-1309.298135	-185150.1611	187500	10628.3886	6718.554404	0.632	-0.71	0.364	192	0	0	0	0	0	0	0	0	0	1.66E+09	0	 2022-09-19 16:35:24.850
74	30932.64621	1917.131474	4403.986562	-1307.82292	-185219.1162	187500	10629.84146	6717.637982	0.636	-0.706	0.364	192	19	224	233	240	11	96	0	0	0	1.66E+09	0	 2022-09-19 16:35:24.854
75	30942.86095	1924.999288	4412.524928	-1307.979382	-185258.9917	187500	10641.37496	6718.88968	0.636	-0.706	0.364	192	0	0	0	0	0	0	0	0	0	1.66E+09	0	 2022-09-19 16:35:24.858
76	30965.39151	1941.763096	4426.830045	-1310.192205	-185281.187	187500	10649.10867	6722.3542	0.636	-0.706	0.364	192	0	0	0	0	0	0	0	0	0	1.66E+09	0	 2022-09-19 16:35:24.863
77	30959.71417	1940.869026	4418.023457	-1314.170815	-185169.2718	187500	10644.30304	6718.219127	0.636	-0.706	0.364	192	0	0	0	0	0	0	0	0	0	1.66E+09	0	 2022-09-19 16:35:24.866
78	30933.49557	1926.072171	4404.254783	-1310.505129	-185146.3837	187500	10638.6704	6717.459168	0.636	-0.706	0.364	192	0	0	0	0	0	0	0	0	0	1.66E+09	0	 2022-09-19 16:35:24.870
79	30929.91929	1926.854483	4407.227565	-1309.633411	-185212.366	187500	10643.99012	6715.69338	0.636	-0.706	0.364	192	0	0	0	0	0	0	0	0	0	1.66E+09	0	 2022-09-19 16:35:24.874
80	30936.20013	1933.045916	4415.87769	-1315.757789	-185258.7235	187500	10651.63441	6711.893584	0.636	-0.706	0.364	192	0	0	0	0	0	0	0	0	0	1.66E+09	0	 2022-09-19 16:35:24.877
81	30954.46151	1949.787372	4430.540434	-1311.198033	-185302.6671	187500	10663.23497	6733.664183	0.636	-0.706	0.364	192	0	0	0	0	0	0	0	0	0	1.66E+09	0	 2022-09-19 16:35:24.881
82	30948.24772	1951.977843	4423.723152	-1311.957993	-185207.1357	187500	10656.5518	6724.879947	0.636	-0.706	0.364	192	0	0	0	0	0	0	0	0	0	1.66E+09	0	 2022-09-19 16:35:24.885
83	30920.4198	1934.208206	4409.21687	-1309.74517	-185139.477	187500	10650.40507	6717.637982	0.636	-0.706	0.364	192	0	0	0	0	0	0	0	0	0	1.66E+09	0	 2022-09-19 16:35:24.889
84	30910.42857	1928.709677	4405.215908	-1307.979382	-185171.9317	187500	10655.65773	6722.421255	0.634	-0.704	0.362	192	19	208	234	0	11	80	0	0	0	1.66E+09	0	 2022-09-19 16:35:24.894
85	30920.91154	1937.248044	4411.206175	-1311.66742	-185274.258	187500	10666.1854	6725.595203	0.634	-0.704	0.362	192	0	0	0	0	0	0	0	0	0	1.66E+09	0	 2022-09-19 16:35:24.898
86	30943.17388	1956.761117	4422.851434	-1314.215519	-185295.1122	187500	10672.75681	6735.832302	0.634	-0.704	0.362	192	0	0	0	0	0	0	0	0	0	1.66E+09	0	 2022-09-19 16:35:24.902
87	30935.86486	1955.464715	4415.49771	-1310.683943	-185178.369	187500	10668.80055	6730.467883	0.634	-0.704	0.362	192	0	0	0	0	0	0	0	0	0	1.66E+09	0	 2022-09-19 16:35:24.905
88	30911.52381	1940.265529	4402.354884	-1312.31562	-185133.5761	187500	10665.24663	6719.426122	0.634	-0.704	0.362	192	0	0	0	0	0	0	0	0	0	1.66E+09	0	 2022-09-19 16:35:24.909
89	30903.7454	1935.325794	4404.031265	-1305.073655	-185206.0181	187500	10670.81221	6721.057799	0.634	-0.704	0.362	192	0	0	0	0	0	0	0	0	0	1.66E+09	0	 2022-09-19 16:35:24.913
90	30914.83187	1946.747535	4416.77176	-1303.821958	-185288.5184	187500	10677.58479	6728.12095	0.634	-0.704	0.362	192	0	0	0	0	0	0	0	0	0	1.66E+09	0	 2022-09-19 16:35:24.917
91	30936.60247	1967.042919	4429.378143	-1306.213594	-185295.9839	187500	10684.26796	6728.411523	0.634	-0.704	0.362	192	0	0	0	0	0	0	0	0	0	1.66E+09	0	 2022-09-19 16:35:24.921
92	30935.77545	1970.574495	4428.551129	-1302.972591	-185199.7596	187500	10678.61297	6721.951869	0.634	-0.704	0.362	192	0	0	0	0	0	0	0	0	0	1.66E+09	0	 2022-09-19 16:35:24.926
93	30906.02528	1949.697965	4413.039018	-1293.741321	-185159.3477	187500	10671.77333	6727.964488	0.634	-0.704	0.362	192	0	0	0	0	0	0	0	0	0	1.66E+09	0	 2022-09-19 16:35:24.930
94	30895.63172	1942.232483	4414.111902	-1294.166004	-185174.2339	187500	10677.74125	6727.495101	0.636	-0.708	0.36	192	19	224	233	224	11	64	0	0	0	1.66E+09	0	 2022-09-19 16:35:24.934
95	30909.28863	1953.542465	4426.181844	-1291.014408	-185272.3581	187500	10688.73831	6734.871177	0.636	-0.708	0.36	192	0	0	0	0	0	0	0	0	0	1.66E+09	0	 2022-09-19 16:35:24.937
96	30934.56846	1976.005969	4440.978699	-1286.052321	-185317.0169	187500	10699.78007	6751.255006	0.636	-0.708	0.36	192	0	0	0	0	0	0	0	0	0	1.66E+09	0	 2022-09-19 16:35:24.941
97	30939.28468	1987.762986	4441.045754	-1288.35455	-185219.988	187500	10695.53324	6750.249177	0.636	-0.708	0.36	192	0	0	0	0	0	0	0	0	0	1.66E+09	0	 2022-09-19 16:35:24.945
98	30905.93587	1967.758175	4421.577385	-1289.449786	-185147.9036	187500	10679.93172	6740.41441	0.636	-0.708	0.36	192	0	0	0	0	0	0	0	0	0	1.66E+09	0	 2022-09-19 16:35:24.949
99	30889.68615	1960.27034	4419.364562	-1291.103815	-185182.1688	187500	10679.90937	6732.211319	0.636	-0.708	0.36	192	0	0	0	0	0	0	0	0	0	1.66E+09	0	 2022-09-19 16:35:24.953
100	30890.75904	1962.840791	4426.695934	-1282.923077	-185248.7994	187500	10683.75387	6735.251157	0.636	-0.708	0.36	192	0	0	0	0	0	0	0	0	0	1.66E+09	0	 2022-09-19 16:35:24.959
101	30910.80855	1984.47728	4443.81737	-1287.84046	-185326.6505	187500	10689.00653	6741.688459	0.636	-0.708	0.36	192	0	0	0	0	0	0	0	0	0	1.66E+09	0	 2022-09-19 16:35:24.962
102	30908.43927	1989.21585	4441.939824	-1289.382731	-185208.1192	187500	10684.2009	6741.174369	0.636	-0.708	0.36	192	0	0	0	0	0	0	0	0	0	1.66E+09	0	 2022-09-19 16:35:24.966
103	30885.19345	1973.793146	4422.918489	-1289.226268	-185140.2593	187500	10673.09209	6728.009192	0.636	-0.708	0.36	192	0	0	0	0	0	0	0	0	0	1.66E+09	0	 2022-09-19 16:35:24.969
104	30869.7484	1962.43846	4417.777588	-1293.137824	-185176.2903	187500	10675.61783	6719.962564	0.632	-0.712	0.364	192	19	192	233	192	11	96	0	0	0	1.66E+09	0	 2022-09-19 16:35:24.973
105	30878.15265	1969.568666	4430.719248	-1284.018312	-185268.8265	187500	10688.47009	6732.390133	0.632	-0.712	0.364	192	0	0	0	0	0	0	0	0	0	1.66E+09	0	 2022-09-19 16:35:24.977
106	30899.58798	1986.734806	4446.745449	-1292.757844	-185312.3901	187500	10699.64596	6732.256023	0.632	-0.712	0.364	192	0	0	0	0	0	0	0	0	0	1.66E+09	0	 2022-09-19 16:35:24.982
107	30901.42082	1990.780472	4445.896083	-1289.002751	-185207.7168	187500	10698.95306	6733.8877	0.632	-0.712	0.364	192	0	0	0	0	0	0	0	0	0	1.66E+09	0	 2022-09-19 16:35:24.986
108	30868.76492	1967.132326	4424.393704	-1288.779234	-185147.0095	187500	10690.41469	6730.870215	0.632	-0.712	0.364	192	0	0	0	0	0	0	0	0	0	1.66E+09	0	 2022-09-19 16:35:24.989
109	30852.62696	1954.458887	4416.0118	-1293.629562	-185166.8132	187500	10693.92391	6726.288107	0.632	-0.712	0.364	192	0	0	0	0	0	0	0	0	0	1.66E+09	0	 2022-09-19 16:35:24.993
110	30858.79604	1960.426803	4421.107998	-1300.916231	-185249.7381	187500	10701.72467	6728.523282	0.632	-0.712	0.364	192	0	0	0	0	0	0	0	0	0	1.66E+09	0	 2022-09-19 16:35:24.997
111	30878.21971	1978.017626	4434.228472	-1305.274821	-185298.4649	187500	10710.91124	6735.608785	0.632	-0.712	0.364	192	0	0	0	0	0	0	0	0	0	1.66E+09	0	 2022-09-19 16:35:25.002
112	30888.38975	1988.992332	4437.40242	-1300.871527	-185228.951	187500	10715.26983	6740.41441	0.632	-0.712	0.364	192	0	0	0	0	0	0	0	0	0	1.66E+09	0	 2022-09-19 16:35:25.005
113	30864.31692	1972.94378	4418.023457	-1304.090179	-185144.2602	187500	10708.34079	6728.746799	0.632	-0.712	0.364	192	0	0	0	0	0	0	0	0	0	1.66E+09	0	 2022-09-19 16:35:25.009
114	30848.80481	1962.237294	4411.362637	-1298.323428	-185168.3107	187500	10708.58666	6725.5505	0.632	-0.708	0.37	192	19	192	233	224	11	144	0	0	0	1.66E+09	0	 2022-09-19 16:35:25.014
115	30850.83882	1964.092489	4421.823254	-1289.650952	-185226.3135	187500	10718.22026	6736.234633	0.632	-0.708	0.37	192	0	0	0	0	0	0	0	0	0	1.66E+09	0	 2022-09-19 16:35:25.017
116	30868.72022	1978.218791	4440.822237	-1289.6286	-185302.6	187500	10729.73141	6739.073305	0.632	-0.708	0.37	192	0	0	0	0	0	0	0	0	0	1.66E+09	0	 2022-09-19 16:35:25.022
117	30878.7785	1988.008855	4445.784324	-1284.867678	-185228.5934	187500	10730.55842	6743.141323	0.632	-0.708	0.37	192	0	0	0	0	0	0	0	0	0	1.66E+09	0	 2022-09-19 16:35:25.025
118	30858.2149	1975.804803	4428.908757	-1286.879335	-185147.3671	187500	10722.17652	6736.32404	0.632	-0.708	0.37	192	0	0	0	0	0	0	0	0	0	1.66E+09	0	 2022-09-19 16:35:25.029
119	30839.01475	1963.46664	4416.280021	-1290.723835	-185164.9133	187500	10725.12695	6721.929517	0.632	-0.708	0.37	192	0	0	0	0	0	0	0	0	0	1.66E+09	0	 2022-09-19 16:35:25.033
120	30840.46761	1965.523	4422.02442	-1286.164079	-185241.5574	187500	10736.32517	6730.624346	0.632	-0.708	0.37	192	0	0	0	0	0	0	0	0	0	1.66E+09	0	 2022-09-19 16:35:25.037
121	30862.17116	1982.264457	4432.976774	-1284.37594	-185289.7254	187500	10744.12593	6748.505741	0.632	-0.708	0.37	192	0	0	0	0	0	0	0	0	0	1.66E+09	0	 2022-09-19 16:35:25.041
122	30870.53071	1992.792129	4434.317879	-1290.634428	-185234.7401	187500	10740.34849	6745.957642	0.632	-0.708	0.37	192	0	0	0	0	0	0	0	0	0	1.66E+09	0	 2022-09-19 16:35:25.044
123	30847.08373	1979.783413	4415.87769	-1288.019274	-185144.819	187500	10728.61382	6735.787599	0.632	-0.708	0.37	192	0	0	0	0	0	0	0	0	0	1.66E+09	0	 2022-09-19 16:35:25.049
124	30827.10127	1965.791221	4406.221736	-1281.693731	-185144.7967	187500	10729.35143	6735.877006	0.632	-0.708	0.37	192	0	0	0	0	0	0	0	0	0	1.66E+09	0	 2022-09-19 16:35:25.053
125	30828.91176	1967.624064	4412.591983	-1282.341931	-185252.9568	187500	10735.78873	6736.301689	0.634	-0.716	0.376	192	19	208	233	160	11	192	0	0	0	1.66E+09	0	 2022-09-19 16:35:25.057
126	30847.46371	1983.449099	4427.947632	-1282.386635	-185313.1053	187500	10744.64002	6739.855616	0.634	-0.716	0.376	192	0	0	0	0	0	0	0	0	0	1.66E+09	0	 2022-09-19 16:35:25.061
127	30861.74647	1997.709512	4436.620109	-1288.73453	-185237.1094	187500	10746.2717	6738.782732	0.634	-0.716	0.376	192	0	0	0	0	0	0	0	0	0	1.66E+09	0	 2022-09-19 16:35:25.065
128	30837.71835	1985.751329	4421.331515	-1291.863774	-185149.2223	187500	10734.82761	6727.785674	0.634	-0.716	0.376	192	0	0	0	0	0	0	0	0	0	1.66E+09	0	 2022-09-19 16:35:25.069
129	30814.09255	1973.860201	4412.994315	-1294.143652	-185166.2991	187500	10731.00546	6722.085979	0.634	-0.716	0.376	192	0	0	0	0	0	0	0	0	0	1.66E+09	0	 2022-09-19 16:35:25.072
130	30810.7845	1973.97196	4419.364562	-1294.1213	-185213.1483	187500	10741.42137	6726.131645	0.634	-0.716	0.376	192	0	0	0	0	0	0	0	0	0	1.66E+09	0	 2022-09-19 16:35:25.076
131	30824.59787	1987.383006	4434.742562	-1302.682019	-185291.7371	187500	10753.64777	6728.947965	0.634	-0.716	0.376	192	0	0	0	0	0	0	0	0	0	1.66E+09	0	 2022-09-19 16:35:25.081
132	30840.80289	2005.823196	4443.996184	-1306.951202	-185272.0899	187500	10755.27945	6730.534939	0.634	-0.716	0.376	192	0	0	0	0	0	0	0	0	0	1.66E+09	0	 2022-09-19 16:35:25.085
133	30821.87096	1997.93303	4430.182806	-1307.44294	-185153.5586	187500	10744.21534	6727.562157	0.634	-0.716	0.376	192	0	0	0	0	0	0	0	0	0	1.66E+09	0	 2022-09-19 16:35:25.089
134	30800.23447	1982.577381	4416.592946	-1308.493472	-185148.2612	187500	10744.05888	6720.387247	0.634	-0.716	0.376	192	0	0	0	0	0	0	0	0	0	1.66E+09	0	 2022-09-19 16:35:25.093
135	30801.12854	1980.543373	4418.001106	-1306.258298	-185215.4953	187500	10755.07829	6726.936308	0.632	-0.71	0.378	192	19	192	233	208	11	208	0	0	0	1.66E+09	0	 2022-09-19 16:35:25.098
136	30815.52307	1993.149757	4428.975812	-1303.441978	-185310.9819	187500	10765.04716	6737.016945	0.632	-0.71	0.378	192	0	0	0	0	0	0	0	0	0	1.66E+09	0	 2022-09-19 16:35:25.100
137	30836.35489	2013.31103	4438.162379	-1312.539138	-185286.6185	187500	10763.84017	6730.914918	0.632	-0.71	0.378	192	0	0	0	0	0	0	0	0	0	1.66E+09	0	 2022-09-19 16:35:25.106
138	30820.57456	2004.616201	4423.94667	-1313.254394	-185164.7568	187500	10752.08315	6720.677819	0.632	-0.71	0.378	192	0	0	0	0	0	0	0	0	0	1.66E+09	0	 2022-09-19 16:35:25.110
139	30793.75247	1985.348998	4405.50648	-1308.515824	-185141.3098	187500	10746.11524	6721.884814	0.632	-0.71	0.378	192	0	0	0	0	0	0	0	0	0	1.66E+09	0	 2022-09-19 16:35:25.114
140	30791.27142	1984.074948	4408.568669	-1308.113493	-185193.747	187500	10754.6536	6724.187043	0.632	-0.71	0.378	192	0	0	0	0	0	0	0	0	0	1.66E+09	0	 2022-09-19 16:35:25.120
141	30809.19752	1998.380065	4422.762027	-1314.081408	-185304.6787	187500	10765.60596	6727.115122	0.632	-0.71	0.378	192	0	0	0	0	0	0	0	0	0	1.66E+09	0	 2022-09-19 16:35:25.123
142	30834.85732	2022.452894	4438.29649	-1320.295193	-185297.0344	187500	10770.70216	6729.171482	0.632	-0.71	0.378	192	0	0	0	0	0	0	0	0	0	1.66E+09	0	 2022-09-19 16:35:25.126
143	30819.8146	2017.110827	4425.935975	-1326.732496	-185161.6723	187500	10761.85087	6716.095712	0.632	-0.71	0.378	192	0	0	0	0	0	0	0	0	0	1.66E+09	0	 2022-09-19 16:35:25.129
144	30794.7583	2002.693951	4414.313068	-1309.834577	-185145.959	187500	10760.398	6722.912994	0.632	-0.71	0.378	192	0	0	0	0	0	0	0	0	0	1.66E+09	0	 2022-09-19 16:35:25.133
145	30789.50564	1998.201251	4416.615297	-1307.130016	-185193.9035	187500	10775.19486	6728.791503	0.628	-0.708	0.374	192	19	160	233	224	11	176	0	0	0	1.66E+09	0	 2022-09-19 16:35:25.138
146	30803.63194	2008.95244	4427.344135	-1310.326315	-185286.6632	187500	10790.68462	6724.544671	0.628	-0.708	0.374	192	0	0	0	0	0	0	0	0	0	1.66E+09	0	 2022-09-19 16:35:25.142
147	30827.01186	2029.247824	4440.643423	-1312.56149	-185282.7293	187500	10795.98198	6739.252119	0.628	-0.708	0.374	192	0	0	0	0	0	0	0	0	0	1.66E+09	0	 2022-09-19 16:35:25.146
148	30811.83503	2021.692934	4423.387876	-1318.350591	-185158.923	187500	10781.49805	6731.630174	0.628	-0.708	0.374	192	0	0	0	0	0	0	0	0	0	1.66E+09	0	 2022-09-19 16:35:25.150
149	30788.85743	2008.036018	4405.014742	-1317.970612	-185146.9648	187500	10777.74296	6717.056837	0.628	-0.708	0.374	192	0	0	0	0	0	0	0	0	0	1.66E+09	0	 2022-09-19 16:35:25.154
150	30787.49398	2009.667696	4404.388893	-1322.910347	-185221.5079	187500	10783.48735	6710.68659	0.628	-0.708	0.374	192	0	0	0	0	0	0	0	0	0	1.66E+09	0	 2022-09-19 16:35:25.157
151	30799.47451	2019.904795	4413.083722	-1320.451655	-185281.6341	187500	10795.98198	6719.604936	0.628	-0.708	0.374	192	0	0	0	0	0	0	0	0	0	1.66E+09	0	 2022-09-19 16:35:25.161
152	30825.84957	2042.949443	4431.412152	-1317.56828	-185293.257	187500	10803.8945	6731.652526	0.628	-0.708	0.374	192	0	0	0	0	0	0	0	0	0	1.66E+09	0	 2022-09-19 16:35:25.166
153	30814.36078	2037.875597	4420.660963	-1321.79276	-185178.9725	187500	10795.57965	6720.700171	0.628	-0.708	0.374	192	0	0	0	0	0	0	0	0	0	1.66E+09	0	 2022-09-19 16:35:25.170
154	30785.57173	2018.496635	4404.455948	-1314.819016	-185159.0124	187500	10791.7128	6714.106406	0.628	-0.708	0.374	192	0	0	0	0	0	0	0	0	0	1.66E+09	0	 2022-09-19 16:35:25.174
155	30782.50954	2020.217719	4407.249916	-1318.305888	-185231.7226	187500	10794.81969	6715.134587	0.626	-0.708	0.376	192	19	144	233	224	11	192	0	0	0	1.66E+09	0	 2022-09-19 16:35:25.178
156	30794.62418	2031.751219	4419.185748	-1320.585766	-185293.1452	187500	10801.16758	6727.651564	0.626	-0.708	0.376	192	0	0	0	0	0	0	0	0	0	1.66E+09	0	 2022-09-19 16:35:25.181
157	30822.51916	2057.723946	4438.56471	-1318.484702	-185310.6913	187500	10813.17047	6739.52034	0.626	-0.708	0.376	192	0	0	0	0	0	0	0	0	0	1.66E+09	0	 2022-09-19 16:35:25.185
158	30817.98176	2060.070879	4434.787266	-1318.84233	-185175.128	187500	10814.98096	6732.47954	0.626	-0.708	0.376	192	0	0	0	0	0	0	0	0	0	1.66E+09	0	 2022-09-19 16:35:25.189
159	30793.75247	2046.995109	4420.772722	-1315.333106	-185169.1377	187500	10814.1763	6720.141377	0.626	-0.708	0.376	192	0	0	0	0	0	0	0	0	0	1.66E+09	0	 2022-09-19 16:35:25.195
160	30790.39971	2047.464496	4422.605565	-1307.062961	-185213.7295	187500	10822.44644	6723.270622	0.626	-0.708	0.376	192	0	0	0	0	0	0	0	0	0	1.66E+09	0	 2022-09-19 16:35:25.199
161	30804.05662	2061.769612	4437.111847	-1301.966763	-185298.912	187500	10833.28704	6743.118971	0.626	-0.708	0.376	192	0	0	0	0	0	0	0	0	0	1.66E+09	0	 2022-09-19 16:35:25.203
162	30828.66589	2085.909496	4449.137086	-1304.425455	-185305.1705	187500	10841.24426	6744.236558	0.626	-0.708	0.376	192	0	0	0	0	0	0	0	0	0	1.66E+09	0	 2022-09-19 16:35:25.206
163	30822.92149	2089.061092	4444.152647	-1302.749074	-185182.3923	187500	10837.08684	6742.359011	0.626	-0.708	0.376	192	0	0	0	0	0	0	0	0	0	1.66E+09	0	 2022-09-19 16:35:25.209
164	30794.93711	2071.693787	4424.036077	-1304.827786	-185134.1573	187500	10831.4542	6734.379439	0.626	-0.708	0.376	192	0	0	0	0	0	0	0	0	0	1.66E+09	0	 2022-09-19 16:35:25.213
165	30786.59991	2065.703519	4421.353867	-1307.465292	-185196.2951	187500	10840.17138	6727.182177	0.64	-0.71	0.368	192	20	0	233	208	11	128	0	0	0	1.66E+09	0	 2022-09-19 16:35:25.217
166	30795.4959	2072.878429	4432.395629	-1299.37396	-185275.9344	187500	10854.16357	6740.861445	0.64	-0.71	0.368	192	0	0	0	0	0	0	0	0	0	1.66E+09	0	 2022-09-19 16:35:25.221
167	30821.6698	2092.816185	4448.622995	-1299.441016	-185309.5961	187500	10862.14314	6753.266663	0.64	-0.71	0.368	192	0	0	0	0	0	0	0	0	0	1.66E+09	0	 2022-09-19 16:35:25.226
168	30822.60857	2098.00179	4443.571501	-1307.532347	-185204.7888	187500	10852.97893	6744.840055	0.64	-0.71	0.368	192	0	0	0	0	0	0	0	0	0	1.66E+09	0	 2022-09-19 16:35:25.230
169	30794.06539	2079.852173	4423.633745	-1303.821958	-185153.3798	187500	10844.66408	6733.977107	0.64	-0.71	0.368	192	0	0	0	0	0	0	0	0	0	1.66E+09	0	 2022-09-19 16:35:25.233
170	30784.38709	2071.35851	4420.146873	-1305.096007	-185182.4594	187500	10847.21218	6731.741933	0.64	-0.71	0.368	192	0	0	0	0	0	0	0	0	0	1.66E+09	0	 2022-09-19 16:35:25.237
171	30795.92059	2080.45567	4431.412152	-1309.901632	-185272.8498	187500	10857.89631	6737.240462	0.64	-0.71	0.368	192	0	0	0	0	0	0	0	0	0	1.66E+09	0	 2022-09-19 16:35:25.241
172	30820.21693	2101.242793	4448.466533	-1309.186376	-185320.6379	187500	10867.70873	6747.298747	0.64	-0.71	0.368	192	0	0	0	0	0	0	0	0	0	1.66E+09	0	 2022-09-19 16:35:25.245
173	30822.74268	2107.300116	4443.68326	-1311.443902	-185190.3048	187500	10858.32099	6737.173407	0.64	-0.71	0.368	192	0	0	0	0	0	0	0	0	0	1.66E+09	0	 2022-09-19 16:35:25.249
174	30798.11106	2091.85506	4426.8971	-1310.281612	-185142.2039	187500	10850.52024	6719.448473	0.64	-0.71	0.368	192	0	0	0	0	0	0	0	0	0	1.66E+09	0	 2022-09-19 16:35:25.254
175	30784.99058	2081.819127	4421.175053	-1303.441978	-185182.5711	187500	10856.71167	6727.025715	0.64	-0.71	0.366	192	20	0	233	208	11	112	0	0	0	1.66E+09	0	 2022-09-19 16:35:25.258
176	30795.47355	2091.273915	4433.826141	-1297.496414	-185281.2764	187500	10869.8992	6740.861445	0.64	-0.71	0.366	192	0	0	0	0	0	0	0	0	0	1.66E+09	0	 2022-09-19 16:35:25.261
177	30820.90984	2114.564432	4452.422792	-1301.877356	-185299.7613	187500	10881.16448	6748.572796	0.64	-0.71	0.366	192	0	0	0	0	0	0	0	0	0	1.66E+09	0	 2022-09-19 16:35:25.265
178	30818.09352	2117.291345	4446.477228	-1304.067827	-185201.9054	187500	10874.88364	6742.98486	0.64	-0.71	0.366	192	0	0	0	0	0	0	0	0	0	1.66E+09	0	 2022-09-19 16:35:25.269
179	30788.99155	2100.281668	4426.539472	-1305.096007	-185147.4565	187500	10862.45607	6732.300726	0.64	-0.71	0.366	192	0	0	0	0	0	0	0	0	0	1.66E+09	0	 2022-09-19 16:35:25.273
180	30774.23939	2091.452729	4421.085646	-1298.122263	-185165.7626	187500	10864.04304	6737.620442	0.64	-0.71	0.366	192	0	0	0	0	0	0	0	0	0	1.66E+09	0	 2022-09-19 16:35:25.277
181	30780.00614	2101.198089	4428.841702	-1300.223327	-185247.95	187500	10871.12854	6741.554349	0.64	-0.71	0.366	192	0	0	0	0	0	0	0	0	0	1.66E+09	0	 2022-09-19 16:35:25.282
182	30795.96529	2118.341877	4440.576367	-1298.234021	-185289.2784	187500	10881.63386	6750.137419	0.64	-0.71	0.366	192	0	0	0	0	0	0	0	0	0	1.66E+09	0	 2022-09-19 16:35:25.286
183	30801.21795	2125.159159	4437.40242	-1297.898745	-185217.2834	187500	10878.39286	6748.729259	0.64	-0.71	0.366	192	0	0	0	0	0	0	0	0	0	1.66E+09	0	 2022-09-19 16:35:25.289
184	30778.44152	2113.111569	4421.040943	-1297.876394	-185154.8326	187500	10868.84867	6738.916843	0.64	-0.71	0.366	192	0	0	0	0	0	0	0	0	0	1.66E+09	0	 2022-09-19 16:35:25.293
185	30766.12571	2104.14852	4415.542414	-1301.922059	-185192.5177	187500	10875.59889	6730.55729	0.636	-0.708	0.37	192	19	224	233	224	11	144	0	0	0	1.66E+09	0	 2022-09-19 16:35:25.297
186	30768.5397	2106.003714	4420.571556	-1307.733513	-185242.7197	187500	10885.50072	6729.01502	0.636	-0.708	0.37	192	0	0	0	0	0	0	0	0	0	1.66E+09	0	 2022-09-19 16:35:25.301
187	30790.89144	2125.852063	4439.145856	-1296.110606	-185304.1646	187500	10902.93508	6750.53975	0.636	-0.708	0.37	192	0	0	0	0	0	0	0	0	0	1.66E+09	0	 2022-09-19 16:35:25.305
188	30795.04887	2134.122209	4442.096286	-1296.267068	-185203.8947	187500	10899.47056	6750.53975	0.636	-0.708	0.37	192	0	0	0	0	0	0	0	0	0	1.66E+09	0	 2022-09-19 16:35:25.309
189	30773.05475	2123.080447	4425.555995	-1299.798644	-185146.6072	187500	10887.66883	6734.893529	0.636	-0.708	0.37	192	0	0	0	0	0	0	0	0	0	1.66E+09	0	 2022-09-19 16:35:25.314
190	30763.89054	2118.028953	4418.291678	-1304.336048	-185194.9764	187500	10887.51237	6722.443607	0.636	-0.708	0.37	192	0	0	0	0	0	0	0	0	0	1.66E+09	0	 2022-09-19 16:35:25.317
191	30773.18886	2127.103761	4426.8971	-1302.19028	-185251.9062	187500	10897.34714	6737.016945	0.636	-0.708	0.37	192	0	0	0	0	0	0	0	0	0	1.66E+09	0	 2022-09-19 16:35:25.321
192	30792.27725	2142.370003	4440.241091	-1304.49251	-185294.1957	187500	10907.27131	6729.104427	0.636	-0.708	0.37	192	0	0	0	0	0	0	0	0	0	1.66E+09	0	 2022-09-19 16:35:25.325
193	30796.41232	2151.489514	4442.632728	-1307.711161	-185229.711	187500	10903.2033	6714.195813	0.636	-0.708	0.37	192	0	0	0	0	0	0	0	0	0	1.66E+09	0	 2022-09-19 16:35:25.329
194	30770.17138	2137.072639	4423.924318	-1305.721856	-185145.6237	187500	10890.19458	6701.745892	0.636	-0.708	0.37	192	0	0	0	0	0	0	0	0	0	1.66E+09	0	 2022-09-19 16:35:25.333
195	30756.24624	2129.249529	4418.403437	-1308.71699	-185171.8646	187500	10889.68049	6692.11229	0.632	-0.71	0.37	192	19	192	233	208	11	144	0	0	0	1.66E+09	0	 2022-09-19 16:35:25.337
196	30758.54847	2134.681002	4420.929184	-1316.875376	-185246.6983	187500	10901.52692	6684.132717	0.632	-0.71	0.37	192	0	0	0	0	0	0	0	0	0	1.66E+09	0	 2022-09-19 16:35:25.341
197	30778.37447	2155.579884	4432.060353	-1312.650897	-185315.7205	187500	10922.73872	6687.172554	0.632	-0.71	0.37	192	0	0	0	0	0	0	0	0	0	1.66E+09	0	 2022-09-19 16:35:25.344
198	30793.30543	2173.908314	4438.989394	-1308.448769	-185266.7925	187500	10933.08758	6696.627342	0.632	-0.71	0.37	192	0	0	0	0	0	0	0	0	0	1.66E+09	0	 2022-09-19 16:35:25.349
199	30768.47264	2160.877247	4421.979716	-1305.766559	-185160.7111	187500	10930.89711	6684.020958	0.632	-0.71	0.37	192	0	0	0	0	0	0	0	0	0	1.66E+09	0	 2022-09-19 16:35:25.353
200	30750.54654	2150.774258	4413.374294	-1307.264126	-185150.9434	187500	10932.77465	6674.722633	0.632	-0.71	0.37	192	0	0	0	0	0	0	0	0	0	1.66E+09	0	 2022-09-19 16:35:25.357
201	30752.89348	2153.590578	4418.001106	-1301.966763	-185235.5001	187500	10943.14586	6679.103575	0.632	-0.71	0.37	192	0	0	0	0	0	0	0	0	0	1.66E+09	0	 2022-09-19 16:35:25.361
202	30771.95952	2171.516677	4431.926242	-1304.894841	-185307.9644	187500	10958.54622	6687.597238	0.632	-0.71	0.37	192	0	0	0	0	0	0	0	0	0	1.66E+09	0	 2022-09-19 16:35:25.365
203	30779.84968	2183.161936	4435.301356	-1307.509995	-185221.4185	187500	10957.45098	6684.266828	0.632	-0.71	0.37	192	0	0	0	0	0	0	0	0	0	1.66E+09	0	 2022-09-19 16:35:25.369
204	30753.72049	2167.627474	4418.537547	-1302.927888	-185137.3089	187500	10943.39173	6679.505906	0.632	-0.71	0.37	192	0	0	0	0	0	0	0	0	0	1.66E+09	0	 2022-09-19 16:35:25.372
205	30739.0354	2159.75966	4414.000143	-1303.866661	-185182.9064	187500	10943.81642	6674.275598	0.628	-0.71	0.374	192	19	160	233	208	11	176	0	0	0	1.66E+09	0	 2022-09-19 16:35:25.376
206	30742.76814	2161.480744	4421.420922	-1296.378827	-185230.9403	187500	10960.35671	6684.311531	0.628	-0.71	0.374	192	0	0	0	0	0	0	0	0	0	1.66E+09	0	 2022-09-19 16:35:25.381
207	30759.71076	2177.305779	4436.329536	-1297.719931	-185297.0121	187500	10974.97475	6692.134642	0.628	-0.71	0.374	192	0	0	0	0	0	0	0	0	0	1.66E+09	0	 2022-09-19 16:35:25.385
208	30772.27244	2191.588544	4443.482094	-1307.040609	-185235.053	187500	10979.04277	6688.223086	0.628	-0.71	0.374	192	0	0	0	0	0	0	0	0	0	1.66E+09	0	 2022-09-19 16:35:25.389
209	30747.86434	2180.055044	4427.120617	-1304.671324	-185160.4876	187500	10969.67739	6680.0647	0.628	-0.71	0.374	192	0	0	0	0	0	0	0	0	0	1.66E+09	0	 2022-09-19 16:35:25.393
210	30722.78568	2165.191134	4416.168263	-1299.172795	-185151.9939	187500	10970.28088	6679.416499	0.628	-0.71	0.374	192	0	0	0	0	0	0	0	0	0	1.66E+09	0	 2022-09-19 16:35:25.397
211	30723.88091	2167.471012	4422.314992	-1301.698542	-185239.3669	187500	10976.00293	6673.761508	0.628	-0.71	0.374	192	0	0	0	0	0	0	0	0	0	1.66E+09	0	 2022-09-19 16:35:25.400
212	30744.19865	2185.754739	4438.4306	-1293.875431	-185314.7594	187500	10985.97181	6690.458261	0.628	-0.71	0.374	192	0	0	0	0	0	0	0	0	0	1.66E+09	0	 2022-09-19 16:35:25.404
213	30763.91289	2202.384436	4448.645347	-1289.941524	-185260.3552	187500	10993.59375	6701.72354	0.628	-0.71	0.374	192	0	0	0	0	0	0	0	0	0	1.66E+09	0	 2022-09-19 16:35:25.409
214	30747.08202	2192.124986	4433.423809	-1293.294286	-185170.1212	187500	10987.53643	6685.205601	0.628	-0.71	0.374	192	0	0	0	0	0	0	0	0	0	1.66E+09	0	 2022-09-19 16:35:25.413
215	30725.66905	2178.155145	4420.906832	-1287.482832	-185157.2019	187500	10991.60445	6682.903371	0.628	-0.71	0.374	192	0	0	0	0	0	0	0	0	0	1.66E+09	0	 2022-09-19 16:35:25.417
216	30729.02181	2179.093919	4423.7008	-1290.187393	-185222.4019	187500	11000.20987	6684.691511	0.626	-0.708	0.376	192	19	144	233	224	11	192	0	0	0	1.66E+09	0	 2022-09-19 16:35:25.421
217	30748.22196	2194.293105	4438.452952	-1295.01537	-185322.1578	187500	11011.87748	6690.83824	0.626	-0.708	0.376	192	0	0	0	0	0	0	0	0	0	1.66E+09	0	 2022-09-19 16:35:25.425
218	30768.31618	2212.643887	4448.980623	-1292.511975	-185255.1472	187500	11017.42071	6696.426177	0.626	-0.708	0.376	192	0	0	0	0	0	0	0	0	0	1.66E+09	0	 2022-09-19 16:35:25.430
219	30752.44644	2203.703189	4435.144894	-1293.517803	-185161.4934	187500	11003.56263	6684.222124	0.626	-0.708	0.376	192	0	0	0	0	0	0	0	0	0	1.66E+09	0	 2022-09-19 16:35:25.433
220	30734.18507	2195.991838	4425.846568	-1297.585821	-185180.2018	187500	10999.60637	6676.488421	0.626	-0.708	0.376	192	0	0	0	0	0	0	0	0	0	1.66E+09	0	 2022-09-19 16:35:25.437
221	30728.46302	2193.779015	4428.417018	-1300.26803	-185212.2095	187500	11007.0495	6680.645845	0.626	-0.708	0.376	192	0	0	0	0	0	0	0	0	0	1.66E+09	0	 2022-09-19 16:35:25.441
222	30737.98486	2202.898527	4443.057411	-1295.440053	-185289.4125	187500	11017.91245	6689.519488	0.626	-0.708	0.376	192	0	0	0	0	0	0	0	0	0	1.66E+09	0	 2022-09-19 16:35:25.446
223	30760.40366	2225.384381	4457.451935	-1286.566411	-185296.0509	187500	11029.40125	6701.231802	0.626	-0.708	0.376	192	0	0	0	0	0	0	0	0	0	1.66E+09	0	 2022-09-19 16:35:25.451
224	30752.22293	2223.57389	4447.080725	-1288.622771	-185176.715	187500	11023.12041	6688.625418	0.626	-0.708	0.376	192	0	0	0	0	0	0	0	0	0	1.66E+09	0	 2022-09-19 16:35:25.454
225	30736.66611	2215.080227	4432.976774	-1288.73453	-185171.8646	187500	11018.15832	6677.561304	0.626	-0.708	0.376	192	0	0	0	0	0	0	0	0	0	1.66E+09	0	 2022-09-19 16:35:25.458
226	30733.96155	2216.711905	4431.725077	-1289.069806	-185240.8421	187500	11023.83566	6681.897543	0.632	-0.702	0.368	192	19	192	234	16	11	128	0	0	0	1.66E+09	0	 2022-09-19 16:35:25.461
227	30743.5281	2228.044239	4444.890254	-1285.02414	-185298.0179	187500	11036.71027	6694.191002	0.632	-0.702	0.368	192	0	0	0	0	0	0	0	0	0	1.66E+09	0	 2022-09-19 16:35:25.465
228	30761.38714	2248.138457	4457.0049	-1286.789928	-185286.4173	187500	11041.15826	6699.041331	0.632	-0.702	0.368	192	0	0	0	0	0	0	0	0	0	1.66E+09	0	 2022-09-19 16:35:25.469
229	30746.99262	2243.69046	4446.678394	-1293.182527	-185177.0503	187500	11032.12816	6688.200735	0.632	-0.702	0.368	192	0	0	0	0	0	0	0	0	0	1.66E+09	0	 2022-09-19 16:35:25.473
230	30723.99267	2226.703134	4430.138103	-1285.761748	-185146.9648	187500	11031.25644	6687.440775	0.632	-0.702	0.368	192	0	0	0	0	0	0	0	0	0	1.66E+09	0	 2022-09-19 16:35:25.477
231	30721.7575	2225.630251	4429.46755	-1291.126167	-185197.9715	187500	11039.7054	6688.759528	0.632	-0.702	0.368	192	0	0	0	0	0	0	0	0	0	1.66E+09	0	 2022-09-19 16:35:25.480
232	30732.57574	2235.196797	4440.598719	-1293.070768	-185303.047	187500	11049.22724	6695.889735	0.632	-0.702	0.368	192	0	0	0	0	0	0	0	0	0	1.66E+09	0	 2022-09-19 16:35:25.484
233	30757.74381	2259.873123	4459.038908	-1293.115472	-185296.7662	187500	11059.26318	6700.136566	0.632	-0.702	0.368	192	0	0	0	0	0	0	0	0	0	1.66E+09	0	 2022-09-19 16:35:25.488
234	30744.62333	2253.927559	4446.521931	-1296.334123	-185151.3905	187500	11051.30596	6696.426177	0.632	-0.702	0.368	192	0	0	0	0	0	0	0	0	0	1.66E+09	0	 2022-09-19 16:35:25.492
235	30717.73418	2235.085039	4428.573481	-1299.955106	-185140.4157	187500	11047.68497	6690.413557	0.632	-0.702	0.368	192	0	0	0	0	0	0	0	0	0	1.66E+09	0	 2022-09-19 16:35:25.497
236	30712.03449	2230.435876	4427.947632	-1289.159213	-185205.9287	187500	11061.69952	6707.892622	0.632	-0.708	0.364	192	19	192	233	224	11	96	0	0	0	1.66E+09	0	 2022-09-19 16:35:25.501
237	30727.77012	2242.997556	4437.313013	-1299.530423	-185300.946	187500	11072.24954	6711.535956	0.632	-0.708	0.364	192	0	0	0	0	0	0	0	0	0	1.66E+09	0	 2022-09-19 16:35:25.504
238	30746.59029	2258.844943	4449.718231	-1292.422568	-185277.3202	187500	11079.04447	6725.774017	0.632	-0.708	0.364	192	0	0	0	0	0	0	0	0	0	1.66E+09	0	 2022-09-19 16:35:25.508
239	30737.40372	2255.939216	4440.397553	-1290.321504	-185183.5323	187500	11072.09308	6730.914918	0.632	-0.708	0.364	192	0	0	0	0	0	0	0	0	0	1.66E+09	0	 2022-09-19 16:35:25.512
240	30714.44848	2241.38823	4422.449103	-1293.428396	-185151.2563	187500	11062.1242	6716.319229	0.632	-0.708	0.364	192	0	0	0	0	0	0	0	0	0	1.66E+09	0	 2022-09-19 16:35:25.516
241	30714.60494	2242.550521	4421.26446	-1295.484757	-185220.7703	187500	11065.65578	6715.246345	0.632	-0.708	0.364	192	0	0	0	0	0	0	0	0	0	1.66E+09	0	 2022-09-19 16:35:25.522
242	30729.73707	2259.560199	4432.306222	-1294.322466	-185290.5524	187500	11076.04934	6726.489273	0.632	-0.708	0.364	192	0	0	0	0	0	0	0	0	0	1.66E+09	0	 2022-09-19 16:35:25.525
243	30747.73023	2277.978036	4442.900949	-1295.261239	-185290.3512	187500	11084.87828	6732.770113	0.632	-0.708	0.364	192	0	0	0	0	0	0	0	0	0	1.66E+09	0	 2022-09-19 16:35:25.529
244	30740.77883	2278.179202	4433.289699	-1295.864737	-185184.1134	187500	11074.86469	6721.236613	0.632	-0.708	0.364	192	0	0	0	0	0	0	0	0	0	1.66E+09	0	 2022-09-19 16:35:25.532
245	30708.48056	2256.140382	4413.95544	-1296.468234	-185147.3448	187500	11066.5722	6720.968392	0.632	-0.708	0.364	192	0	0	0	0	0	0	0	0	0	1.66E+09	0	 2022-09-19 16:35:25.536
246	30699.18224	2248.719603	4412.279059	-1302.078521	-185172.9822	187500	11074.93175	6715.156938	0.634	-0.712	0.362	192	19	208	233	192	11	80	0	0	0	1.66E+09	0	 2022-09-19 16:35:25.540
247	30707.31827	2252.944082	4420.213928	-1301.229155	-185265.2726	187500	11084.87828	6723.047104	0.634	-0.712	0.362	192	0	0	0	0	0	0	0	0	0	1.66E+09	0	 2022-09-19 16:35:25.544
248	30732.32987	2275.385234	4436.083667	-1299.664533	-185301.0354	187500	11088.23104	6734.871177	0.634	-0.712	0.362	192	0	0	0	0	0	0	0	0	0	1.66E+09	0	 2022-09-19 16:35:25.548
249	30734.96738	2284.996484	4433.602623	-1299.575126	-185216.1658	187500	11080.81026	6733.284203	0.634	-0.712	0.362	192	0	0	0	0	0	0	0	0	0	1.66E+09	0	 2022-09-19 16:35:25.553
250	30699.09283	2260.946007	4416.324725	-1299.329257	-185146.1154	187500	11077.32339	6720.655468	0.634	-0.712	0.362	192	0	0	0	0	0	0	0	0	0	1.66E+09	0	 2022-09-19 16:35:25.557
251	30689.45923	2254.911036	4415.87769	-1306.727684	-185188.4273	187500	11083.17954	6711.804177	0.634	-0.712	0.362	192	0	0	0	0	0	0	0	0	0	1.66E+09	0	 2022-09-19 16:35:25.560
252	30699.24929	2263.739975	4424.393704	-1300.13392	-185278.9295	187500	11091.91908	6715.69338	0.634	-0.712	0.362	192	0	0	0	0	0	0	0	0	0	1.66E+09	0	 2022-09-19 16:35:25.564
253	30725.40083	2285.756443	4442.2751	-1292.623734	-185315.4299	187500	11102.75967	6737.173407	0.634	-0.712	0.362	192	0	0	0	0	0	0	0	0	0	1.66E+09	0	 2022-09-19 16:35:25.568
254	30722.42805	2286.136423	4437.357716	-1293.875431	-185162.4993	187500	11098.78106	6737.195758	0.634	-0.712	0.362	192	0	0	0	0	0	0	0	0	0	1.66E+09	0	 2022-09-19 16:35:25.572
255	30699.29399	2272.077176	4419.8563	-1294.36717	-185154.2068	187500	11090.77914	6728.992668	0.634	-0.712	0.362	192	0	0	0	0	0	0	0	0	0	1.66E+09	0	 2022-09-19 16:35:25.576
0	30695.20363	2271.741899	4423.142007	-1290.075635	-185239.2775	187500	11098.78106	6730.713753	0.638	-0.71	0.36	192	19	240	233	208	11	64	0	0	0	1.66E+09	0	 2022-09-19 16:35:25.581
1	30709.88872	2284.795318	4435.010783	-1289.293324	-185281.0082	187500	11106.71593	6733.083038	0.638	-0.71	0.36	192	0	0	0	0	0	0	0	0	0	1.66E+09	0	 2022-09-19 16:35:25.585
2	30732.46398	2304.375446	4449.986452	-1290.835594	-185294.6875	187500	11114.20376	6743.253081	0.638	-0.71	0.36	192	0	0	0	0	0	0	0	0	0	1.66E+09	0	 2022-09-19 16:35:25.588
3	30737.87311	2311.751522	4449.852341	-1292.422568	-185222.8043	187500	11113.3991	6739.475636	0.638	-0.71	0.36	192	0	0	0	0	0	0	0	0	0	1.66E+09	0	 2022-09-19 16:35:25.592
4	30707.0724	2292.193746	4430.898062	-1291.394388	-185154.0056	187500	11105.26307	6733.217148	0.638	-0.71	0.36	192	0	0	0	0	0	0	0	0	0	1.66E+09	0	 2022-09-19 16:35:25.596
5	30692.14144	2284.325932	4426.338306	-1297.004676	-185173.921	187500	11106.60417	6729.752628	0.638	-0.71	0.36	192	0	0	0	0	0	0	0	0	0	1.66E+09	0	 2022-09-19 16:35:25.602
6	30699.78573	2292.931353	4433.155588	-1298.614001	-185271.6205	187500	11115.50017	6736.949889	0.638	-0.71	0.36	192	0	0	0	0	0	0	0	0	0	1.66E+09	0	 2022-09-19 16:35:25.605
7	30723.34447	2314.612545	4447.66187	-1298.703408	-185325.0188	187500	11126.7878	6749.2657	0.638	-0.71	0.36	192	0	0	0	0	0	0	0	0	0	1.66E+09	0	 2022-09-19 16:35:25.608
8	30729.37944	2324.849644	4446.052545	-1303.777254	-185227.9452	187500	11119.45642	6739.699154	0.638	-0.71	0.36	192	0	0	0	0	0	0	0	0	0	1.66E+09	0	 2022-09-19 16:35:25.614
9	30702.78087	2310.075141	4429.84753	-1300.893879	-185145.6237	187500	11113.37675	6734.066514	0.638	-0.71	0.36	192	0	0	0	0	0	0	0	0	0	1.66E+09	0	 2022-09-19 16:35:25.617
10	30690.59917	2302.162624	4423.94667	-1295.864737	-185189.9025	187500	11120.30579	6733.418314	0.642	-0.71	0.362	192	20	16	233	208	11	80	0	0	0	1.66E+09	0	 2022-09-19 16:35:25.621
11	30701.50682	2314.701952	4432.66385	-1295.596516	-185257.4495	187500	11131.63813	6732.971279	0.642	-0.71	0.362	192	0	0	0	0	0	0	0	0	0	1.66E+09	0	 2022-09-19 16:35:25.624
12	30717.28715	2328.358868	4443.549149	-1293.517803	-185290.016	187500	11140.62353	6742.783695	0.642	-0.71	0.362	192	0	0	0	0	0	0	0	0	0	1.66E+09	0	 2022-09-19 16:35:25.629
13	30722.80803	2335.645537	4445.60551	-1296.132957	-185213.8412	187500	11140.73529	6741.710811	0.642	-0.71	0.362	192	0	0	0	0	0	0	0	0	0	1.66E+09	0	 2022-09-19 16:35:25.632
14	30697.52821	2321.921566	4429.758123	-1300.849176	-185152.6198	187500	11134.85678	6727.293936	0.642	-0.71	0.362	192	0	0	0	0	0	0	0	0	0	1.66E+09	0	 2022-09-19 16:35:25.636
15	30679.19978	2310.231603	4420.415094	-1302.033818	-185153.0668	187500	11132.01811	6722.063627	0.642	-0.71	0.362	192	0	0	0	0	0	0	0	0	0	1.66E+09	0	 2022-09-19 16:35:25.640
16	30683.53601	2316.177167	4427.232376	-1302.771426	-185260.6681	187500	11141.36113	6720.230784	0.642	-0.71	0.362	192	0	0	0	0	0	0	0	0	0	1.66E+09	0	 2022-09-19 16:35:25.643
17	30704.23373	2336.025517	4443.549149	-1302.234984	-185329.6233	187500	11155.62155	6728.925613	0.642	-0.71	0.362	192	0	0	0	0	0	0	0	0	0	1.66E+09	0	 2022-09-19 16:35:25.648
18	30708.86054	2342.261653	4445.136123	-1291.237925	-185209.2368	187500	11159.86838	6739.632099	0.642	-0.71	0.362	192	0	0	0	0	0	0	0	0	0	1.66E+09	0	 2022-09-19 16:35:25.652
19	30685.79354	2328.112999	4430.808655	-1282.341931	-185167.5731	187500	11155.71095	6735.474674	0.642	-0.71	0.362	192	0	0	0	0	0	0	0	0	0	1.66E+09	0	 2022-09-19 16:35:25.657
20	30673.47773	2318.948784	4425.533643	-1281.201992	-185171.2612	187500	11160.96361	6727.60686	0.642	-0.712	0.36	192	20	16	233	192	11	64	0	0	0	1.66E+09	0	 2022-09-19 16:35:25.660
21	30680.92086	2325.766066	4432.641498	-1273.557696	-185259.7517	187500	11168.67497	6743.186026	0.642	-0.712	0.36	192	0	0	0	0	0	0	0	0	0	1.66E+09	0	 2022-09-19 16:35:25.665
22	30709.03936	2348.11781	4449.025327	-1268.796774	-185322.9848	187500	11180.74491	6754.071326	0.642	-0.712	0.36	192	0	0	0	0	0	0	0	0	0	1.66E+09	0	 2022-09-19 16:35:25.668
23	30721.44457	2364.099308	4451.215798	-1271.456632	-185273.3192	187500	11181.48252	6749.355107	0.642	-0.712	0.36	192	0	0	0	0	0	0	0	0	0	1.66E+09	0	 2022-09-19 16:35:25.673
24	30699.87514	2355.516238	4435.61428	-1272.84244	-185160.3759	187500	11173.30178	6735.742895	0.642	-0.712	0.36	192	0	0	0	0	0	0	0	0	0	1.66E+09	0	 2022-09-19 16:35:25.678
25	30685.99471	2348.6319	4430.920414	-1269.176754	-185171.5517	187500	11174.28525	6737.329869	0.642	-0.712	0.36	192	0	0	0	0	0	0	0	0	0	1.66E+09	0	 2022-09-19 16:35:25.682
26	30688.29694	2350.867075	4437.335365	-1269.064995	-185239.501	187500	11183.91886	6743.588357	0.642	-0.712	0.36	192	0	0	0	0	0	0	0	0	0	1.66E+09	0	 2022-09-19 16:35:25.686
27	30706.49126	2366.446241	4452.512199	-1272.596571	-185295.8721	187500	11194.29007	6753.981919	0.642	-0.712	0.36	192	0	0	0	0	0	0	0	0	0	1.66E+09	0	 2022-09-19 16:35:25.690
28	30715.63312	2380.751357	4455.350871	-1277.312789	-185254.4767	187500	11186.91399	6755.948872	0.642	-0.712	0.36	192	0	0	0	0	0	0	0	0	0	1.66E+09	0	 2022-09-19 16:35:25.692
29	30688.22988	2369.575485	4436.575405	-1282.118414	-185191.8471	187500	11177.12393	6743.320136	0.642	-0.712	0.36	192	0	0	0	0	0	0	0	0	0	1.66E+09	0	 2022-09-19 16:35:25.696
30	30665.67697	2355.627996	4425.198367	-1290.969705	-185150.0941	187500	11179.3591	6723.136511	0.63	-0.708	0.36	192	19	176	233	224	11	64	0	0	0	1.66E+09	0	 2022-09-19 16:35:25.699
31	30663.86648	2356.3209	4430.182806	-1287.102853	-185235.813	187500	11184.34354	6736.05582	0.63	-0.708	0.36	192	0	0	0	0	0	0	0	0	0	1.66E+09	0	 2022-09-19 16:35:25.704
32	30682.84311	2374.716386	4444.152647	-1292.377864	-185306.5563	187500	11192.99366	6743.968337	0.63	-0.708	0.36	192	0	0	0	0	0	0	0	0	0	1.66E+09	0	 2022-09-19 16:35:25.708
33	30699.31635	2390.474366	4449.025327	-1290.612077	-185243.569	187500	11197.77694	6746.807009	0.63	-0.708	0.36	192	0	0	0	0	0	0	0	0	0	1.66E+09	0	 2022-09-19 16:35:25.713
34	30681.70317	2382.204221	4432.306222	-1296.356475	-185162.9463	187500	11184.27648	6729.104427	0.63	-0.708	0.36	192	0	0	0	0	0	0	0	0	0	1.66E+09	0	 2022-09-19 16:35:25.717
35	30661.92188	2367.183848	4419.744542	-1290.410911	-185164.0415	187500	11179.51556	6729.864386	0.63	-0.708	0.36	192	0	0	0	0	0	0	0	0	0	1.66E+09	0	 2022-09-19 16:35:25.721
36	30665.47581	2366.31213	4423.0526	-1289.583896	-185218.9151	187500	11188.00922	6736.614613	0.63	-0.708	0.36	192	0	0	0	0	0	0	0	0	0	1.66E+09	0	 2022-09-19 16:35:25.725
37	30688.90043	2382.204221	4437.067144	-1295.752978	-185298.6661	187500	11198.73806	6734.759418	0.63	-0.708	0.36	192	0	0	0	0	0	0	0	0	0	1.66E+09	0	 2022-09-19 16:35:25.728
38	30712.28036	2403.46073	4450.008804	-1294.188356	-185284.9198	187500	11206.13649	6740.190892	0.63	-0.708	0.36	192	0	0	0	0	0	0	0	0	0	1.66E+09	0	 2022-09-19 16:35:25.732
39	30698.7799	2399.593878	4436.977737	-1301.564431	-185182.9735	187500	11193.88773	6734.088866	0.63	-0.708	0.36	192	0	0	0	0	0	0	0	0	0	1.66E+09	0	 2022-09-19 16:35:25.737
40	30674.43885	2381.488965	4421.242108	-1295.77533	-185158.2971	187500	11194.60299	6738.648622	0.632	-0.708	0.368	192	19	192	233	224	11	128	0	0	0	1.66E+09	0	 2022-09-19 16:35:25.741
41	30676.45051	2383.210049	4425.779513	-1295.372998	-185217.8645	187500	11207.11997	6747.835189	0.632	-0.708	0.368	192	0	0	0	0	0	0	0	0	0	1.66E+09	0	 2022-09-19 16:35:25.745
42	30694.46602	2398.006904	4436.217777	-1307.621754	-185287.3561	187500	11214.76426	6741.487293	0.632	-0.708	0.368	192	0	0	0	0	0	0	0	0	0	1.66E+09	0	 2022-09-19 16:35:25.749
43	30712.19095	2414.904823	4446.790152	-1306.057132	-185276.4932	187500	11216.01596	6741.286128	0.632	-0.708	0.368	192	0	0	0	0	0	0	0	0	0	1.66E+09	0	 2022-09-19 16:35:25.752
44	30700.05395	2410.456826	4434.653155	-1306.079484	-185159.4818	187500	11206.62823	6739.542692	0.632	-0.708	0.368	192	0	0	0	0	0	0	0	0	0	1.66E+09	0	 2022-09-19 16:35:25.756
45	30682.64195	2401.605535	4424.59487	-1306.101836	-185168.646	187500	11207.34348	6734.133569	0.632	-0.708	0.368	192	0	0	0	0	0	0	0	0	0	1.66E+09	0	 2022-09-19 16:35:25.760
46	30678.79745	2399.705636	4427.5453	-1306.750036	-185230.2251	187500	11217.58058	6743.811875	0.632	-0.708	0.368	192	0	0	0	0	0	0	0	0	0	1.66E+09	0	 2022-09-19 16:35:25.766
47	30697.10352	2416.134169	4440.822237	-1311.734475	-185311.8089	187500	11225.02371	6747.186988	0.632	-0.708	0.368	192	0	0	0	0	0	0	0	0	0	1.66E+09	0	 2022-09-19 16:35:25.769
48	30720.72932	2440.765791	4454.926187	-1309.901632	-185278.9295	187500	11231.72924	6751.702041	0.632	-0.708	0.368	192	0	0	0	0	0	0	0	0	0	1.66E+09	0	 2022-09-19 16:35:25.773
49	30711.69921	2439.491742	4442.431562	-1313.299097	-185178.9054	187500	11223.36968	6737.061648	0.632	-0.708	0.368	192	0	0	0	0	0	0	0	0	0	1.66E+09	0	 2022-09-19 16:35:25.779
50	30686.62056	2423.398486	4427.388838	-1307.152367	-185154.4303	187500	11219.45813	6732.703058	0.634	-0.71	0.366	192	19	208	233	208	11	112	0	0	0	1.66E+09	0	 2022-09-19 16:35:25.782
51	30688.67692	2425.410143	4430.406324	-1306.817091	-185224.5477	187500	11223.5485	6742.604881	0.634	-0.71	0.366	192	0	0	0	0	0	0	0	0	0	1.66E+09	0	 2022-09-19 16:35:25.785
52	30709.68756	2442.129247	4439.503484	-1309.342838	-185302.7788	187500	11230.38813	6749.2657	0.634	-0.71	0.366	192	0	0	0	0	0	0	0	0	0	1.66E+09	0	 2022-09-19 16:35:25.788
53	30729.31239	2461.798783	4449.494713	-1319.244661	-185305.5728	187500	11238.09948	6748.304575	0.634	-0.71	0.366	192	0	0	0	0	0	0	0	0	0	1.66E+09	0	 2022-09-19 16:35:25.792
54	30719.03059	2458.535428	4440.464609	-1321.65865	-185172.4458	187500	11233.1821	6739.296822	0.634	-0.71	0.366	192	0	0	0	0	0	0	0	0	0	1.66E+09	0	 2022-09-19 16:35:25.797
55	30692.16379	2440.206997	4424.483111	-1313.880243	-185150.8317	187500	11228.75646	6737.374572	0.634	-0.71	0.366	192	0	0	0	0	0	0	0	0	0	1.66E+09	0	 2022-09-19 16:35:25.801
56	30689.81686	2438.57532	4426.964155	-1315.869548	-185229.2192	187500	11232.71271	6735.67584	0.634	-0.71	0.366	192	0	0	0	0	0	0	0	0	0	1.66E+09	0	 2022-09-19 16:35:25.804
57	30710.38046	2453.618044	4442.610376	-1320.049324	-185311.8536	187500	11239.70881	6736.413447	0.634	-0.71	0.366	192	0	0	0	0	0	0	0	0	0	1.66E+09	0	 2022-09-19 16:35:25.808
58	30738.09662	2474.986312	4457.898969	-1317.769446	-185282.1705	187500	11243.19568	6737.352221	0.634	-0.71	0.366	192	0	0	0	0	0	0	0	0	0	1.66E+09	0	 2022-09-19 16:35:25.812
59	30726.71959	2470.381852	4445.896083	-1314.796664	-185157.6713	187500	11238.323	6737.151055	0.634	-0.71	0.366	192	0	0	0	0	0	0	0	0	0	1.66E+09	0	 2022-09-19 16:35:25.816
60	30701.41741	2454.378003	4426.226548	-1316.249527	-185158.2077	187500	11231.55042	6728.746799	0.634	-0.71	0.366	192	0	0	0	0	0	0	0	0	0	1.66E+09	0	 2022-09-19 16:35:25.820
61	30702.17737	2459.831829	4426.159492	-1321.301022	-185216.9258	187500	11236.31134	6725.394037	0.634	-0.706	0.368	192	19	208	233	240	11	128	0	0	0	1.66E+09	0	 2022-09-19 16:35:25.825
62	30718.36003	2475.545105	4437.290661	-1320.474007	-185289.3231	187500	11244.89441	6738.514511	0.634	-0.706	0.368	192	0	0	0	0	0	0	0	0	0	1.66E+09	0	 2022-09-19 16:35:25.829
63	30743.6175	2498.880327	4451.23815	-1322.105685	-185290.463	187500	11251.17525	6748.349279	0.634	-0.706	0.368	192	0	0	0	0	0	0	0	0	0	1.66E+09	0	 2022-09-19 16:35:25.832
64	30734.74386	2496.153414	4438.140027	-1323.983231	-185179.8666	187500	11241.42989	6739.810913	0.634	-0.706	0.368	192	0	0	0	0	0	0	0	0	0	1.66E+09	0	 2022-09-19 16:35:25.836
65	30712.48152	2481.401262	4421.555033	-1323.983231	-185150.0941	187500	11235.082	6730.691401	0.634	-0.706	0.368	192	0	0	0	0	0	0	0	0	0	1.66E+09	0	 2022-09-19 16:35:25.840
66	30712.1686	2483.658789	4423.231414	-1322.955051	-185212.2543	187500	11245.87789	6733.194796	0.634	-0.706	0.368	192	0	0	0	0	0	0	0	0	0	1.66E+09	0	 2022-09-19 16:35:25.844
67	30727.74777	2498.098016	4434.809617	-1322.910347	-185287.1773	187500	11263.84869	6739.118009	0.634	-0.706	0.368	192	0	0	0	0	0	0	0	0	0	1.66E+09	0	 2022-09-19 16:35:25.848
68	30750.74771	2519.354525	4445.60551	-1329.414705	-185278.2366	187500	11273.21407	6742.560177	0.634	-0.706	0.368	192	0	0	0	0	0	0	0	0	0	1.66E+09	0	 2022-09-19 16:35:25.853
69	30747.86434	2524.383667	4438.072972	-1339.6071	-185204.8111	187500	11267.58144	6732.077209	0.634	-0.706	0.368	192	0	0	0	0	0	0	0	0	0	1.66E+09	0	 2022-09-19 16:35:25.857
70	30723.83621	2509.877385	4421.398571	-1329.794685	-185152.8433	187500	11263.44636	6729.707924	0.634	-0.706	0.368	192	0	0	0	0	0	0	0	0	0	1.66E+09	0	 2022-09-19 16:35:25.860
71	30718.40474	2508.133949	4420.079818	-1330.644051	-185197.0104	187500	11266.4862	6730.646697	0.642	-0.706	0.374	192	20	16	233	240	11	176	0	0	0	1.66E+09	0	 2022-09-19 16:35:25.864
72	30733.04513	2520.516815	4431.881539	-1331.113438	-185273.0957	187500	11276.03039	6732.434837	0.642	-0.706	0.374	192	0	0	0	0	0	0	0	0	0	1.66E+09	0	 2022-09-19 16:35:25.868
73	30755.30747	2540.633385	4445.158475	-1334.712068	-185299.8507	187500	11281.19365	6738.939195	0.642	-0.706	0.374	192	0	0	0	0	0	0	0	0	0	1.66E+09	0	 2022-09-19 16:35:25.872
74	30751.39591	2542.846208	4440.308147	-1336.276691	-185197.9268	187500	11276.87976	6739.408581	0.642	-0.706	0.374	192	0	0	0	0	0	0	0	0	0	1.66E+09	0	 2022-09-19 16:35:25.876
75	30729.67002	2530.239824	4425.153664	-1336.209635	-185138.8958	187500	11273.32583	6722.823587	0.642	-0.706	0.374	192	0	0	0	0	0	0	0	0	0	1.66E+09	0	 2022-09-19 16:35:25.880
76	30725.22202	2526.998821	4423.834911	-1329.057077	-185200.4078	187500	11281.77479	6728.769151	0.642	-0.706	0.374	192	0	0	0	0	0	0	0	0	0	1.66E+09	0	 2022-09-19 16:35:25.885
77	30741.73996	2541.013365	4438.385896	-1320.585766	-185285.7915	187500	11292.21306	6746.225863	0.642	-0.706	0.374	192	0	0	0	0	0	0	0	0	0	1.66E+09	0	 2022-09-19 16:35:25.888
78	30772.13833	2568.170734	4456.468458	-1318.082371	-185336.1276	187500	11303.6348	6754.875988	0.642	-0.706	0.374	192	0	0	0	0	0	0	0	0	0	1.66E+09	0	 2022-09-19 16:35:25.892
79	30770.01491	2574.228057	4451.260501	-1319.512882	-185197.1668	187500	11296.75046	6747.946948	0.642	-0.706	0.374	192	0	0	0	0	0	0	0	0	0	1.66E+09	0	 2022-09-19 16:35:25.896
80	30746.47853	2564.706214	4437.938862	-1320.026972	-185152.9327	187500	11287.6086	6737.955718	0.642	-0.706	0.374	192	0	0	0	0	0	0	0	0	0	1.66E+09	0	 2022-09-19 16:35:25.900
81	30741.69525	2566.06967	4438.229434	-1322.977403	-185205.7499	187500	11288.9497	6737.374572	0.65	-0.712	0.362	192	20	80	233	192	11	80	0	0	0	1.66E+09	0	 2022-09-19 16:35:25.904
82	30756.69327	2580.866525	4447.036022	-1329.012374	-185290.6418	187500	11298.65036	6737.620442	0.65	-0.712	0.362	192	0	0	0	0	0	0	0	0	0	1.66E+09	0	 2022-09-19 16:35:25.909
83	30783.47066	2605.14052	4463.598664	-1324.765542	-185292.6535	187500	11311.68143	6749.220997	0.65	-0.712	0.362	192	0	0	0	0	0	0	0	0	0	1.66E+09	0	 2022-09-19 16:35:25.913
84	30787.22576	2612.695409	4459.932978	-1323.983231	-185198.5079	187500	11301.84666	6745.510607	0.65	-0.712	0.362	192	0	0	0	0	0	0	0	0	0	1.66E+09	0	 2022-09-19 16:35:25.916
85	30768.83027	2606.123997	4443.325632	-1324.631432	-185160.5547	187500	11296.34813	6739.341526	0.65	-0.712	0.362	192	0	0	0	0	0	0	0	0	0	1.66E+09	0	 2022-09-19 16:35:25.920
86	30767.64563	2611.04138	4444.107943	-1320.205786	-185192.8306	187500	11304.52887	6739.274471	0.65	-0.712	0.362	192	0	0	0	0	0	0	0	0	0	1.66E+09	0	 2022-09-19 16:35:25.924
87	30782.39778	2628.185168	4454.501504	-1318.730571	-185252.2415	187500	11309.44625	6753.601939	0.65	-0.712	0.362	192	0	0	0	0	0	0	0	0	0	1.66E+09	0	 2022-09-19 16:35:25.928
88	30806.3812	2653.06266	4467.018481	-1323.267975	-185309.7302	187500	11315.10124	6755.479485	0.65	-0.712	0.362	192	0	0	0	0	0	0	0	0	0	1.66E+09	0	 2022-09-19 16:35:25.932
89	30814.13726	2668.150087	4466.61615	-1318.551757	-185219.4292	187500	11311.81554	6756.865294	0.65	-0.712	0.362	192	0	0	0	0	0	0	0	0	0	1.66E+09	0	 2022-09-19 16:35:25.936
90	30792.74664	2658.158858	4447.281891	-1316.003658	-185138.717	187500	11299.7903	6742.895453	0.65	-0.712	0.362	192	0	0	0	0	0	0	0	0	0	1.66E+09	0	 2022-09-19 16:35:25.941
91	30784.5659	2656.035442	4439.97287	-1315.556623	-185174.6363	187500	11300.88553	6742.917805	0.65	-0.71	0.366	192	20	80	233	208	11	112	0	0	0	1.66E+09	0	 2022-09-19 16:35:25.944
92	30789.25977	2664.171477	4448.354775	-1310.974516	-185246.1618	187500	11313.38016	6754.160733	0.65	-0.71	0.366	192	0	0	0	0	0	0	0	0	0	1.66E+09	0	 2022-09-19 16:35:25.948
93	30809.5775	2682.052872	4460.514124	-1313.097932	-185297.3473	187500	11315.59298	6758.474619	0.65	-0.71	0.366	192	0	0	0	0	0	0	0	0	0	1.66E+09	0	 2022-09-19 16:35:25.952
94	30819.99341	2694.972181	4461.542304	-1313.813187	-185237.8917	187500	11310.51914	6750.472695	0.65	-0.71	0.366	192	0	0	0	0	0	0	0	0	0	1.66E+09	0	 2022-09-19 16:35:25.956
95	30801.44147	2686.255	4445.449048	-1310.750998	-185157.5819	187500	11302.45016	6738.469808	0.65	-0.71	0.366	192	0	0	0	0	0	0	0	0	0	1.66E+09	0	 2022-09-19 16:35:25.960
96	30789.84091	2685.115061	4438.072972	-1319.535234	-185174.8374	187500	11300.79613	6728.679744	0.65	-0.71	0.366	192	0	0	0	0	0	0	0	0	0	1.66E+09	0	 2022-09-19 16:35:25.964
97	30798.75926	2696.939134	4446.209007	-1316.093065	-185248.0394	187500	11309.3792	6734.133569	0.65	-0.71	0.366	192	0	0	0	0	0	0	0	0	0	1.66E+09	0	 2022-09-19 16:35:25.969
98	30821.53569	2720.475521	4460.558827	-1305.185414	-185304.2093	187500	11316.10707	6749.019831	0.65	-0.71	0.366	192	0	0	0	0	0	0	0	0	0	1.66E+09	0	 2022-09-19 16:35:25.972
99	30828.95646	2732.232539	4458.524818	-1313.477911	-185204.0735	187500	11309.60271	6740.749686	0.65	-0.71	0.366	192	0	0	0	0	0	0	0	0	0	1.66E+09	0	 2022-09-19 16:35:25.976
100	30813.44435	2724.43178	4442.118638	-1316.361286	-185161.1135	187500	11299.58913	6725.371686	0.65	-0.71	0.366	192	0	0	0	0	0	0	0	0	0	1.66E+09	0	 2022-09-19 16:35:25.980
101	30809.46574	2726.041106	4439.145856	-1312.203862	-185187.6226	187500	11305.75821	6723.538843	0.64	-0.712	0.366	192	20	0	233	192	11	112	0	0	0	1.66E+09	0	 2022-09-19 16:35:25.984
102	30821.44628	2738.379268	4447.639519	-1300.111568	-185241.848	187500	11318.56576	6746.225863	0.64	-0.712	0.366	192	0	0	0	0	0	0	0	0	0	1.66E+09	0	 2022-09-19 16:35:25.988
103	30849.65418	2763.25676	4463.308092	-1302.994943	-185328.8633	187500	11332.93794	6754.317195	0.64	-0.712	0.366	192	0	0	0	0	0	0	0	0	0	1.66E+09	0	 2022-09-19 16:35:25.992
104	30867.62498	2781.384025	4469.857153	-1305.654801	-185220.0997	187500	11334.70372	6751.657337	0.64	-0.712	0.366	192	0	0	0	0	0	0	0	0	0	1.66E+09	0	 2022-09-19 16:35:25.996
105	30848.78246	2771.213981	4452.489847	-1307.711161	-185133.822	187500	11320.89035	6733.641831	0.64	-0.712	0.366	192	0	0	0	0	0	0	0	0	0	1.66E+09	0	 2022-09-19 16:35:25.999
106	30838.85829	2767.950626	4443.437391	-1306.593574	-185189.5896	187500	11320.44331	6729.193834	0.64	-0.712	0.366	192	0	0	0	0	0	0	0	0	0	1.66E+09	0	 2022-09-19 16:35:26.003
107	30845.92144	2778.835926	4445.896083	-1308.091141	-185244.2619	187500	11323.34904	6730.132607	0.64	-0.712	0.366	192	0	0	0	0	0	0	0	0	0	1.66E+09	0	 2022-09-19 16:35:26.008
108	30870.06132	2801.858223	4459.083612	-1302.95024	-185320.8837	187500	11334.9943	6745.108276	0.64	-0.712	0.366	192	0	0	0	0	0	0	0	0	0	1.66E+09	0	 2022-09-19 16:35:26.012
109	30890.49082	2825.863996	4466.660853	-1301.340914	-185243.1667	187500	11335.95542	6751.545578	0.64	-0.712	0.366	192	0	0	0	0	0	0	0	0	0	1.66E+09	0	 2022-09-19 16:35:26.017
110	30871.78241	2817.97383	4448.645347	-1296.848213	-185162.1863	187500	11323.75137	6743.36484	0.64	-0.712	0.366	192	0	0	0	0	0	0	0	0	0	1.66E+09	0	 2022-09-19 16:35:26.022
111	30861.92529	2814.285793	4437.111847	-1294.88126	-185177.9443	187500	11318.76693	6742.828398	0.634	-0.714	0.36	192	19	208	233	176	11	64	0	0	0	1.66E+09	0	 2022-09-19 16:35:26.025
112	30873.23527	2826.065162	4439.615242	-1298.189318	-185238.607	187500	11319.79511	6740.861445	0.634	-0.714	0.36	192	0	0	0	0	0	0	0	0	0	1.66E+09	0	 2022-09-19 16:35:26.028
113	30895.22939	2846.785229	4452.668661	-1305.498338	-185288.5631	187500	11324.95836	6741.129666	0.634	-0.714	0.36	192	0	0	0	0	0	0	0	0	0	1.66E+09	0	 2022-09-19 16:35:26.032
114	30903.96892	2858.654005	4457.764859	-1310.192205	-185225.0618	187500	11322.34321	6736.301689	0.634	-0.714	0.36	192	0	0	0	0	0	0	0	0	0	1.66E+09	0	 2022-09-19 16:35:26.036
115	30882.80182	2849.333328	4438.363545	-1319.781103	-185145.4002	187500	11309.13333	6716.833319	0.634	-0.714	0.36	192	0	0	0	0	0	0	0	0	0	1.66E+09	0	 2022-09-19 16:35:26.040
116	30867.40146	2841.778438	4429.46755	-1312.986173	-185152.6421	187500	11308.30631	6730.758456	0.634	-0.714	0.36	192	0	0	0	0	0	0	0	0	0	1.66E+09	0	 2022-09-19 16:35:26.044
117	30874.35286	2849.86977	4435.658984	-1305.833615	-185257.7624	187500	11314.29658	6739.810913	0.634	-0.714	0.36	192	0	0	0	0	0	0	0	0	0	1.66E+09	0	 2022-09-19 16:35:26.048
118	30900.92908	2875.440165	4451.439315	-1299.798644	-185325.667	187500	11321.0021	6747.186988	0.634	-0.714	0.36	192	0	0	0	0	0	0	0	0	0	1.66E+09	0	 2022-09-19 16:35:26.052
119	30919.05635	2895.310866	4458.010728	-1299.575126	-185263.1268	187500	11321.06916	6750.249177	0.634	-0.714	0.36	192	0	0	0	0	0	0	0	0	0	1.66E+09	0	 2022-09-19 16:35:26.055
120	30909.40039	2894.573259	4444.599681	-1302.57026	-185168.4225	187500	11310.38503	6733.530072	0.634	-0.714	0.36	192	0	0	0	0	0	0	0	0	0	1.66E+09	0	 2022-09-19 16:35:26.059
121	30893.84358	2884.805546	4431.970946	-1297.876394	-185157.4254	187500	11307.23343	6725.483444	0.636	-0.714	0.364	192	19	224	233	176	11	96	0	0	0	1.66E+09	0	 2022-09-19 16:35:26.063
122	30896.16816	2888.761805	4434.451989	-1292.713141	-185239.5457	187500	11316.28589	6735.653488	0.636	-0.714	0.364	192	0	0	0	0	0	0	0	0	0	1.66E+09	0	 2022-09-19 16:35:26.068
123	30923.5267	2915.941526	4450.746411	-1285.471175	-185337.0664	187500	11330.97098	6747.052878	0.636	-0.714	0.364	192	0	0	0	0	0	0	0	0	0	1.66E+09	0	 2022-09-19 16:35:26.072
124	30946.5937	2939.075582	4458.815391	-1286.879335	-185252.6215	187500	11336.53657	6750.360936	0.636	-0.714	0.364	192	0	0	0	0	0	0	0	0	0	1.66E+09	0	 2022-09-19 16:35:26.076
125	30933.74144	2935.700469	4443.482094	-1291.304981	-185158.6995	187500	11326.14301	6736.458151	0.636	-0.714	0.364	192	0	0	0	0	0	0	0	0	0	1.66E+09	0	 2022-09-19 16:35:26.079
126	30918.09522	2927.027992	4431.970946	-1287.572239	-185162.7675	187500	11326.25476	6726.377514	0.636	-0.714	0.364	192	0	0	0	0	0	0	0	0	0	1.66E+09	0	 2022-09-19 16:35:26.085
127	30918.63166	2930.961899	4435.234301	-1284.420643	-185215.0706	187500	11332.62501	6731.45136	0.636	-0.714	0.364	192	0	0	0	0	0	0	0	0	0	1.66E+09	0	 2022-09-19 16:35:26.088
128	30939.75406	2951.056117	4451.774591	-1286.588763	-185308.322	187500	11342.88446	6737.7322	0.636	-0.714	0.364	192	0	0	0	0	0	0	0	0	0	1.66E+09	0	 2022-09-19 16:35:26.091
129	30972.81229	2982.125042	4470.125374	-1285.627638	-185305.4834	187500	11351.48988	6744.705945	0.636	-0.714	0.364	192	0	0	0	0	0	0	0	0	0	1.66E+09	0	 2022-09-19 16:35:26.096
130	30955.78026	2974.190172	4450.500542	-1294.210707	-185165.9638	187500	11337.90002	6729.931442	0.636	-0.714	0.364	192	0	0	0	0	0	0	0	0	0	1.66E+09	0	 2022-09-19 16:35:26.100
131	30932.53445	2961.002643	4434.742562	-1295.440053	-185148.9765	187500	11336.46951	6727.249232	0.638	-0.71	0.358	192	19	240	233	208	11	48	0	0	0	1.66E+09	0	 2022-09-19 16:35:26.104
132	30933.67439	2966.948207	4437.581234	-1290.120338	-185217.8422	187500	11345.79019	6736.726372	0.638	-0.71	0.358	192	0	0	0	0	0	0	0	0	0	1.66E+09	0	 2022-09-19 16:35:26.107
133	30957.34488	2991.423367	4455.440278	-1278.497431	-185322.7166	187500	11361.68228	6757.401735	0.638	-0.71	0.358	192	0	0	0	0	0	0	0	0	0	1.66E+09	0	 2022-09-19 16:35:26.111
134	30983.11645	3018.558385	4469.655987	-1280.464385	-185284.3833	187500	11370.51122	6763.503762	0.638	-0.71	0.358	192	0	0	0	0	0	0	0	0	0	1.66E+09	0	 2022-09-19 16:35:26.115
135	30970.53241	3015.295031	4457.407231	-1281.917248	-185151.4799	187500	11362.06226	6750.427991	0.638	-0.71	0.358	192	0	0	0	0	0	0	0	0	0	1.66E+09	0	 2022-09-19 16:35:26.119
136	30950.75112	3007.807196	4442.364507	-1288.287495	-185145.1096	187500	11356.72019	6735.497026	0.638	-0.71	0.358	192	0	0	0	0	0	0	0	0	0	1.66E+09	0	 2022-09-19 16:35:26.124
137	30955.0203	3012.746932	4444.465571	-1284.599457	-185203.403	187500	11361.14584	6741.330831	0.638	-0.71	0.358	192	0	0	0	0	0	0	0	0	0	1.66E+09	0	 2022-09-19 16:35:26.128
138	30973.41579	3028.773132	4452.668661	-1278.385672	-185289.0772	187500	11367.80666	6750.67386	0.638	-0.71	0.358	192	0	0	0	0	0	0	0	0	0	1.66E+09	0	 2022-09-19 16:35:26.131
139	30999.29911	3054.052955	4464.671548	-1285.873507	-185290.5971	187500	11372.85815	6747.611671	0.638	-0.71	0.358	192	0	0	0	0	0	0	0	0	0	1.66E+09	0	 2022-09-19 16:35:26.135
140	30992.01244	3051.527208	4451.931054	-1290.343856	-185185.0745	187500	11363.58218	6735.765247	0.638	-0.71	0.358	192	0	0	0	0	0	0	0	0	0	1.66E+09	0	 2022-09-19 16:35:26.139
141	30966.12912	3034.785752	4432.306222	-1291.68496	-185146.6742	187500	11358.68715	6725.505796	0.64	-0.706	0.362	192	20	0	233	240	11	80	0	0	0	1.66E+09	0	 2022-09-19 16:35:26.143
142	30964.5645	3035.366897	4432.909719	-1290.120338	-185169.6518	187500	11362.86692	6727.964488	0.64	-0.706	0.362	192	0	0	0	0	0	0	0	0	0	1.66E+09	0	 2022-09-19 16:35:26.147
143	30979.58487	3048.73324	4445.650213	-1290.232097	-185276.8955	187500	11366.89024	6729.350296	0.64	-0.706	0.362	192	0	0	0	0	0	0	0	0	0	1.66E+09	0	 2022-09-19 16:35:26.152
144	31004.73058	3072.649607	4460.98351	-1284.822975	-185272.7381	187500	11371.65116	6739.788561	0.64	-0.706	0.362	192	0	0	0	0	0	0	0	0	0	1.66E+09	0	 2022-09-19 16:35:26.156
145	31000.77432	3074.571857	4454.881484	-1281.514917	-185176.0891	187500	11360.89997	6734.222976	0.64	-0.706	0.362	192	0	0	0	0	0	0	0	0	0	1.66E+09	0	 2022-09-19 16:35:26.159
146	30983.8317	3065.251179	4444.934958	-1276.239905	-185158.2971	187500	11355.49085	6737.59809	0.64	-0.706	0.362	192	0	0	0	0	0	0	0	0	0	1.66E+09	0	 2022-09-19 16:35:26.163
147	30991.43129	3072.291979	4451.23815	-1269.824954	-185234.226	187500	11361.9058	6744.817703	0.64	-0.706	0.362	192	0	0	0	0	0	0	0	0	0	1.66E+09	0	 2022-09-19 16:35:26.168
148	31012.01725	3088.653456	4461.922283	-1277.916286	-185271.8217	187500	11365.1021	6739.967375	0.64	-0.706	0.362	192	0	0	0	0	0	0	0	0	0	1.66E+09	0	 2022-09-19 16:35:26.172
149	31032.33499	3104.612601	4469.074842	-1275.92698	-185280.7847	187500	11365.54913	6743.990689	0.64	-0.706	0.362	192	0	0	0	0	0	0	0	0	0	1.66E+09	0	 2022-09-19 16:35:26.175
150	31033.34082	3109.574689	4462.749298	-1266.852172	-185190.4613	187500	11357.25663	6751.299709	0.64	-0.706	0.362	192	0	0	0	0	0	0	0	0	0	1.66E+09	0	 2022-09-19 16:35:26.180
151	31015.59353	3101.25984	4447.90774	-1263.521762	-185143.9697	187500	11348.78532	6745.622366	0.636	-0.716	0.368	192	19	224	233	160	11	128	0	0	0	1.66E+09	0	 2022-09-19 16:35:26.184
152	31012.82191	3104.187918	4446.723097	-1264.415832	-185189.232	187500	11348.89708	6744.594186	0.636	-0.716	0.368	192	0	0	0	0	0	0	0	0	0	1.66E+09	0	 2022-09-19 16:35:26.187
153	31029.2728	3119.610622	4456.177885	-1261.130126	-185269.05	187500	11353.36743	6752.707869	0.636	-0.716	0.368	192	0	0	0	0	0	0	0	0	0	1.66E+09	0	 2022-09-19 16:35:26.191
154	31058.8218	3145.181018	4469.924208	-1265.309902	-185296.8109	187500	11355.20027	6757.692308	0.636	-0.716	0.368	192	0	0	0	0	0	0	0	0	0	1.66E+09	0	 2022-09-19 16:35:26.195
155	31052.27274	3144.510465	4463.553961	-1264.304073	-185178.5478	187500	11347.39951	6753.333718	0.636	-0.716	0.368	192	0	0	0	0	0	0	0	0	0	1.66E+09	0	 2022-09-19 16:35:26.199
156	31029.80924	3130.697087	4447.416001	-1264.25937	-185142.6509	187500	11337.83297	6740.637927	0.636	-0.716	0.368	192	0	0	0	0	0	0	0	0	0	1.66E+09	0	 2022-09-19 16:35:26.203
157	31029.63043	3134.251015	4445.627862	-1270.473155	-185193.9035	187500	11336.51422	6732.926575	0.636	-0.716	0.368	192	0	0	0	0	0	0	0	0	0	1.66E+09	0	 2022-09-19 16:35:26.207
158	31046.03661	3150.321919	4455.172057	-1268.461498	-185268.983	187500	11349.18765	6742.426067	0.636	-0.716	0.368	192	0	0	0	0	0	0	0	0	0	1.66E+09	0	 2022-09-19 16:35:26.212
159	31074.82565	3174.752375	4472.3829	-1272.127184	-185289.256	187500	11359.29064	6744.549482	0.636	-0.716	0.368	192	0	0	0	0	0	0	0	0	0	1.66E+09	0	 2022-09-19 16:35:26.215
160	31077.82079	3180.206201	4467.621978	-1273.960027	-185193.9035	187500	11356.34021	6737.933366	0.636	-0.716	0.368	192	0	0	0	0	0	0	0	0	0	1.66E+09	0	 2022-09-19 16:35:26.219
161	31058.03949	3171.2208	4448.801809	-1271.277818	-185138.4041	187500	11346.84072	6738.805084	0.636	-0.716	0.368	192	0	0	0	0	0	0	0	0	0	1.66E+09	0	 2022-09-19 16:35:26.223
162	31053.36798	3171.131393	4442.900949	-1265.712233	-185181.7218	187500	11347.8242	6742.381363	0.636	-0.706	0.364	192	19	224	233	240	11	96	0	0	0	1.66E+09	0	 2022-09-19 16:35:26.227
163	31070.75764	3189.169251	4454.143876	-1266.583951	-185275.7779	187500	11352.69688	6747.72343	0.636	-0.706	0.364	192	0	0	0	0	0	0	0	0	0	1.66E+09	0	 2022-09-19 16:35:26.231
164	31100.79838	3215.968992	4468.314882	-1270.942541	-185302.8235	187500	11356.22845	6748.818666	0.636	-0.706	0.364	192	0	0	0	0	0	0	0	0	0	1.66E+09	0	 2022-09-19 16:35:26.235
165	31104.97816	3224.149731	4462.77165	-1269.154402	-185181.3865	187500	11350.84168	6741.889625	0.636	-0.706	0.364	192	0	0	0	0	0	0	0	0	0	1.66E+09	0	 2022-09-19 16:35:26.240
166	31081.66529	3209.330524	4441.202216	-1264.237018	-185138.6276	187500	11342.37037	6739.028602	0.636	-0.706	0.364	192	0	0	0	0	0	0	0	0	0	1.66E+09	0	 2022-09-19 16:35:26.243
167	31076.055	3205.038989	4435.502521	-1269.333216	-185180.0901	187500	11344.91847	6731.160787	0.636	-0.706	0.364	192	0	0	0	0	0	0	0	0	0	1.66E+09	0	 2022-09-19 16:35:26.247
168	31091.70122	3216.796007	4445.024365	-1268.059166	-185267.8877	187500	11351.57929	6738.067477	0.636	-0.706	0.364	192	0	0	0	0	0	0	0	0	0	1.66E+09	0	 2022-09-19 16:35:26.252
169	31118.74683	3238.968937	4460.491772	-1267.768594	-185302.3765	187500	11357.97189	6747.812837	0.636	-0.706	0.364	192	0	0	0	0	0	0	0	0	0	1.66E+09	0	 2022-09-19 16:35:26.258
170	31129.36391	3253.117592	4460.782344	-1273.535344	-185224.9053	187500	11353.59095	6745.220035	0.636	-0.706	0.364	192	0	0	0	0	0	0	0	0	0	1.66E+09	0	 2022-09-19 16:35:26.261
171	31101.6701	3236.174969	4435.882501	-1272.440108	-185150.3846	187500	11342.52683	6736.927538	0.636	-0.706	0.364	192	0	0	0	0	0	0	0	0	0	1.66E+09	0	 2022-09-19 16:35:26.265
172	31094.33873	3234.811513	4430.048696	-1280.442033	-185155.7267	187500	11341.16338	6732.837168	0.634	-0.708	0.364	192	19	208	233	224	11	96	0	0	0	1.66E+09	0	 2022-09-19 16:35:26.270
173	31101.84891	3245.205074	4435.502521	-1291.461443	-185237.7129	187500	11340.89516	6727.740971	0.634	-0.708	0.364	192	0	0	0	0	0	0	0	0	0	1.66E+09	0	 2022-09-19 16:35:26.273
174	31131.35322	3273.636493	4453.585083	-1289.338027	-185338.1393	187500	11350.19348	6741.979032	0.634	-0.708	0.364	192	0	0	0	0	0	0	0	0	0	1.66E+09	0	 2022-09-19 16:35:26.277
175	31143.64667	3291.204964	4454.099173	-1287.259315	-185224.5701	187500	11346.50544	6745.376497	0.634	-0.708	0.364	192	0	0	0	0	0	0	0	0	0	1.66E+09	0	 2022-09-19 16:35:26.280
176	31121.16082	3278.062138	4437.268309	-1283.928905	-185141.8016	187500	11336.87184	6735.206453	0.634	-0.708	0.364	192	0	0	0	0	0	0	0	0	0	1.66E+09	0	 2022-09-19 16:35:26.284
177	31111.9519	3271.490725	4430.451027	-1285.247658	-185161.9628	187500	11334.27904	6731.183139	0.634	-0.708	0.364	192	0	0	0	0	0	0	0	0	0	1.66E+09	0	 2022-09-19 16:35:26.288
178	31122.8819	3282.152508	4435.949556	-1297.071731	-185244.0384	187500	11336.9389	6722.488311	0.634	-0.708	0.364	192	0	0	0	0	0	0	0	0	0	1.66E+09	0	 2022-09-19 16:35:26.292
179	31144.45134	3305.912412	4449.9641	-1300.826824	-185305.7292	187500	11345.8796	6723.672953	0.634	-0.708	0.364	192	0	0	0	0	0	0	0	0	0	1.66E+09	0	 2022-09-19 16:35:26.296
180	31153.61555	3321.26806	4451.931054	-1292.646085	-185226.3806	187500	11350.77463	6736.793427	0.634	-0.708	0.364	192	0	0	0	0	0	0	0	0	0	1.66E+09	0	 2022-09-19 16:35:26.299
181	31130.88383	3307.924069	4430.071048	-1297.183489	-185140.0134	187500	11341.36454	6727.428046	0.634	-0.708	0.364	192	0	0	0	0	0	0	0	0	0	1.66E+09	0	 2022-09-19 16:35:26.304
182	31120.73614	3304.213679	4425.399533	-1292.981362	-185164.5333	187500	11344.0244	6725.818721	0.634	-0.708	0.366	192	19	208	233	224	11	112	0	0	0	1.66E+09	0	 2022-09-19 16:35:26.308
183	31129.56508	3314.808406	4430.451027	-1296.579992	-185245.8266	187500	11349.74645	6729.52911	0.634	-0.708	0.366	192	0	0	0	0	0	0	0	0	0	1.66E+09	0	 2022-09-19 16:35:26.312
184	31149.88281	3331.058124	4441.358679	-1299.865699	-185270.6817	187500	11358.30717	6737.329869	0.634	-0.708	0.366	192	0	0	0	0	0	0	0	0	0	1.66E+09	0	 2022-09-19 16:35:26.316
185	31163.20445	3342.502218	4442.342155	-1305.028952	-185230.8509	187500	11358.01659	6734.670011	0.634	-0.708	0.366	192	0	0	0	0	0	0	0	0	0	1.66E+09	0	 2022-09-19 16:35:26.320
186	31144.98778	3331.214587	4420.23628	-1311.600365	-185163.6839	187500	11344.65025	6716.833319	0.634	-0.708	0.366	192	0	0	0	0	0	0	0	0	0	1.66E+09	0	 2022-09-19 16:35:26.324
187	31133.05195	3325.336078	4409.909774	-1306.213594	-185167.6178	187500	11343.10798	6724.768189	0.634	-0.708	0.366	192	0	0	0	0	0	0	0	0	0	1.66E+09	0	 2022-09-19 16:35:26.327
188	31138.97516	3331.996898	4412.703742	-1305.431283	-185231.8344	187500	11347.95831	6723.24827	0.634	-0.708	0.366	192	0	0	0	0	0	0	0	0	0	1.66E+09	0	 2022-09-19 16:35:26.331
189	31156.07424	3347.240787	4424.505463	-1299.731588	-185290.9547	187500	11352.67453	6734.714715	0.634	-0.708	0.366	192	0	0	0	0	0	0	0	0	0	1.66E+09	0	 2022-09-19 16:35:26.336
190	31174.62619	3366.75386	4435.390763	-1293.450748	-185245.6478	187500	11357.4578	6744.571834	0.634	-0.708	0.366	192	0	0	0	0	0	0	0	0	0	1.66E+09	0	 2022-09-19 16:35:26.340
191	31157.92944	3360.763593	4418.336382	-1297.719931	-185150.2729	187500	11349.23236	6727.293936	0.634	-0.708	0.366	192	0	0	0	0	0	0	0	0	0	1.66E+09	0	 2022-09-19 16:35:26.346
192	31145.56892	3355.309767	4410.312105	-1300.513899	-185175.7539	187500	11348.42769	6718.442645	0.632	-0.712	0.372	192	19	192	233	192	11	160	0	0	0	1.66E+09	0	 2022-09-19 16:35:26.349
193	31156.81185	3366.642102	4419.521024	-1294.970667	-185253.5826	187500	11356.87665	6733.865349	0.632	-0.712	0.372	192	0	0	0	0	0	0	0	0	0	1.66E+09	0	 2022-09-19 16:35:26.352
194	31186.02558	3391.787814	4437.938862	-1307.286478	-185311.7866	187500	11367.49373	6731.96545	0.632	-0.712	0.372	192	0	0	0	0	0	0	0	0	0	1.66E+09	0	 2022-09-19 16:35:26.355
195	31199.88366	3406.137634	4443.996184	-1305.028952	-185215.5623	187500	11368.11958	6731.138436	0.632	-0.712	0.372	192	0	0	0	0	0	0	0	0	0	1.66E+09	0	 2022-09-19 16:35:26.359
196	31184.01393	3398.448634	4430.026344	-1298.658705	-185140.4157	187500	11354.79794	6725.125816	0.632	-0.712	0.372	192	0	0	0	0	0	0	0	0	0	1.66E+09	0	 2022-09-19 16:35:26.363
197	31170.33466	3389.03855	4419.252803	-1297.943449	-185168.0201	187500	11351.57929	6716.654505	0.632	-0.712	0.372	192	0	0	0	0	0	0	0	0	0	1.66E+09	0	 2022-09-19 16:35:26.367
198	31184.68448	3402.896631	4429.959289	-1297.094082	-185251.5039	187500	11362.41989	6721.549537	0.632	-0.712	0.372	192	0	0	0	0	0	0	0	0	0	1.66E+09	0	 2022-09-19 16:35:26.371
199	31205.56101	3421.113303	4442.766838	-1305.028952	-185301.1471	187500	11368.36545	6717.392113	0.632	-0.712	0.372	192	0	0	0	0	0	0	0	0	0	1.66E+09	0	 2022-09-19 16:35:26.375
200	31222.05659	3437.050097	4449.427658	-1303.196109	-185255.5272	187500	11369.43833	6723.360029	0.632	-0.712	0.372	192	0	0	0	0	0	0	0	0	0	1.66E+09	0	 2022-09-19 16:35:26.380
201	31209.13729	3434.032611	4436.061315	-1298.166966	-185147.9036	187500	11359.69297	6729.797331	0.632	-0.712	0.372	192	0	0	0	0	0	0	0	0	0	1.66E+09	0	 2022-09-19 16:35:26.384
202	31190.87591	3424.01903	4419.610431	-1302.19028	-185171.2835	187500	11352.69688	6718.777921	0.63	-0.712	0.368	192	19	176	233	192	11	128	0	0	0	1.66E+09	0	 2022-09-19 16:35:26.388
203	31195.16745	3427.505902	4419.006934	-1303.754902	-185236.9306	187500	11358.7095	6716.095712	0.63	-0.712	0.368	192	0	0	0	0	0	0	0	0	0	1.66E+09	0	 2022-09-19 16:35:26.391
204	31217.6533	3445.476704	4431.948594	-1300.200975	-185295.8721	187500	11368.79013	6726.288107	0.63	-0.712	0.368	192	0	0	0	0	0	0	0	0	0	1.66E+09	0	 2022-09-19 16:35:26.395
205	31240.16151	3466.68851	4440.643423	-1302.369094	-185287.8479	187500	11370.75709	6727.964488	0.63	-0.712	0.368	192	0	0	0	0	0	0	0	0	0	1.66E+09	0	 2022-09-19 16:35:26.399
206	31230.72907	3465.615626	4424.550167	-1299.888051	-185170.5682	187500	11359.89414	6719.850805	0.63	-0.712	0.368	192	0	0	0	0	0	0	0	0	0	1.66E+09	0	 2022-09-19 16:35:26.403
207	31212.06536	3456.987853	4410.75914	-1291.528498	-185152.9551	187500	11354.03798	6717.48152	0.63	-0.712	0.368	192	0	0	0	0	0	0	0	0	0	1.66E+09	0	 2022-09-19 16:35:26.408
208	31212.73592	3461.592312	4410.513271	-1299.932754	-185221.5749	187500	11351.17696	6716.45334	0.63	-0.712	0.368	192	0	0	0	0	0	0	0	0	0	1.66E+09	0	 2022-09-19 16:35:26.412
209	31236.47347	3482.714711	4426.38301	-1294.210707	-185311.7642	187500	11359.82708	6730.42318	0.63	-0.712	0.368	192	0	0	0	0	0	0	0	0	0	1.66E+09	0	 2022-09-19 16:35:26.416
210	31260.68041	3504.284144	4436.575405	-1298.21167	-185260.8469	187500	11364.36449	6729.842035	0.63	-0.712	0.368	192	0	0	0	0	0	0	0	0	0	1.66E+09	0	 2022-09-19 16:35:26.419
211	31244.85537	3495.254039	4419.029286	-1303.285516	-185166.4108	187500	11354.2615	6714.888718	0.63	-0.712	0.368	192	0	0	0	0	0	0	0	0	0	1.66E+09	0	 2022-09-19 16:35:26.423
212	31227.75629	3482.804118	4404.299486	-1294.769501	-185154.6762	187500	11352.54042	6713.234688	0.636	-0.712	0.372	192	19	224	233	192	11	160	0	0	0	1.66E+09	0	 2022-09-19 16:35:26.427
213	31232.56191	3488.481461	4406.713475	-1295.104777	-185230.0015	187500	11355.53555	6711.737122	0.636	-0.712	0.372	192	0	0	0	0	0	0	0	0	0	1.66E+09	0	 2022-09-19 16:35:26.431
214	31254.1984	3508.240403	4417.956402	-1293.584859	-185299.2472	187500	11363.93981	6717.883851	0.636	-0.712	0.372	192	0	0	0	0	0	0	0	0	0	1.66E+09	0	 2022-09-19 16:35:26.436
215	31278.69591	3532.089714	4429.512254	-1289.6286	-185276.0238	187500	11370.08654	6737.016945	0.636	-0.712	0.372	192	0	0	0	0	0	0	0	0	0	1.66E+09	0	 2022-09-19 16:35:26.440
216	31270.1799	3533.341412	4419.811597	-1291.93083	-185184.0464	187500	11358.7989	6731.049029	0.636	-0.712	0.372	192	0	0	0	0	0	0	0	0	0	1.66E+09	0	 2022-09-19 16:35:26.444
217	31250.62212	3522.612574	4406.579364	-1294.456577	-185153.8044	187500	11350.75228	6723.583546	0.636	-0.712	0.372	192	0	0	0	0	0	0	0	0	0	1.66E+09	0	 2022-09-19 16:35:26.447
218	31249.81746	3523.059609	4407.629896	-1298.010504	-185202.7771	187500	11355.73672	6725.215223	0.636	-0.712	0.372	192	0	0	0	0	0	0	0	0	0	1.66E+09	0	 2022-09-19 16:35:26.451
219	31268.9282	3538.862293	4421.756199	-1296.781158	-185286.6409	187500	11365.59383	6731.630174	0.636	-0.712	0.372	192	0	0	0	0	0	0	0	0	0	1.66E+09	0	 2022-09-19 16:35:26.455
220	31291.57052	3562.15281	4436.12837	-1296.535289	-185281.2764	187500	11367.71725	6743.297785	0.636	-0.712	0.372	192	0	0	0	0	0	0	0	0	0	1.66E+09	0	 2022-09-19 16:35:26.459
221	31280.43935	3561.50461	4426.338306	-1297.719931	-185177.0056	187500	11354.37326	6734.670011	0.636	-0.712	0.372	192	0	0	0	0	0	0	0	0	0	1.66E+09	0	 2022-09-19 16:35:26.463
222	31255.91949	3549.814647	4412.144948	-1299.709237	-185151.7704	187500	11348.91943	6726.645735	0.64	-0.71	0.364	192	20	0	233	208	11	96	0	0	0	1.66E+09	0	 2022-09-19 16:35:26.468
223	31248.49871	3548.428839	4409.194518	-1297.876394	-185193.4564	187500	11351.33342	6730.087904	0.64	-0.71	0.364	192	0	0	0	0	0	0	0	0	0	1.66E+09	0	 2022-09-19 16:35:26.472
224	31265.21781	3564.052709	4418.626954	-1303.531385	-185305.5504	187500	11356.49667	6734.357087	0.64	-0.71	0.364	192	0	0	0	0	0	0	0	0	0	1.66E+09	0	 2022-09-19 16:35:26.476
225	31294.90093	3591.210078	4434.742562	-1304.805434	-185332.2608	187500	11364.02921	6740.459113	0.64	-0.71	0.364	192	0	0	0	0	0	0	0	0	0	1.66E+09	0	 2022-09-19 16:35:26.480
226	31290.56469	3591.500651	4423.387876	-1297.652876	-185202.4195	187500	11356.56373	6739.542692	0.64	-0.71	0.364	192	0	0	0	0	0	0	0	0	0	1.66E+09	0	 2022-09-19 16:35:26.483
227	31271.05162	3578.603694	4406.26644	-1304.224289	-185148.6188	187500	11348.40534	6723.784712	0.64	-0.71	0.364	192	0	0	0	0	0	0	0	0	0	1.66E+09	0	 2022-09-19 16:35:26.487
228	31268.28	3576.413223	4403.517175	-1294.657742	-185192.0706	187500	11351.78046	6722.600069	0.64	-0.71	0.364	192	0	0	0	0	0	0	0	0	0	1.66E+09	0	 2022-09-19 16:35:26.491
229	31284.50737	3590.763043	4417.129388	-1288.935696	-185311.7419	187500	11358.03894	6738.447456	0.64	-0.71	0.364	192	0	0	0	0	0	0	0	0	0	1.66E+09	0	 2022-09-19 16:35:26.497
230	31314.14578	3616.266384	4435.927205	-1293.651914	-185304.3658	187500	11361.41406	6750.830323	0.64	-0.71	0.364	192	0	0	0	0	0	0	0	0	0	1.66E+09	0	 2022-09-19 16:35:26.500
231	31313.45288	3622.346058	4432.485036	-1301.005638	-185196.3622	187500	11354.77559	6745.220035	0.64	-0.71	0.364	192	0	0	0	0	0	0	0	0	0	1.66E+09	0	 2022-09-19 16:35:26.504
232	31290.22941	3610.142006	4417.218794	-1305.274821	-185149.647	187500	11348.02536	6735.474674	0.64	-0.71	0.366	192	20	0	233	208	11	112	0	0	0	1.66E+09	0	 2022-09-19 16:35:26.507
233	31282.92039	3606.521023	4415.274193	-1308.605231	-185206.1969	187500	11352.42866	6730.80316	0.64	-0.71	0.366	192	0	0	0	0	0	0	0	0	0	1.66E+09	0	 2022-09-19 16:35:26.511
234	31297.67255	3622.390762	4426.740638	-1311.734475	-185300.2084	187500	11363.06809	6731.741933	0.64	-0.71	0.366	192	0	0	0	0	0	0	0	0	0	1.66E+09	0	 2022-09-19 16:35:26.515
235	31319.84548	3646.083611	4442.990356	-1310.39337	-185299.8954	187500	11371.09236	6737.687497	0.64	-0.71	0.366	192	0	0	0	0	0	0	0	0	0	1.66E+09	0	 2022-09-19 16:35:26.519
236	31316.04568	3650.777477	4434.384934	-1313.813187	-185196.9657	187500	11362.37518	6731.764285	0.64	-0.71	0.366	192	0	0	0	0	0	0	0	0	0	1.66E+09	0	 2022-09-19 16:35:26.524
237	31291.05643	3638.819294	4414.022495	-1306.995905	-185159.0795	187500	11354.46267	6730.758456	0.64	-0.71	0.366	192	0	0	0	0	0	0	0	0	0	1.66E+09	0	 2022-09-19 16:35:26.527
238	31284.99911	3640.450971	4410.937954	-1304.87249	-185194.0599	187500	11358.12835	6731.518415	0.64	-0.71	0.366	192	0	0	0	0	0	0	0	0	0	1.66E+09	0	 2022-09-19 16:35:26.531
239	31302.36641	3656.633634	4422.203234	-1302.011466	-185303.9411	187500	11369.01365	6742.448418	0.64	-0.71	0.366	192	0	0	0	0	0	0	0	0	0	1.66E+09	0	 2022-09-19 16:35:26.535
240	31328.33914	3680.572352	4435.837798	-1304.805434	-185310.4678	187500	11375.40625	6745.555311	0.64	-0.71	0.366	192	0	0	0	0	0	0	0	0	0	1.66E+09	0	 2022-09-19 16:35:26.539
241	31329.94846	3687.344931	4428.573481	-1307.44294	-185202.8665	187500	11368.83484	6734.625308	0.64	-0.71	0.366	192	0	0	0	0	0	0	0	0	0	1.66E+09	0	 2022-09-19 16:35:26.543
242	31308.6249	3673.263332	4410.937954	-1308.962859	-185144.3944	187500	11361.45876	6718.420293	0.644	-0.712	0.362	192	20	32	233	192	11	80	0	0	0	1.66E+09	0	 2022-09-19 16:35:26.547
243	31304.69099	3672.346911	4406.154681	-1314.908423	-185204.4311	187500	11362.86692	6718.263831	0.644	-0.712	0.362	192	0	0	0	0	0	0	0	0	0	1.66E+09	0	 2022-09-19 16:35:26.552
244	31320.44897	3685.959123	4412.659039	-1305.051304	-185278.8848	187500	11370.08654	6733.999459	0.644	-0.712	0.362	192	0	0	0	0	0	0	0	0	0	1.66E+09	0	 2022-09-19 16:35:26.555
245	31341.2808	3702.767635	4421.622088	-1313.343801	-185301.3036	187500	11377.84259	6734.826474	0.644	-0.712	0.362	192	0	0	0	0	0	0	0	0	0	1.66E+09	0	 2022-09-19 16:35:26.560
246	31344.36534	3709.11553	4416.0118	-1314.684905	-185205.5487	187500	11378.40138	6732.211319	0.644	-0.712	0.362	192	0	0	0	0	0	0	0	0	0	1.66E+09	0	 2022-09-19 16:35:26.563
247	31322.0136	3694.877469	4396.65519	-1309.901632	-185152.7092	187500	11375.65212	6723.158863	0.644	-0.712	0.362	192	0	0	0	0	0	0	0	0	0	1.66E+09	0	 2022-09-19 16:35:26.567
248	31313.27406	3688.328408	4392.453062	-1305.297173	-185189.7237	187500	11381.32946	6727.338639	0.644	-0.712	0.362	192	0	0	0	0	0	0	0	0	0	1.66E+09	0	 2022-09-19 16:35:26.571
249	31320.96306	3693.245792	4401.773739	-1309.186376	-185249.1123	187500	11387.40914	6728.612689	0.644	-0.712	0.362	192	0	0	0	0	0	0	0	0	0	1.66E+09	0	 2022-09-19 16:35:26.575
250	31341.929	3710.411931	4411.630858	-1313.924946	-185312.4348	187500	11391.07482	6729.037372	0.644	-0.712	0.362	192	0	0	0	0	0	0	0	0	0	1.66E+09	0	 2022-09-19 16:35:26.580
251	31344.00771	3715.888109	4407.898117	-1307.107664	-185214.6682	187500	11383.36347	6734.26768	0.644	-0.712	0.362	192	0	0	0	0	0	0	0	0	0	1.66E+09	0	 2022-09-19 16:35:26.583
252	31320.62779	3701.761806	4391.626047	-1306.03478	-185146.1154	187500	11373.55106	6723.024753	0.638	-0.706	0.368	192	19	240	233	240	11	128	0	0	0	1.66E+09	0	 2022-09-19 16:35:26.586
253	31309.54132	3693.536364	4387.423919	-1304.023123	-185161.9628	187500	11377.3285	6722.823587	0.638	-0.706	0.368	192	0	0	0	0	0	0	0	0	0	1.66E+09	0	 2022-09-19 16:35:26.591
254	31318.2138	3699.616039	4396.65519	-1307.666458	-185264.2221	187500	11380.23423	6726.466921	0.638	-0.706	0.368	192	0	0	0	0	0	0	0	0	0	1.66E+09	0	 2022-09-19 16:35:26.595
255	31341.9737	3722.012487	4413.754274	-1307.152367	-185304.9469	187500	11390.85131	6733.708886	0.638	-0.706	0.368	192	0	0	0	0	0	0	0	0	0	1.66E+09	0	 2022-09-19 16:35:26.599
0	31347.60634	3732.786028	4414.581289	-1306.168891	-185212.9695	187500	11390.69484	6730.244366	0.638	-0.706	0.368	192	0	0	0	0	0	0	0	0	0	1.66E+09	0	 2022-09-19 16:35:26.603
1	31327.98151	3721.856024	4397.906887	-1307.174719	-185143.6567	187500	11382.67057	6720.320191	0.638	-0.706	0.368	192	0	0	0	0	0	0	0	0	0	1.66E+09	0	 2022-09-19 16:35:26.608
2	31314.9728	3712.31183	4388.474451	-1309.678115	-185169.2271	187500	11384.3246	6724.947003	0.638	-0.706	0.368	192	0	0	0	0	0	0	0	0	0	1.66E+09	0	 2022-09-19 16:35:26.611
3	31323.3994	3717.56449	4393.749463	-1316.808321	-185263.2162	187500	11388.19145	6720.878985	0.638	-0.706	0.368	192	0	0	0	0	0	0	0	0	0	1.66E+09	0	 2022-09-19 16:35:26.614
4	31346.4664	3736.563472	4409.574498	-1307.711161	-185296.3862	187500	11400.48491	6732.948927	0.638	-0.706	0.368	192	0	0	0	0	0	0	0	0	0	1.66E+09	0	 2022-09-19 16:35:26.619
5	31353.88718	3746.286481	4411.65321	-1305.364228	-185220.1444	187500	11398.89793	6733.440665	0.638	-0.706	0.368	192	0	0	0	0	0	0	0	0	0	1.66E+09	0	 2022-09-19 16:35:26.623
6	31332.13894	3734.328298	4396.677541	-1306.03478	-185159.8841	187500	11387.63265	6723.136511	0.638	-0.706	0.368	192	0	0	0	0	0	0	0	0	0	1.66E+09	0	 2022-09-19 16:35:26.627
7	31322.08065	3728.628603	4390.150832	-1308.672286	-185201.4584	187500	11386.55977	6716.900375	0.638	-0.706	0.356	192	19	240	233	240	11	32	0	0	0	1.66E+09	0	 2022-09-19 16:35:26.631
8	31332.60832	3738.485722	4396.386969	-1308.381713	-185259.2153	187500	11390.78425	6720.633116	0.638	-0.706	0.356	192	0	0	0	0	0	0	0	0	0	1.66E+09	0	 2022-09-19 16:35:26.636
9	31354.53538	3758.177609	4410.222698	-1303.754902	-185323.5883	187500	11398.62971	6740.704982	0.638	-0.706	0.356	192	0	0	0	0	0	0	0	0	0	1.66E+09	0	 2022-09-19 16:35:26.639
10	31367.27588	3774.159107	4417.062332	-1305.207766	-185241.1104	187500	11399.0991	6738.045125	0.638	-0.706	0.356	192	0	0	0	0	0	0	0	0	0	1.66E+09	0	 2022-09-19 16:35:26.644
11	31346.57816	3763.877304	4400.589097	-1309.409894	-185162.9687	187500	11386.76094	6718.956735	0.638	-0.706	0.356	192	0	0	0	0	0	0	0	0	0	1.66E+09	0	 2022-09-19 16:35:26.648
12	31332.09423	3757.015319	4394.844698	-1304.11253	-185194.3282	187500	11388.63848	6718.599107	0.638	-0.706	0.356	192	0	0	0	0	0	0	0	0	0	1.66E+09	0	 2022-09-19 16:35:26.651
13	31342.59955	3771.365138	4402.511347	-1310.326315	-185275.2191	187500	11390.98542	6717.772093	0.638	-0.706	0.356	192	0	0	0	0	0	0	0	0	0	1.66E+09	0	 2022-09-19 16:35:26.655
14	31360.05626	3789.671217	4418.626954	-1305.923022	-185317.9557	187500	11400.57431	6729.01502	0.638	-0.706	0.356	192	0	0	0	0	0	0	0	0	0	1.66E+09	0	 2022-09-19 16:35:26.659
15	31370.04749	3806.23386	4428.081742	-1303.46433	-185242.5185	187500	11394.94168	6736.927538	0.638	-0.706	0.356	192	0	0	0	0	0	0	0	0	0	1.66E+09	0	 2022-09-19 16:35:26.662
16	31348.79099	3798.522508	4413.19548	-1301.475024	-185145.7355	187500	11378.98253	6729.640869	0.638	-0.706	0.356	192	0	0	0	0	0	0	0	0	0	1.66E+09	0	 2022-09-19 16:35:26.666
17	31334.21765	3790.319418	4404.210079	-1301.095045	-185194.2834	187500	11377.88729	6721.191909	0.636	-0.71	0.36	192	19	224	233	208	11	64	0	0	0	1.66E+09	0	 2022-09-19 16:35:26.670
18	31336.76575	3793.269848	4408.635725	-1311.175681	-185243.5243	187500	11386.04568	6721.929517	0.636	-0.71	0.36	192	0	0	0	0	0	0	0	0	0	1.66E+09	0	 2022-09-19 16:35:26.674
19	31354.87066	3810.435988	4422.650268	-1310.728647	-185303.2929	187500	11396.17102	6731.540767	0.636	-0.71	0.36	192	0	0	0	0	0	0	0	0	0	1.66E+09	0	 2022-09-19 16:35:26.679
20	31372.97557	3829.591433	4432.708553	-1304.157234	-185263.395	187500	11395.56752	6736.167578	0.636	-0.71	0.36	192	0	0	0	0	0	0	0	0	0	1.66E+09	0	 2022-09-19 16:35:26.683
21	31353.4178	3821.656563	4414.447178	-1309.208728	-185155.9055	187500	11376.90382	6721.750703	0.636	-0.71	0.36	192	0	0	0	0	0	0	0	0	0	1.66E+09	0	 2022-09-19 16:35:26.687
22	31332.00483	3810.145415	4401.125538	-1314.930775	-185163.4604	187500	11373.77457	6712.094749	0.636	-0.71	0.36	192	0	0	0	0	0	0	0	0	0	1.66E+09	0	 2022-09-19 16:35:26.690
23	31331.22251	3812.89468	4408.725132	-1309.186376	-185244.1949	187500	11386.89505	6714.821662	0.636	-0.71	0.36	192	0	0	0	0	0	0	0	0	0	1.66E+09	0	 2022-09-19 16:35:26.694
24	31352.94841	3831.960718	4426.695934	-1301.452673	-185333.1995	187500	11396.10397	6734.692363	0.636	-0.71	0.36	192	0	0	0	0	0	0	0	0	0	1.66E+09	0	 2022-09-19 16:35:26.698
25	31366.60533	3848.165732	4435.010783	-1308.202899	-185267.2395	187500	11390.22546	6734.446494	0.636	-0.71	0.36	192	0	0	0	0	0	0	0	0	0	1.66E+09	0	 2022-09-19 16:35:26.702
26	31343.47127	3835.984032	4417.732885	-1310.505129	-185165.6509	187500	11373.57341	6720.275488	0.636	-0.71	0.36	192	0	0	0	0	0	0	0	0	0	1.66E+09	0	 2022-09-19 16:35:26.707
27	31325.45576	3823.15413	4402.868975	-1312.628545	-185171.6858	187500	11368.41015	6713.100578	0.636	-0.71	0.362	192	19	224	233	208	11	80	0	0	0	1.66E+09	0	 2022-09-19 16:35:26.711
28	31332.51892	3832.452456	4410.960306	-1309.499301	-185257.5836	187500	11374.04279	6721.527186	0.636	-0.71	0.362	192	0	0	0	0	0	0	0	0	0	1.66E+09	0	 2022-09-19 16:35:26.715
29	31349.05921	3849.864465	4426.248899	-1308.113493	-185294.151	187500	11379.67543	6735.854654	0.636	-0.71	0.362	192	0	0	0	0	0	0	0	0	0	1.66E+09	0	 2022-09-19 16:35:26.718
30	31366.44886	3869.15402	4437.827103	-1308.024086	-185252.5321	187500	11382.93879	6738.648622	0.636	-0.71	0.362	192	0	0	0	0	0	0	0	0	0	1.66E+09	0	 2022-09-19 16:35:26.722
31	31350.84735	3862.068517	4423.611393	-1307.867623	-185178.1008	187500	11368.11958	6729.350296	0.636	-0.71	0.362	192	0	0	0	0	0	0	0	0	0	1.66E+09	0	 2022-09-19 16:35:26.728
32	31327.95916	3845.327061	4408.725132	-1311.376847	-185160.3311	187500	11363.78334	6718.88968	0.636	-0.71	0.362	192	0	0	0	0	0	0	0	0	0	1.66E+09	0	 2022-09-19 16:35:26.731
33	31330.4402	3847.204607	4414.447178	-1312.025048	-185233.6225	187500	11374.53453	6722.130683	0.636	-0.71	0.362	192	0	0	0	0	0	0	0	0	0	1.66E+09	0	 2022-09-19 16:35:26.735
34	31352.99311	3866.963549	4429.087571	-1315.981307	-185323.4318	187500	11385.59865	6731.697229	0.636	-0.71	0.362	192	0	0	0	0	0	0	0	0	0	1.66E+09	0	 2022-09-19 16:35:26.739
35	31372.70735	3887.057768	4439.97287	-1319.177606	-185301.2589	187500	11385.0622	6732.948927	0.636	-0.71	0.362	192	0	0	0	0	0	0	0	0	0	1.66E+09	0	 2022-09-19 16:35:26.743
36	31360.03391	3884.286151	4426.561824	-1327.179531	-185177.4302	187500	11372.41112	6710.8207	0.636	-0.71	0.362	192	0	0	0	0	0	0	0	0	0	1.66E+09	0	 2022-09-19 16:35:26.746
37	31341.63843	3874.943122	4415.765931	-1309.722818	-185157.3584	187500	11366.66672	6716.922726	0.64	-0.7	0.36	192	20	0	234	32	11	64	0	0	0	1.66E+09	0	 2022-09-19 16:35:26.750
38	31341.30315	3879.771099	4421.510329	-1313.544966	-185262.0763	187500	11366.59966	6709.233726	0.64	-0.7	0.36	192	0	0	0	0	0	0	0	0	0	1.66E+09	0	 2022-09-19 16:35:26.754
39	31358.84927	3894.858527	4433.937899	-1309.432245	-185312.5242	187500	11378.60255	6717.034485	0.64	-0.7	0.36	192	0	0	0	0	0	0	0	0	0	1.66E+09	0	 2022-09-19 16:35:26.758
40	31382.13979	3919.803073	4446.052545	-1305.0066	-185290.396	187500	11380.68126	6722.510662	0.64	-0.7	0.36	192	0	0	0	0	0	0	0	0	0	1.66E+09	0	 2022-09-19 16:35:26.762
41	31366.18064	3915.153911	4434.362582	-1299.686885	-185174.1669	187500	11371.74056	6716.788616	0.64	-0.7	0.36	192	0	0	0	0	0	0	0	0	0	1.66E+09	0	 2022-09-19 16:35:26.767
42	31338.66564	3898.770082	4419.632783	-1300.580955	-185147.3671	187500	11365.16915	6705.43393	0.64	-0.7	0.36	192	0	0	0	0	0	0	0	0	0	1.66E+09	0	 2022-09-19 16:35:26.771
43	31334.86585	3898.390102	4422.963193	-1300.13392	-185224.5924	187500	11369.39363	6709.92663	0.64	-0.7	0.36	192	0	0	0	0	0	0	0	0	0	1.66E+09	0	 2022-09-19 16:35:26.774
44	31350.33326	3912.538756	4438.251786	-1298.435187	-185290.9994	187500	11380.79302	6726.511625	0.64	-0.7	0.36	192	0	0	0	0	0	0	0	0	0	1.66E+09	0	 2022-09-19 16:35:26.778
45	31370.67334	3930.576614	4448.287719	-1305.475987	-185285.7021	187500	11382.08942	6721.996572	0.64	-0.7	0.36	192	0	0	0	0	0	0	0	0	0	1.66E+09	0	 2022-09-19 16:35:26.783
46	31358.5587	3924.809864	4435.457818	-1307.107664	-185165.785	187500	11369.05835	6708.89845	0.64	-0.7	0.36	192	0	0	0	0	0	0	0	0	0	1.66E+09	0	 2022-09-19 16:35:26.786
47	31334.24	3908.046056	4424.013725	-1306.079484	-185159.6382	187500	11363.00103	6703.422273	0.646	-0.702	0.358	192	20	48	234	16	11	48	0	0	0	1.66E+09	0	 2022-09-19 16:35:26.790
48	31331.06605	3903.396893	4426.00303	-1304.537213	-185226.2017	187500	11365.70559	6707.333828	0.646	-0.702	0.358	192	0	0	0	0	0	0	0	0	0	1.66E+09	0	 2022-09-19 16:35:26.795
49	31352.97076	3920.026591	4442.2751	-1301.117396	-185317.218	187500	11380.30128	6716.676857	0.646	-0.702	0.358	192	0	0	0	0	0	0	0	0	0	1.66E+09	0	 2022-09-19 16:35:26.799
50	31375.34486	3939.807885	4454.993243	-1302.123225	-185279.7789	187500	11387.20797	6717.526223	0.646	-0.702	0.358	192	0	0	0	0	0	0	0	0	0	1.66E+09	0	 2022-09-19 16:35:26.802
51	31366.85119	3936.343364	4447.170132	-1300.960934	-185188.9414	187500	11374.0875	6707.512642	0.646	-0.702	0.358	192	0	0	0	0	0	0	0	0	0	1.66E+09	0	 2022-09-19 16:35:26.806
52	31345.34882	3921.367695	4431.814484	-1306.03478	-185153.0445	187500	11363.15749	6692.425214	0.646	-0.702	0.358	192	0	0	0	0	0	0	0	0	0	1.66E+09	0	 2022-09-19 16:35:26.811
53	31336.16225	3914.528062	4430.093399	-1303.59844	-185214.02	187500	11360.96702	6697.722578	0.646	-0.702	0.358	192	0	0	0	0	0	0	0	0	0	1.66E+09	0	 2022-09-19 16:35:26.816
54	31350.93675	3929.526082	4441.537492	-1301.743245	-185300.3872	187500	11366.4879	6706.417406	0.646	-0.702	0.358	192	0	0	0	0	0	0	0	0	0	1.66E+09	0	 2022-09-19 16:35:26.821
55	31377.133	3952.43662	4455.797905	-1298.412835	-185294.9334	187500	11372.16525	6716.654505	0.646	-0.702	0.358	192	0	0	0	0	0	0	0	0	0	1.66E+09	0	 2022-09-19 16:35:26.825
56	31370.24866	3949.016803	4445.784324	-1299.575126	-185192.6071	187500	11360.56469	6706.752683	0.646	-0.702	0.358	192	0	0	0	0	0	0	0	0	0	1.66E+09	0	 2022-09-19 16:35:26.828
57	31348.47806	3937.326841	4428.908757	-1303.352571	-185161.7617	187500	11348.15947	6690.927647	0.646	-0.702	0.368	192	20	48	234	16	11	128	0	0	0	1.66E+09	0	 2022-09-19 16:35:26.832
58	31340.6773	3933.862321	4430.249862	-1300.223327	-185202.3971	187500	11356.34021	6696.761453	0.646	-0.702	0.368	192	0	0	0	0	0	0	0	0	0	1.66E+09	0	 2022-09-19 16:35:26.835
59	31349.05921	3944.255882	4444.286757	-1298.658705	-185299.1802	187500	11367.98547	6704.361046	0.646	-0.702	0.368	192	0	0	0	0	0	0	0	0	0	1.66E+09	0	 2022-09-19 16:35:26.839
60	31372.26032	3967.077013	4458.368356	-1296.267068	-185314.2676	187500	11377.14969	6715.022828	0.646	-0.702	0.368	192	0	0	0	0	0	0	0	0	0	1.66E+09	0	 2022-09-19 16:35:26.843
61	31361.71029	3963.679548	4446.656042	-1294.88126	-185175.7539	187500	11371.36058	6709.144319	0.646	-0.702	0.368	192	0	0	0	0	0	0	0	0	0	1.66E+09	0	 2022-09-19 16:35:26.847
62	31334.15059	3945.284062	4428.349963	-1291.193222	-185154.7879	187500	11360.27412	6701.835299	0.646	-0.702	0.368	192	0	0	0	0	0	0	0	0	0	1.66E+09	0	 2022-09-19 16:35:26.852
63	31330.64137	3944.61351	4430.406324	-1283.794795	-185238.8305	187500	11367.20316	6704.092825	0.646	-0.702	0.368	192	0	0	0	0	0	0	0	0	0	1.66E+09	0	 2022-09-19 16:35:26.855
64	31342.5772	3953.397745	4437.245958	-1288.846289	-185264.602	187500	11373.41695	6706.909145	0.646	-0.702	0.368	192	0	0	0	0	0	0	0	0	0	1.66E+09	0	 2022-09-19 16:35:26.858
65	31367.47704	3975.257751	4449.07003	-1298.234021	-185317.1286	187500	11377.10498	6712.094749	0.646	-0.702	0.368	192	0	0	0	0	0	0	0	0	0	1.66E+09	0	 2022-09-19 16:35:26.863
66	31358.53635	3975.213048	4438.743524	-1299.441016	-185172.3564	187500	11362.46459	6704.852784	0.646	-0.702	0.368	192	0	0	0	0	0	0	0	0	0	1.66E+09	0	 2022-09-19 16:35:26.867
67	31329.88141	3956.951673	4420.549204	-1300.580955	-185137.0183	187500	11348.53945	6694.302761	0.642	-0.706	0.368	192	20	16	233	240	11	128	0	0	0	1.66E+09	0	 2022-09-19 16:35:26.871
68	31320.56073	3950.782591	4415.721228	-1298.591649	-185197.435	187500	11345.25375	6699.376607	0.642	-0.706	0.368	192	0	0	0	0	0	0	0	0	0	1.66E+09	0	 2022-09-19 16:35:26.875
69	31331.46838	3959.812696	4423.454931	-1299.999809	-185275.6662	187500	11347.2207	6703.042293	0.642	-0.706	0.368	192	0	0	0	0	0	0	0	0	0	1.66E+09	0	 2022-09-19 16:35:26.879
70	31355.89884	3980.085728	4436.754219	-1302.011466	-185285.3668	187500	11349.85821	6710.507776	0.642	-0.706	0.368	192	0	0	0	0	0	0	0	0	0	1.66E+09	0	 2022-09-19 16:35:26.884
71	31351.85317	3980.421004	4430.473379	-1304.291344	-185181.9453	187500	11341.31984	6702.036464	0.642	-0.706	0.368	192	0	0	0	0	0	0	0	0	0	1.66E+09	0	 2022-09-19 16:35:26.888
72	31328.40619	3966.249998	4413.284887	-1308.068789	-185151.2787	187500	11333.31792	6686.099671	0.642	-0.706	0.368	192	0	0	0	0	0	0	0	0	0	1.66E+09	0	 2022-09-19 16:35:26.891
73	31322.95237	3963.165458	4410.781492	-1312.539138	-185205.2582	187500	11335.19546	6687.88781	0.642	-0.706	0.368	192	0	0	0	0	0	0	0	0	0	1.66E+09	0	 2022-09-19 16:35:26.895
74	31325.79104	3966.339405	4417.732885	-1309.923984	-185246.4301	187500	11346.05841	6699.778938	0.642	-0.706	0.368	192	0	0	0	0	0	0	0	0	0	1.66E+09	0	 2022-09-19 16:35:26.899
75	31340.69965	3980.063376	4429.892234	-1312.896766	-185301.1695	187500	11356.1614	6704.271639	0.642	-0.706	0.368	192	0	0	0	0	0	0	0	0	0	1.66E+09	0	 2022-09-19 16:35:26.903
76	31338.55389	3979.504583	4422.091475	-1315.444865	-185195.3787	187500	11349.61234	6693.721616	0.642	-0.706	0.368	192	0	0	0	0	0	0	0	0	0	1.66E+09	0	 2022-09-19 16:35:26.908
77	31313.96697	3963.768955	4404.947687	-1311.019219	-185155.9055	187500	11340.33636	6690.637075	0.636	-0.71	0.37	192	19	224	233	208	11	144	0	0	0	1.66E+09	0	 2022-09-19 16:35:26.911
78	31304.66864	3960.930283	4402.332533	-1306.995905	-185206.1969	187500	11345.03023	6692.916953	0.636	-0.71	0.37	192	0	0	0	0	0	0	0	0	0	1.66E+09	0	 2022-09-19 16:35:26.914
79	31313.85521	3969.692167	4408.926297	-1307.241774	-185262.568	187500	11352.74158	6701.455319	0.636	-0.71	0.37	192	0	0	0	0	0	0	0	0	0	1.66E+09	0	 2022-09-19 16:35:26.919
80	31339.67147	3989.540516	4423.834911	-1310.616888	-185318.4697	187500	11361.74933	6709.770168	0.636	-0.71	0.37	192	0	0	0	0	0	0	0	0	0	1.66E+09	0	 2022-09-19 16:35:26.923
81	31344.83473	3996.00017	4424.505463	-1307.934679	-185218.2892	187500	11357.77072	6710.396017	0.636	-0.71	0.37	192	0	0	0	0	0	0	0	0	0	1.66E+09	0	 2022-09-19 16:35:26.927
82	31320.44897	3982.611475	4407.540489	-1314.148464	-185156.509	187500	11346.12547	6694.906258	0.636	-0.71	0.37	192	0	0	0	0	0	0	0	0	0	1.66E+09	0	 2022-09-19 16:35:26.931
83	31305.87564	3974.073109	4401.90785	-1308.113493	-185164.4215	187500	11347.10894	6701.880002	0.636	-0.71	0.37	192	0	0	0	0	0	0	0	0	0	1.66E+09	0	 2022-09-19 16:35:26.935
84	31312.20118	3977.001187	4404.4783	-1311.868586	-185254.2085	187500	11352.18279	6704.204584	0.636	-0.71	0.37	192	0	0	0	0	0	0	0	0	0	1.66E+09	0	 2022-09-19 16:35:26.939
85	31330.66372	3990.479289	4412.010838	-1324.497321	-185302.6447	187500	11353.16626	6698.504889	0.636	-0.71	0.37	192	0	0	0	0	0	0	0	0	0	1.66E+09	0	 2022-09-19 16:35:26.942
86	31336.87751	3998.905897	4409.842719	-1332.700411	-185244.0608	187500	11349.00884	6685.026787	0.636	-0.71	0.37	192	0	0	0	0	0	0	0	0	0	1.66E+09	0	 2022-09-19 16:35:26.946
87	31309.60838	3980.823336	4389.413224	-1328.051249	-185156.1514	187500	11344.60555	6670.431098	0.628	-0.706	0.374	192	19	160	233	240	11	176	0	0	0	1.66E+09	0	 2022-09-19 16:35:26.951
88	31294.72212	3969.289836	4384.22762	-1329.951147	-185180.2242	187500	11349.90291	6659.299929	0.628	-0.706	0.374	192	0	0	0	0	0	0	0	0	0	1.66E+09	0	 2022-09-19 16:35:26.955
89	31301.20412	3973.44726	4395.649361	-1323.357382	-185257.226	187500	11359.51416	6679.885886	0.628	-0.706	0.374	192	0	0	0	0	0	0	0	0	0	1.66E+09	0	 2022-09-19 16:35:26.959
90	31319.91253	3986.858307	4408.725132	-1327.626565	-185316.7263	187500	11366.51026	6682.903371	0.628	-0.706	0.374	192	0	0	0	0	0	0	0	0	0	1.66E+09	0	 2022-09-19 16:35:26.962
91	31328.4509	3997.40833	4410.75914	-1335.069696	-185229.398	187500	11366.26439	6674.141487	0.628	-0.706	0.374	192	0	0	0	0	0	0	0	0	0	1.66E+09	0	 2022-09-19 16:35:26.966
92	31303.37224	3982.767938	4391.648399	-1334.60031	-185144.5061	187500	11352.9651	6663.993795	0.628	-0.706	0.374	192	0	0	0	0	0	0	0	0	0	1.66E+09	0	 2022-09-19 16:35:26.970
93	31287.77072	3973.156687	4381.478355	-1338.467161	-185191.4001	187500	11346.66191	6654.226083	0.628	-0.706	0.374	192	0	0	0	0	0	0	0	0	0	1.66E+09	0	 2022-09-19 16:35:26.974
94	31288.97772	3974.050757	4385.993407	-1333.527426	-185246.1618	187500	11353.85917	6662.473877	0.628	-0.706	0.374	192	0	0	0	0	0	0	0	0	0	1.66E+09	0	 2022-09-19 16:35:26.979
95	31309.36251	3992.245077	4399.918544	-1338.511865	-185329.2433	187500	11361.9058	6666.161915	0.628	-0.706	0.374	192	0	0	0	0	0	0	0	0	0	1.66E+09	0	 2022-09-19 16:35:26.983
96	31317.58795	4003.622115	4398.733902	-1350.984138	-185228.2134	187500	11355.20027	6653.399069	0.628	-0.706	0.374	192	0	0	0	0	0	0	0	0	0	1.66E+09	0	 2022-09-19 16:35:26.987
97	31293.62688	3992.15567	4379.466698	-1349.799496	-185159.5041	187500	11341.85628	6647.833484	0.628	-0.706	0.374	192	0	0	0	0	0	0	0	0	0	1.66E+09	0	 2022-09-19 16:35:26.990
98	31271.16338	3976.531801	4367.620274	-1347.653728	-185184.8287	187500	11340.89516	6643.16197	0.632	-0.708	0.37	192	19	192	233	224	11	144	0	0	0	1.66E+09	0	 2022-09-19 16:35:26.994
99	31273.95734	3981.359778	4373.007044	-1358.583731	-185253.0685	187500	11347.73479	6640.591519	0.632	-0.708	0.37	192	0	0	0	0	0	0	0	0	0	1.66E+09	0	 2022-09-19 16:35:26.998
100	31291.54817	3996.536612	4384.74171	-1366.965636	-185311.876	187500	11355.40144	6642.469065	0.632	-0.708	0.37	192	0	0	0	0	0	0	0	0	0	1.66E+09	0	 2022-09-19 16:35:27.002
101	31303.88633	4008.740665	4389.390873	-1356.795592	-185260.5117	187500	11357.59191	6649.979252	0.632	-0.708	0.37	192	0	0	0	0	0	0	0	0	0	1.66E+09	0	 2022-09-19 16:35:27.007
102	31282.11573	3994.793176	4368.559047	-1362.785859	-185169.2495	187500	11342.61624	6643.921929	0.632	-0.708	0.37	192	0	0	0	0	0	0	0	0	0	1.66E+09	0	 2022-09-19 16:35:27.011
103	31264.79313	3981.985626	4355.773849	-1368.843182	-185161.2029	187500	11342.63859	6630.175606	0.632	-0.708	0.37	192	0	0	0	0	0	0	0	0	0	1.66E+09	0	 2022-09-19 16:35:27.015
104	31264.59196	3983.349083	4358.366651	-1365.602179	-185239.0987	187500	11352.00397	6632.500187	0.632	-0.708	0.37	192	0	0	0	0	0	0	0	0	0	1.66E+09	0	 2022-09-19 16:35:27.018
105	31280.61816	3996.402502	4369.520172	-1363.210543	-185291.7818	187500	11365.23621	6645.508903	0.632	-0.708	0.37	192	0	0	0	0	0	0	0	0	0	1.66E+09	0	 2022-09-19 16:35:27.022
106	31291.48111	4005.767883	4371.867105	-1364.171668	-185250.811	187500	11367.0467	6648.191112	0.632	-0.708	0.37	192	0	0	0	0	0	0	0	0	0	1.66E+09	0	 2022-09-19 16:35:27.026
107	31269.68816	3991.373359	4351.705831	-1373.358235	-185156.7325	187500	11350.55111	6629.952089	0.632	-0.708	0.37	192	0	0	0	0	0	0	0	0	0	1.66E+09	0	 2022-09-19 16:35:27.030
108	31249.45983	3978.208182	4340.127628	-1380.980179	-185178.2796	187500	11341.34219	6617.882147	0.642	-0.714	0.368	192	20	16	233	176	11	128	0	0	0	1.66E+09	0	 2022-09-19 16:35:27.034
109	31247.7164	3979.906914	4345.715564	-1379.728482	-185227.1405	187500	11342.86211	6622.66542	0.642	-0.714	0.368	192	0	0	0	0	0	0	0	0	0	1.66E+09	0	 2022-09-19 16:35:27.039
110	31261.03804	3991.015731	4359.50659	-1383.103595	-185313.6194	187500	11345.3208	6635.517673	0.642	-0.714	0.368	192	0	0	0	0	0	0	0	0	0	1.66E+09	0	 2022-09-19 16:35:27.043
111	31275.70078	4005.61142	4368.961378	-1379.795537	-185258.5894	187500	11344.89612	6642.469065	0.642	-0.714	0.368	192	0	0	0	0	0	0	0	0	0	1.66E+09	0	 2022-09-19 16:35:27.046
112	31258.80286	3997.453034	4356.623215	-1378.208563	-185162.1863	187500	11338.79409	6636.188225	0.642	-0.714	0.368	192	0	0	0	0	0	0	0	0	0	1.66E+09	0	 2022-09-19 16:35:27.050
113	31239.55801	3984.46667	4345.089715	-1380.957828	-185173.2952	187500	11331.64153	6630.846158	0.642	-0.714	0.368	192	0	0	0	0	0	0	0	0	0	1.66E+09	0	 2022-09-19 16:35:27.056
114	31231.1314	3977.80585	4344.083887	-1378.387377	-185212.4107	187500	11334.30139	6632.567243	0.642	-0.714	0.368	192	0	0	0	0	0	0	0	0	0	1.66E+09	0	 2022-09-19 16:35:27.059
115	31247.91756	3993.630885	4357.785506	-1380.264924	-185316.9945	187500	11344.13616	6634.914176	0.642	-0.714	0.368	192	0	0	0	0	0	0	0	0	0	1.66E+09	0	 2022-09-19 16:35:27.062
116	31266.9389	4013.747455	4368.112012	-1381.807194	-185279.8459	187500	11344.6726	6645.575958	0.642	-0.714	0.368	192	0	0	0	0	0	0	0	0	0	1.66E+09	0	 2022-09-19 16:35:27.067
117	31248.54341	4005.164385	4356.690271	-1372.240647	-185170.2553	187500	11338.12354	6639.876263	0.642	-0.714	0.368	192	0	0	0	0	0	0	0	0	0	1.66E+09	0	 2022-09-19 16:35:27.072
118	31227.1975	3992.043911	4341.982823	-1376.331017	-185169.1824	187500	11335.86601	6625.459388	0.644	-0.708	0.368	192	20	32	233	224	11	128	0	0	0	1.66E+09	0	 2022-09-19 16:35:27.076
119	31222.83891	3988.869964	4341.535788	-1375.258133	-185220.9491	187500	11342.70565	6632.500187	0.644	-0.708	0.368	192	0	0	0	0	0	0	0	0	0	1.66E+09	0	 2022-09-19 16:35:27.079
120	31242.6649	4004.247964	4358.612521	-1365.132793	-185310.7584	187500	11357.92719	6653.354365	0.644	-0.708	0.368	192	0	0	0	0	0	0	0	0	0	1.66E+09	0	 2022-09-19 16:35:27.082
121	31258.6911	4018.106045	4373.588189	-1363.903447	-185265.4514	187500	11362.62105	6661.445697	0.644	-0.708	0.368	192	0	0	0	0	0	0	0	0	0	1.66E+09	0	 2022-09-19 16:35:27.086
122	31244.36364	4008.539499	4363.395794	-1360.975368	-185166.9026	187500	11349.83585	6650.828618	0.644	-0.708	0.368	192	0	0	0	0	0	0	0	0	0	1.66E+09	0	 2022-09-19 16:35:27.090
123	31223.10713	3992.379188	4353.22575	-1357.756717	-185154.9667	187500	11349.21001	6644.927757	0.644	-0.708	0.368	192	0	0	0	0	0	0	0	0	0	1.66E+09	0	 2022-09-19 16:35:27.095
124	31217.76506	3987.528859	4356.93614	-1353.264016	-185224.883	187500	11356.98841	6657.6459	0.644	-0.708	0.368	192	0	0	0	0	0	0	0	0	0	1.66E+09	0	 2022-09-19 16:35:27.099
125	31232.40545	3998.212993	4371.621236	-1348.123115	-185284.808	187500	11367.85136	6670.632263	0.644	-0.708	0.368	192	0	0	0	0	0	0	0	0	0	1.66E+09	0	 2022-09-19 16:35:27.102
126	31254.95836	4018.754246	4384.518192	-1350.671214	-185311.4513	187500	11368.09723	6673.694452	0.644	-0.708	0.368	192	0	0	0	0	0	0	0	0	0	1.66E+09	0	 2022-09-19 16:35:27.106
127	31245.72709	4016.362609	4375.443384	-1348.167819	-185178.6149	187500	11359.02242	6671.369871	0.644	-0.708	0.368	192	0	0	0	0	0	0	0	0	0	1.66E+09	0	 2022-09-19 16:35:27.110
128	31224.22471	4002.839804	4364.11105	-1340.143542	-185167.6849	187500	11360.0059	6669.000586	0.646	-0.712	0.368	192	20	48	233	192	11	128	0	0	0	1.66E+09	0	 2022-09-19 16:35:27.114
129	31213.40647	3994.949638	4364.043994	-1340.411763	-185204.0512	187500	11366.62201	6668.352386	0.646	-0.712	0.368	192	0	0	0	0	0	0	0	0	0	1.66E+09	0	 2022-09-19 16:35:27.118
130	31226.79516	4005.499662	4379.421995	-1337.506036	-185307.3609	187500	11380.61421	6688.893639	0.646	-0.712	0.368	192	0	0	0	0	0	0	0	0	0	1.66E+09	0	 2022-09-19 16:35:27.123
131	31249.72805	4025.97386	4395.448195	-1346.558493	-185281.1647	187500	11385.73276	6689.653598	0.646	-0.712	0.368	192	0	0	0	0	0	0	0	0	0	1.66E+09	0	 2022-09-19 16:35:27.127
132	31236.31701	4017.971935	4385.993407	-1350.850028	-185180.7606	187500	11377.35085	6676.846048	0.646	-0.712	0.368	192	0	0	0	0	0	0	0	0	0	1.66E+09	0	 2022-09-19 16:35:27.130
133	31217.6533	4005.164385	4375.175163	-1343.809228	-185155.5032	187500	11374.10985	6674.275598	0.646	-0.712	0.368	192	0	0	0	0	0	0	0	0	0	1.66E+09	0	 2022-09-19 16:35:27.134
134	31214.03232	4002.638638	4375.488088	-1342.758696	-185212.746	187500	11378.96018	6676.421365	0.646	-0.712	0.368	192	0	0	0	0	0	0	0	0	0	1.66E+09	0	 2022-09-19 16:35:27.138
135	31225.92345	4010.886432	4390.307294	-1339.361231	-185294.3075	187500	11390.56073	6689.094804	0.646	-0.712	0.368	192	0	0	0	0	0	0	0	0	0	1.66E+09	0	 2022-09-19 16:35:27.142
136	31246.68822	4029.639546	4402.93603	-1346.044403	-185297.392	187500	11391.81243	6686.367892	0.646	-0.712	0.368	192	0	0	0	0	0	0	0	0	0	1.66E+09	0	 2022-09-19 16:35:27.146
137	31238.88746	4026.823226	4393.190669	-1345.351499	-185195.1775	187500	11382.93879	6679.617665	0.646	-0.712	0.368	192	0	0	0	0	0	0	0	0	0	1.66E+09	0	 2022-09-19 16:35:27.151
138	31209.00318	4001.409292	4377.343282	-1337.014298	-185147.3001	187500	11380.12247	6678.500078	0.638	-0.718	0.37	192	19	240	233	144	11	144	0	0	0	1.66E+09	0	 2022-09-19 16:35:27.154
139	31203.32583	3996.670723	4378.483221	-1339.85297	-185198.7091	187500	11388.79495	6673.381528	0.638	-0.718	0.37	192	0	0	0	0	0	0	0	0	0	1.66E+09	0	 2022-09-19 16:35:27.157
140	31218.97205	4010.305287	4389.703797	-1339.942377	-185267.2395	187500	11400.95429	6671.839258	0.638	-0.718	0.37	192	0	0	0	0	0	0	0	0	0	1.66E+09	0	 2022-09-19 16:35:27.162
141	31239.20038	4028.141979	4402.645457	-1340.545874	-185297.0568	187500	11406.69869	6679.461203	0.638	-0.718	0.37	192	0	0	0	0	0	0	0	0	0	1.66E+09	0	 2022-09-19 16:35:27.166
142	31231.7349	4027.717296	4397.012818	-1339.137714	-185177.7208	187500	11400.70843	6674.968502	0.638	-0.718	0.37	192	0	0	0	0	0	0	0	0	0	1.66E+09	0	 2022-09-19 16:35:27.170
143	31208.69025	4013.792159	4383.735881	-1334.913234	-185157.2243	187500	11394.78521	6670.274636	0.638	-0.718	0.37	192	0	0	0	0	0	0	0	0	0	1.66E+09	0	 2022-09-19 16:35:27.174
144	31197.29086	4007.198394	4381.903038	-1336.924891	-185230.538	187500	11396.43924	6678.209505	0.638	-0.718	0.37	192	0	0	0	0	0	0	0	0	0	1.66E+09	0	 2022-09-19 16:35:27.179
145	31204.1752	4014.999153	4392.05073	-1340.814095	-185265.8761	187500	11399.23321	6678.723595	0.638	-0.718	0.37	192	0	0	0	0	0	0	0	0	0	1.66E+09	0	 2022-09-19 16:35:27.182
146	31223.01772	4029.147807	4405.484129	-1338.757734	-185280.4271	187500	11406.29636	6688.245438	0.638	-0.718	0.37	192	0	0	0	0	0	0	0	0	0	1.66E+09	0	 2022-09-19 16:35:27.185
147	31215.23931	4025.057438	4393.369483	-1345.23974	-185195.9151	187500	11395.70163	6672.800383	0.638	-0.718	0.37	192	0	0	0	0	0	0	0	0	0	1.66E+09	0	 2022-09-19 16:35:27.190
148	31187.36669	4006.036103	4373.610541	-1346.536141	-185142.7627	187500	11384.414	6661.400993	0.638	-0.714	0.364	192	19	240	233	176	11	96	0	0	0	1.66E+09	0	 2022-09-19 16:35:27.194
149	31176.32492	3995.329618	4371.397718	-1342.512827	-185184.784	187500	11382.80468	6669.268807	0.638	-0.714	0.364	192	0	0	0	0	0	0	0	0	0	1.66E+09	0	 2022-09-19 16:35:27.198
150	31185.57855	4000.671685	4381.232486	-1342.356365	-185271.2629	187500	11384.65987	6678.455374	0.638	-0.714	0.364	192	0	0	0	0	0	0	0	0	0	1.66E+09	0	 2022-09-19 16:35:27.202
151	31211.93125	4023.604575	4398.219812	-1344.233912	-185305.7516	187500	11389.62196	6681.182287	0.638	-0.714	0.364	192	0	0	0	0	0	0	0	0	0	1.66E+09	0	 2022-09-19 16:35:27.206
152	31210.16547	4026.197377	4395.38114	-1339.025955	-185193.2329	187500	11383.25171	6679.260037	0.638	-0.714	0.364	192	0	0	0	0	0	0	0	0	0	1.66E+09	0	 2022-09-19 16:35:27.210
153	31181.19761	4004.091502	4376.53862	-1342.088144	-185138.4264	187500	11376.54619	6666.005452	0.638	-0.714	0.364	192	0	0	0	0	0	0	0	0	0	1.66E+09	0	 2022-09-19 16:35:27.215
154	31171.11697	3997.050702	4375.041053	-1338.221292	-185192.8082	187500	11379.45192	6673.426232	0.638	-0.714	0.364	192	0	0	0	0	0	0	0	0	0	1.66E+09	0	 2022-09-19 16:35:27.218
155	31181.30936	4007.690133	4385.278152	-1336.455504	-185291.0889	187500	11387.18562	6677.024862	0.638	-0.714	0.364	192	0	0	0	0	0	0	0	0	0	1.66E+09	0	 2022-09-19 16:35:27.222
156	31203.54935	4027.806703	4398.443329	-1341.596406	-185299.6719	187500	11388.75024	6670.45345	0.638	-0.714	0.364	192	0	0	0	0	0	0	0	0	0	1.66E+09	0	 2022-09-19 16:35:27.227
157	31198.34139	4027.739647	4393.391835	-1342.065792	-185194.2834	187500	11379.20605	6669.939359	0.638	-0.714	0.364	192	0	0	0	0	0	0	0	0	0	1.66E+09	0	 2022-09-19 16:35:27.232
158	31167.29482	4008.852423	4379.10907	-1338.511865	-185146.7413	187500	11373.99809	6666.653653	0.64	-0.712	0.366	192	20	0	233	192	11	112	0	0	0	1.66E+09	0	 2022-09-19 16:35:27.235
159	31151.13451	4000.761092	4374.191686	-1340.791743	-185189.8578	187500	11375.56271	6661.892731	0.64	-0.712	0.366	192	0	0	0	0	0	0	0	0	0	1.66E+09	0	 2022-09-19 16:35:27.238
160	31154.46492	4009.075941	4384.317027	-1344.72565	-185267.776	187500	11383.05055	6666.944226	0.64	-0.712	0.366	192	0	0	0	0	0	0	0	0	0	1.66E+09	0	 2022-09-19 16:35:27.241
161	31172.74865	4025.392714	4399.024475	-1349.106592	-185306.1539	187500	11388.54908	6675.594351	0.64	-0.712	0.366	192	0	0	0	0	0	0	0	0	0	1.66E+09	0	 2022-09-19 16:35:27.245
162	31173.17333	4030.108932	4399.851489	-1349.061888	-185186.2815	187500	11378.35668	6671.794554	0.64	-0.712	0.366	192	0	0	0	0	0	0	0	0	0	1.66E+09	0	 2022-09-19 16:35:27.250
163	31144.49604	4012.719275	4383.177088	-1342.155199	-185146.4731	187500	11362.95633	6665.267845	0.64	-0.712	0.366	192	0	0	0	0	0	0	0	0	0	1.66E+09	0	 2022-09-19 16:35:27.254
164	31130.5262	4004.426778	4377.387986	-1344.368022	-185213.3718	187500	11364.05156	6660.998662	0.64	-0.712	0.366	192	0	0	0	0	0	0	0	0	0	1.66E+09	0	 2022-09-19 16:35:27.258
165	31134.92949	4009.053589	4387.334512	-1338.333051	-185252.845	187500	11372.52288	6669.827601	0.64	-0.712	0.366	192	0	0	0	0	0	0	0	0	0	1.66E+09	0	 2022-09-19 16:35:27.262
166	31152.87795	4022.665801	4405.551184	-1338.087182	-185301.0801	187500	11382.4247	6675.303778	0.64	-0.712	0.366	192	0	0	0	0	0	0	0	0	0	1.66E+09	0	 2022-09-19 16:35:27.266
167	31158.86821	4030.712429	4408.83689	-1351.699394	-185234.0919	187500	11378.84842	6660.328109	0.64	-0.712	0.366	192	0	0	0	0	0	0	0	0	0	1.66E+09	0	 2022-09-19 16:35:27.269
168	31134.9742	4017.815473	4393.123614	-1343.473952	-185153.715	187500	11371.33823	6657.444734	0.638	-0.712	0.37	192	19	240	233	192	11	144	0	0	0	1.66E+09	0	 2022-09-19 16:35:27.274
169	31116.95869	4003.711522	4388.899134	-1328.565339	-185170.6577	187500	11378.37903	6673.739156	0.638	-0.712	0.37	192	0	0	0	0	0	0	0	0	0	1.66E+09	0	 2022-09-19 16:35:27.278
170	31121.13847	4006.12551	4398.152756	-1331.515769	-185248.6652	187500	11387.43149	6677.002511	0.638	-0.712	0.37	192	0	0	0	0	0	0	0	0	0	1.66E+09	0	 2022-09-19 16:35:27.282
171	31145.34541	4026.599708	4414.648344	-1340.88115	-185338.8992	187500	11396.28278	6674.879095	0.638	-0.712	0.37	192	0	0	0	0	0	0	0	0	0	1.66E+09	0	 2022-09-19 16:35:27.286
172	31153.36968	4036.278014	4417.643478	-1333.32626	-185220.6362	187500	11392.41593	6692.201697	0.638	-0.712	0.37	192	0	0	0	0	0	0	0	0	0	1.66E+09	0	 2022-09-19 16:35:27.290
173	31124.11125	4019.156577	4399.158585	-1333.773295	-185137.5771	187500	11381.19535	6680.757604	0.638	-0.712	0.37	192	0	0	0	0	0	0	0	0	0	1.66E+09	0	 2022-09-19 16:35:27.293
174	31106.7663	4010.439397	4391.223716	-1329.526464	-185195.8928	187500	11381.68709	6676.667235	0.638	-0.712	0.37	192	0	0	0	0	0	0	0	0	0	1.66E+09	0	 2022-09-19 16:35:27.297
175	31110.90137	4017.279031	4399.471509	-1327.023068	-185261.0928	187500	11387.49854	6686.390243	0.638	-0.712	0.37	192	0	0	0	0	0	0	0	0	0	1.66E+09	0	 2022-09-19 16:35:27.301
176	31128.93923	4033.081714	4415.855338	-1328.118304	-185315.1393	187500	11394.58405	6692.380511	0.638	-0.712	0.37	192	0	0	0	0	0	0	0	0	0	1.66E+09	0	 2022-09-19 16:35:27.306
177	31139.35514	4045.285767	4422.873786	-1332.231025	-185246.8324	187500	11393.15354	6689.094804	0.638	-0.712	0.37	192	0	0	0	0	0	0	0	0	0	1.66E+09	0	 2022-09-19 16:35:27.310
