%OpenBCI Raw EEG Data
%Number of channels = 8
%Sample Rate = 250 Hz
%Board = OpenBCI_GUI$BoardCytonSerial
Sample Index, EXG Channel 0, EXG Channel 1, EXG Channel 2, EXG Channel 3, EXG Channel 4, EXG Channel 5, EXG Channel 6, EXG Channel 7, Accel Channel 0, Accel Channel 1, Accel Channel 2, Other, Other, Other, Other, Other, Other, Other, Analog Channel 0, Analog Channel 1, Analog Channel 2, Timestamp, Other, Timestamp (Formatted)
144.0, -1838.4086297045505, 8226.648953753585, -23628.185525916284, -45032.305423296144, -187500.02235174447, -187500.02235174447, 6877.430603197886, -19828.612485958634, 0.0, 0.0, 0.0, 192.0, 0.0, 0.0, 0.0, 0.0, 0.0, 0.0, 0.0, 0.0, 0.0, 1.6635907113089733E9, 0.0, 2022-09-19 17:31:51.308
145.0, -1540.3257656485755, 8301.639056401142, -23444.74475917158, -44890.193032049305, -187500.02235174447, -187500.02235174447, 6996.274828466753, -19636.476890620816, 0.0, 0.0, 0.0, 192.0, 0.0, 0.0, 0.0, 0.0, 0.0, 0.0, 0.0, 0.0, 0.0, 1.6635907113090377E9, 0.0, 2022-09-19 17:31:51.309
146.0, -1513.8165967245814, 8330.070475348291, -23835.38619701698, -44754.80851588351, -187500.02235174447, -187500.02235174447, 7138.566033669238, -20011.315645136314, 0.0, 0.0, 0.0, 192.0, 0.0, 0.0, 0.0, 0.0, 0.0, 0.0, 0.0, 0.0, 0.0, 1.663590711309064E9, 0.0, 2022-09-19 17:31:51.309
0.0, 0.0, 0.0, 0.0, 0.0, 0.0, 0.0, 0.0, 0.0, 0.618, -0.788, 0.17400000000000002, 192.0, 19.0, 80.0, 231.0, 96.0, 5.0, 112.0, 0.0, 0.0, 0.0, 1.6635907114044502E9, 0.0, 2022-09-19 17:31:51.404
1.0, -2325.766065808066, 9945.855730277985, -24437.765710087504, -45714.704181516674, -187500.02235174447, -187500.02235174447, 7715.8445377164535, -20928.988865493404, 0.618, -0.788, 0.17400000000000002, 192.0, 0.0, 0.0, 0.0, 0.0, 0.0, 0.0, 0.0, 0.0, 0.0, 1.6635907114204893E9, 0.0, 2022-09-19 17:31:51.420
2.0, -2656.19190409087, 9879.135773078891, -25194.93105351103, -45715.15121640578, -187500.02235174447, -187500.02235174447, 7709.496642291146, -21648.558574743103, 0.618, -0.788, 0.17400000000000002, 192.0, 0.0, 0.0, 0.0, 0.0, 0.0, 0.0, 0.0, 0.0, 0.0, 1.6635907114244835E9, 0.0, 2022-09-19 17:31:51.424
3.0, -2801.0312081612597, 9823.546984618544, -24667.184015176776, -45988.960085983286, -187500.02235174447, -187500.02235174447, 7518.545689409458, -21220.790889357435, 0.618, -0.788, 0.17400000000000002, 192.0, 0.0, 0.0, 0.0, 0.0, 0.0, 0.0, 0.0, 0.0, 0.0, 1.6635907114274762E9, 0.0, 2022-09-19 17:31:51.427
4.0, -2470.560666389545, 9883.360252780945, -23797.90232156543, -46060.373909518, -187500.02235174447, -187500.02235174447, 7495.679854831679, -20395.676242789777, 0.618, -0.788, 0.17400000000000002, 192.0, 0.0, 0.0, 0.0, 0.0, 0.0, 0.0, 0.0, 0.0, 0.0, 1.6635907114304545E9, 0.0, 2022-09-19 17:31:51.430
5.0, -2266.377480790315, 9952.516550125665, -23906.755317062776, -45863.49974435565, -187500.02235174447, -187500.02235174447, 7633.098379742906, -20445.408874202833, 0.618, -0.788, 0.17400000000000002, 192.0, 0.0, 0.0, 0.0, 0.0, 0.0, 0.0, 0.0, 0.0, 0.0, 1.6635907114345393E9, 0.0, 2022-09-19 17:31:51.434
6.0, -2335.913757790775, 9968.20747473329, -24442.01254153401, -45705.09293140089, -187500.02235174447, -187500.02235174447, 7730.14965416785, -20937.974266764435, 0.618, -0.788, 0.17400000000000002, 192.0, 0.0, 0.0, 0.0, 0.0, 0.0, 0.0, 0.0, 0.0, 0.0, 1.66359071143844E9, 0.0, 2022-09-19 17:31:51.438
7.0, -2676.5990467785655, 9897.53125876561, -25189.16430344156, -45713.586594293905, -187500.02235174447, -187500.02235174447, 7711.664761503311, -21673.056086666118, 0.618, -0.788, 0.17400000000000002, 192.0, 0.0, 0.0, 0.0, 0.0, 0.0, 0.0, 0.0, 0.0, 0.0, 1.6635907114435024E9, 0.0, 2022-09-19 17:31:51.443
8.0, -2799.846565705129, 9849.452656442245, -24616.98199713016, -45989.07184470557, -187500.02235174447, -187500.02235174447, 7516.690494619667, -21181.34006039382, 0.62, -0.786, 0.192, 192.0, 19.0, 96.0, 231.0, 112.0, 6.0, 0.0, 0.0, 0.0, 0.0, 1.6635907114474876E9, 0.0, 2022-09-19 17:31:51.447
9.0, -2462.134058729894, 9914.093901406992, -23774.03065848716, -46042.850141865034, -187500.02235174447, -187500.02235174447, 7502.452433401637, -20356.761855693087, 0.62, -0.786, 0.192, 192.0, 0.0, 0.0, 0.0, 0.0, 0.0, 0.0, 0.0, 0.0, 0.0, 1.6635907114505339E9, 0.0, 2022-09-19 17:31:51.450
10.0, -2264.634044722801, 9987.429974964854, -23902.463782127357, -45842.51145631212, -187500.02235174447, -187500.02235174447, 7639.781551335043, -20415.479888377176, 0.62, -0.786, 0.192, 192.0, 0.0, 0.0, 0.0, 0.0, 0.0, 0.0, 0.0, 0.0, 0.0, 1.6635907114545255E9, 0.0, 2022-09-19 17:31:51.454
11.0, -2339.9370717927304, 9999.343454759533, -24465.928908101192, -45692.41949229473, -187500.02235174447, -187500.02235174447, 7730.417875101313, -20929.793528293794, 0.62, -0.786, 0.192, 192.0, 0.0, 0.0, 0.0, 0.0, 0.0, 0.0, 0.0, 0.0, 0.0, 1.6635907114585347E9, 0.0, 2022-09-19 17:31:51.458
12.0, -2681.9187619589284, 9921.693494521796, -25194.30520466628, -45714.86064372786, -187500.02235174447, -187500.02235174447, 7702.0535113875285, -21638.321475782574, 0.62, -0.786, 0.192, 192.0, 0.0, 0.0, 0.0, 0.0, 0.0, 0.0, 0.0, 0.0, 0.0, 1.663590711462477E9, 0.0, 2022-09-19 17:31:51.462
13.0, -2785.4073387870003, 9874.352499765457, -24562.689609848218, -45991.86581276248, -187500.02235174447, -187500.02235174447, 7515.014113785519, -21120.632722453203, 0.62, -0.786, 0.192, 192.0, 0.0, 0.0, 0.0, 0.0, 0.0, 0.0, 0.0, 0.0, 0.0, 1.6635907114665687E9, 0.0, 2022-09-19 17:31:51.466
14.0, -2442.620985820411, 9941.340677898012, -23759.479672846755, -46034.892920838945, -187500.02235174447, -187500.02235174447, 7505.134642736273, -20334.320704259957, 0.62, -0.786, 0.192, 192.0, 0.0, 0.0, 0.0, 0.0, 0.0, 0.0, 0.0, 0.0, 0.0, 1.663590711470638E9, 0.0, 2022-09-19 17:31:51.470
15.0, -2258.330852786404, 10013.290943299646, -23914.958407277874, -45830.821493961994, -187500.02235174447, -187500.02235174447, 7636.22762396665, -20426.298132693548, 0.62, -0.786, 0.192, 192.0, 0.0, 0.0, 0.0, 0.0, 0.0, 0.0, 0.0, 0.0, 0.0, 1.6635907114756289E9, 0.0, 2022-09-19 17:31:51.475
16.0, -2343.334536949937, 10024.153891104925, -24490.89580665777, -45679.120204343824, -187500.02235174447, -187500.02235174447, 7729.188529156271, -20947.630220369127, 0.62, -0.786, 0.192, 192.0, 0.0, 0.0, 0.0, 0.0, 0.0, 0.0, 0.0, 0.0, 0.0, 1.6635907114785583E9, 0.0, 2022-09-19 17:31:51.478
17.0, -2686.165593405437, 9946.213358189269, -25194.729887810932, -45710.68086751472, -187500.02235174447, -187500.02235174447, 7697.851383429931, -21626.89973436591, 0.62, -0.786, 0.192, 192.0, 0.0, 0.0, 0.0, 0.0, 0.0, 0.0, 0.0, 0.0, 0.0, 1.6635907114826128E9, 0.0, 2022-09-19 17:31:51.482
18.0, -2775.483164248844, 9896.704244220764, -24521.361234350352, -45997.18552794284, -187500.02235174447, -187500.02235174447, 7507.079244503885, -21070.40835266213, 0.618, -0.78, 0.198, 192.0, 19.0, 80.0, 231.0, 160.0, 6.0, 48.0, 0.0, 0.0, 0.0, 1.6635907114866283E9, 0.0, 2022-09-19 17:31:51.486
19.0, -2423.2196716332046, 9960.786695574128, -23742.335884849537, -46030.64608939244, -187500.02235174447, -187500.02235174447, 7509.6943986051565, -20327.615180923367, 0.618, -0.78, 0.198, 192.0, 0.0, 0.0, 0.0, 0.0, 0.0, 0.0, 0.0, 0.0, 0.0, 1.6635907114906316E9, 0.0, 2022-09-19 17:31:51.490
20.0, -2239.957718844142, 10029.630068496475, -23918.847610813096, -45830.03918290605, -187500.02235174447, -187500.02235174447, 7642.03907752503, -20449.543946927064, 0.618, -0.78, 0.198, 192.0, 0.0, 0.0, 0.0, 0.0, 0.0, 0.0, 0.0, 0.0, 0.0, 1.6635907114945588E9, 0.0, 2022-09-19 17:31:51.494
21.0, -2344.3850689393366, 10037.833158711572, -24513.85104821337, -45682.56237298994, -187500.02235174447, -187500.02235174447, 7727.489796577668, -20989.785610411836, 0.618, -0.78, 0.198, 192.0, 0.0, 0.0, 0.0, 0.0, 0.0, 0.0, 0.0, 0.0, 0.0, 1.6635907114995904E9, 0.0, 2022-09-19 17:31:51.499
22.0, -2707.2656401712466, 9961.63606186343, -25203.961158270977, -45723.33195487642, -187500.02235174447, -187500.02235174447, 7678.070089586984, -21663.780112717166, 0.618, -0.78, 0.198, 192.0, 0.0, 0.0, 0.0, 0.0, 0.0, 0.0, 0.0, 0.0, 0.0, 1.6635907115025945E9, 0.0, 2022-09-19 17:31:51.502
23.0, -2775.6172747155756, 9924.196889900792, -24486.67132695572, -46007.064998992086, -187500.02235174447, -187500.02235174447, 7482.447622114137, -21064.75336131494, 0.618, -0.78, 0.198, 192.0, 0.0, 0.0, 0.0, 0.0, 0.0, 0.0, 0.0, 0.0, 0.0, 1.663590711505561E9, 0.0, 2022-09-19 17:31:51.505
24.0, -2421.498587310146, 9996.549486702621, -23739.6536755149, -46024.85698757851, -187500.02235174447, -187500.02235174447, 7494.204639697628, -20320.239105253113, 0.618, -0.78, 0.198, 192.0, 0.0, 0.0, 0.0, 0.0, 0.0, 0.0, 0.0, 0.0, 0.0, 1.6635907115105786E9, 0.0, 2022-09-19 17:31:51.510
25.0, -2250.127762571307, 10065.795191025161, -23921.440413169912, -45817.07517112198, -187500.02235174447, -187500.02235174447, 7636.294679200016, -20438.81510958852, 0.618, -0.78, 0.198, 192.0, 0.0, 0.0, 0.0, 0.0, 0.0, 0.0, 0.0, 0.0, 0.0, 1.6635907115146575E9, 0.0, 2022-09-19 17:31:51.514
26.0, -2359.584255168945, 10068.209179426334, -24538.527374092027, -45673.19699206317, -187500.02235174447, -187500.02235174447, 7722.840633730964, -21011.131526366655, 0.618, -0.78, 0.198, 192.0, 0.0, 0.0, 0.0, 0.0, 0.0, 0.0, 0.0, 0.0, 0.0, 1.6635907115186594E9, 0.0, 2022-09-19 17:31:51.518
27.0, -2716.0498757421824, 9988.16758253188, -25202.597701859202, -45727.064696200454, -187500.02235174447, -187500.02235174447, 7670.761069150099, -21671.357354087515, 0.618, -0.78, 0.198, 192.0, 0.0, 0.0, 0.0, 0.0, 0.0, 0.0, 0.0, 0.0, 0.0, 1.663590711522642E9, 0.0, 2022-09-19 17:31:51.522
28.0, -2761.714489664375, 9953.142398970414, -24444.605343890827, -46016.497435152225, -187500.02235174447, -187500.02235174447, 7480.6371308132575, -21025.369587584686, 0.624, -0.78, 0.196, 192.0, 19.0, 128.0, 231.0, 160.0, 6.0, 32.0, 0.0, 0.0, 0.0, 1.6635907115266414E9, 0.0, 2022-09-19 17:31:51.526
29.0, -2401.2255550891823, 10024.444463782844, -23727.60608525349, -46019.60432763152, -187500.02235174447, -187500.02235174447, 7507.101596248341, -20300.278997454527, 0.624, -0.78, 0.196, 192.0, 0.0, 0.0, 0.0, 0.0, 0.0, 0.0, 0.0, 0.0, 0.0, 1.663590711530749E9, 0.0, 2022-09-19 17:31:51.530
30.0, -2242.4834659675917, 10089.778612825707, -23941.26641050177, -45818.371572300384, -187500.02235174447, -187500.02235174447, 7635.17709197725, -20453.23198476219, 0.624, -0.78, 0.196, 192.0, 0.0, 0.0, 0.0, 0.0, 0.0, 0.0, 0.0, 0.0, 0.0, 1.6635907115337126E9, 0.0, 2022-09-19 17:31:51.533
31.0, -2365.105136049406, 10091.209124470846, -24573.641964631315, -45679.00844562155, -187500.02235174447, -187500.02235174447, 7717.789139484065, -21037.59599180174, 0.624, -0.78, 0.196, 192.0, 0.0, 0.0, 0.0, 0.0, 0.0, 0.0, 0.0, 0.0, 0.0, 1.6635907115386727E9, 0.0, 2022-09-19 17:31:51.538
32.0, -2732.5231114057437, 10004.305542028611, -25195.22162618895, -45738.95582425068, -187500.02235174447, -187500.02235174447, 7664.033194069051, -21646.770435186678, 0.624, -0.78, 0.196, 192.0, 0.0, 0.0, 0.0, 0.0, 0.0, 0.0, 0.0, 0.0, 0.0, 1.6635907115426955E9, 0.0, 2022-09-19 17:31:51.542
33.0, -2759.2334460298357, 9972.029623035149, -24402.651119548216, -46022.33124045506, -187500.02235174447, -187500.02235174447, 7473.372813865282, -20956.682676873526, 0.624, -0.78, 0.196, 192.0, 0.0, 0.0, 0.0, 0.0, 0.0, 0.0, 0.0, 0.0, 0.0, 1.6635907115467024E9, 0.0, 2022-09-19 17:31:51.546
34.0, -2400.599706244434, 10046.41622858241, -23721.660521228376, -46016.519786896686, -187500.02235174447, -187500.02235174447, 7509.24736371605, -20295.026337507526, 0.624, -0.78, 0.196, 192.0, 0.0, 0.0, 0.0, 0.0, 0.0, 0.0, 0.0, 0.0, 0.0, 1.6635907115506966E9, 0.0, 2022-09-19 17:31:51.550
35.0, -2255.6262917073122, 10118.210031772856, -23941.624038413054, -45813.52124375358, -187500.02235174447, -187500.02235174447, 7647.828179338954, -20457.679981908797, 0.624, -0.78, 0.196, 192.0, 0.0, 0.0, 0.0, 0.0, 0.0, 0.0, 0.0, 0.0, 0.0, 1.6635907115556917E9, 0.0, 2022-09-19 17:31:51.555
36.0, -2393.402444529825, 10120.780482385217, -24591.746877640115, -45677.577933976405, -187500.02235174447, -187500.02235174447, 7726.752189010644, -21052.862233264714, 0.624, -0.78, 0.196, 192.0, 0.0, 0.0, 0.0, 0.0, 0.0, 0.0, 0.0, 0.0, 0.0, 1.6635907115587797E9, 0.0, 2022-09-19 17:31:51.558
37.0, -2758.384079740534, 10032.379333064477, -25194.12639071064, -45751.830429056936, -187500.02235174447, -187500.02235174447, 7658.668775399778, -21656.85107193602, 0.624, -0.78, 0.196, 192.0, 0.0, 0.0, 0.0, 0.0, 0.0, 0.0, 0.0, 0.0, 0.0, 1.6635907115617993E9, 0.0, 2022-09-19 17:31:51.561
38.0, -2764.329643765646, 9996.281265769156, -24360.87570916125, -46038.69271739635, -187500.02235174447, -187500.02235174447, 7471.7187847755895, -20934.465042884953, 0.62, -0.776, 0.20600000000000002, 192.0, 19.0, 96.0, 231.0, 192.0, 6.0, 112.0, 0.0, 0.0, 0.0, 1.6635907115667624E9, 0.0, 2022-09-19 17:31:51.566
39.0, -2403.6395434903557, 10059.156722921934, -23720.632340983433, -46019.24669972023, -187500.02235174447, -187500.02235174447, 7509.493232905059, -20298.11087824236, 0.62, -0.776, 0.20600000000000002, 192.0, 0.0, 0.0, 0.0, 0.0, 0.0, 0.0, 0.0, 0.0, 0.0, 1.6635907115707233E9, 0.0, 2022-09-19 17:31:51.570
40.0, -2259.7390126870887, 10118.053569561669, -23954.900974619508, -45810.25788906311, -187500.02235174447, -187500.02235174447, 7645.235376982138, -20475.3825635174, 0.62, -0.776, 0.20600000000000002, 192.0, 0.0, 0.0, 0.0, 0.0, 0.0, 0.0, 0.0, 0.0, 0.0, 1.663590711574751E9, 0.0, 2022-09-19 17:31:51.574
41.0, -2402.0749213784843, 10115.483118949309, -24619.19481983123, -45668.88310538329, -187500.02235174447, -187500.02235174447, 7725.768712254609, -21087.395678448163, 0.62, -0.776, 0.20600000000000002, 192.0, 0.0, 0.0, 0.0, 0.0, 0.0, 0.0, 0.0, 0.0, 0.0, 1.663590711578718E9, 0.0, 2022-09-19 17:31:51.578
42.0, -2767.905922878495, 10032.021705153193, -25192.02532673184, -45752.76920232406, -187500.02235174447, -187500.02235174447, 7649.638670639833, -21657.94630741433, 0.62, -0.776, 0.20600000000000002, 192.0, 0.0, 0.0, 0.0, 0.0, 0.0, 0.0, 0.0, 0.0, 0.0, 1.6635907115826995E9, 0.0, 2022-09-19 17:31:51.582
43.0, -2760.0381088302265, 10011.547507232131, -24321.737804620007, -46037.0163365622, -187500.02235174447, -187500.02235174447, 7461.459334070603, -20907.195914649477, 0.62, -0.776, 0.20600000000000002, 192.0, 0.0, 0.0, 0.0, 0.0, 0.0, 0.0, 0.0, 0.0, 0.0, 1.6635907115867536E9, 0.0, 2022-09-19 17:31:51.586
44.0, -2399.8173951884983, 10089.37628142551, -23706.617797209954, -46003.82399604607, -187500.02235174447, -187500.02235174447, 7514.388264940771, -20291.271244439038, 0.62, -0.776, 0.20600000000000002, 192.0, 0.0, 0.0, 0.0, 0.0, 0.0, 0.0, 0.0, 0.0, 0.0, 1.6635907115897737E9, 0.0, 2022-09-19 17:31:51.589
45.0, -2266.444536023681, 10146.14971234199, -23968.714352692885, -45803.08297909296, -187500.02235174447, -187500.02235174447, 7641.837911824931, -20486.066697367038, 0.62, -0.776, 0.20600000000000002, 192.0, 0.0, 0.0, 0.0, 0.0, 0.0, 0.0, 0.0, 0.0, 0.0, 1.6635907115937705E9, 0.0, 2022-09-19 17:31:51.593
46.0, -2420.403351831836, 10131.308154023667, -24652.49891906964, -45673.37580601881, -187500.02235174447, -187500.02235174447, 7717.297401106049, -21119.42572825262, 0.62, -0.776, 0.20600000000000002, 192.0, 0.0, 0.0, 0.0, 0.0, 0.0, 0.0, 0.0, 0.0, 0.0, 1.6635907115988045E9, 0.0, 2022-09-19 17:31:51.598
47.0, -2780.6911207069306, 10044.89630995945, -25180.827102759733, -45765.06266177448, -187500.02235174447, -187500.02235174447, 7635.042981510518, -21646.457510764303, 0.62, -0.776, 0.20600000000000002, 192.0, 0.0, 0.0, 0.0, 0.0, 0.0, 0.0, 0.0, 0.0, 0.0, 1.6635907116028032E9, 0.0, 2022-09-19 17:31:51.602
48.0, -2751.298576748202, 10022.298696315134, -24274.843844752773, -46046.135848299964, -187500.02235174447, -187500.02235174447, 7454.597348522824, -20852.076512822692, 0.612, -0.776, 0.20800000000000002, 192.0, 19.0, 32.0, 231.0, 192.0, 6.0, 128.0, 0.0, 0.0, 0.0, 1.6635907116067948E9, 0.0, 2022-09-19 17:31:51.606
49.0, -2393.849479418931, 10095.2324384728, -23701.096916329494, -46004.02516174617, -187500.02235174447, -187500.02235174447, 7513.069512017908, -20294.132267729317, 0.612, -0.776, 0.20800000000000002, 192.0, 0.0, 0.0, 0.0, 0.0, 0.0, 0.0, 0.0, 0.0, 0.0, 1.6635907116107965E9, 0.0, 2022-09-19 17:31:51.610
50.0, -2272.1889343486946, 10157.616157247563, -23970.94952713842, -45799.707865680204, -187500.02235174447, -187500.02235174447, 7642.84374032542, -20502.562284775053, 0.612, -0.776, 0.20800000000000002, 192.0, 0.0, 0.0, 0.0, 0.0, 0.0, 0.0, 0.0, 0.0, 0.0, 1.6635907116148353E9, 0.0, 2022-09-19 17:31:51.614
51.0, -2434.9319857277856, 10147.759037942773, -24666.8710907544, -45662.28934076898, -187500.02235174447, -187500.02235174447, 7719.107892406928, -21125.863030655746, 0.612, -0.776, 0.20800000000000002, 192.0, 0.0, 0.0, 0.0, 0.0, 0.0, 0.0, 0.0, 0.0, 0.0, 1.663590711617874E9, 0.0, 2022-09-19 17:31:51.617
52.0, -2798.4607575488994, 10061.704821789841, -25162.74454149539, -45767.6554641313, -187500.02235174447, -187500.02235174447, 7627.711609329178, -21626.29623726562, 0.612, -0.776, 0.20800000000000002, 192.0, 0.0, 0.0, 0.0, 0.0, 0.0, 0.0, 0.0, 0.0, 0.0, 1.6635907116218584E9, 0.0, 2022-09-19 17:31:51.621
53.0, -2753.1761232824474, 10042.32585934709, -24233.090786110257, -46048.05809832312, -187500.02235174447, -187500.02235174447, 7448.8082467089, -20814.525582137776, 0.612, -0.776, 0.20800000000000002, 192.0, 0.0, 0.0, 0.0, 0.0, 0.0, 0.0, 0.0, 0.0, 0.0, 1.6635907116268785E9, 0.0, 2022-09-19 17:31:51.626
54.0, -2394.6094387304115, 10114.745511382283, -23705.880189642932, -45996.67143782037, -187500.02235174447, -187500.02235174447, 7507.414520670715, -20278.35193614387, 0.612, -0.776, 0.20800000000000002, 192.0, 0.0, 0.0, 0.0, 0.0, 0.0, 0.0, 0.0, 0.0, 0.0, 1.6635907116309052E9, 0.0, 2022-09-19 17:31:51.630
55.0, -2284.9741321771303, 10170.423706820453, -23985.634623245554, -45796.288048778544, -187500.02235174447, -187500.02235174447, 7631.064370997474, -20505.40095632088, 0.612, -0.776, 0.20800000000000002, 192.0, 0.0, 0.0, 0.0, 0.0, 0.0, 0.0, 0.0, 0.0, 0.0, 1.663590711634951E9, 0.0, 2022-09-19 17:31:51.634
56.0, -2456.635529593889, 10157.884378181026, -24696.196579479765, -45669.77717516151, -187500.02235174447, -187500.02235174447, 7705.518031778101, -21159.748275249993, 0.612, -0.776, 0.20800000000000002, 192.0, 0.0, 0.0, 0.0, 0.0, 0.0, 0.0, 0.0, 0.0, 0.0, 1.6635907116388268E9, 0.0, 2022-09-19 17:31:51.638
57.0, -2814.419903089989, 10076.814601041628, -25138.02351212782, -45784.598086428414, -187500.02235174447, -187500.02235174447, 7613.250030666594, -21618.94251333982, 0.612, -0.776, 0.20800000000000002, 192.0, 0.0, 0.0, 0.0, 0.0, 0.0, 0.0, 0.0, 0.0, 0.0, 1.6635907116428761E9, 0.0, 2022-09-19 17:31:51.642
58.0, -2746.381192968034, 10064.118810191014, -24184.4086866866, -46054.58480770407, -187500.02235174447, -187500.02235174447, 7438.168816348174, -20773.510131062285, 0.618, -0.78, 0.20800000000000002, 192.0, 19.0, 80.0, 231.0, 160.0, 6.0, 128.0, 0.0, 0.0, 0.0, 1.6635907116458468E9, 0.0, 2022-09-19 17:31:51.645
59.0, -2388.552115983023, 10142.52872974023, -23691.820942380542, -45984.86971674797, -187500.02235174447, -187500.02235174447, 7512.600125384346, -20263.95741271465, 0.618, -0.78, 0.20800000000000002, 192.0, 0.0, 0.0, 0.0, 0.0, 0.0, 0.0, 0.0, 0.0, 0.0, 1.6635907116498103E9, 0.0, 2022-09-19 17:31:51.649
60.0, -2289.511536301558, 10200.352692646109, -23990.59671051463, -45783.16757478328, -187500.02235174447, -187500.02235174447, 7639.356868190393, -20496.86258993895, 0.618, -0.78, 0.20800000000000002, 192.0, 0.0, 0.0, 0.0, 0.0, 0.0, 0.0, 0.0, 0.0, 0.0, 1.6635907116550033E9, 0.0, 2022-09-19 17:31:51.655
61.0, -2474.628683880411, 10183.34301511562, -24718.391861723885, -45660.523552957005, -187500.02235174447, -187500.02235174447, 7711.463595803213, -21175.72977253554, 0.618, -0.78, 0.20800000000000002, 192.0, 0.0, 0.0, 0.0, 0.0, 0.0, 0.0, 0.0, 0.0, 0.0, 1.6635907116589015E9, 0.0, 2022-09-19 17:31:51.658
62.0, -2826.6910107959525, 10097.199391984868, -25129.574552723712, -45793.73994991064, -187500.02235174447, -187500.02235174447, 7604.957533473675, -21617.199077272307, 0.618, -0.78, 0.20800000000000002, 192.0, 0.0, 0.0, 0.0, 0.0, 0.0, 0.0, 0.0, 0.0, 0.0, 1.6635907116628723E9, 0.0, 2022-09-19 17:31:51.662
63.0, -2732.6125183835647, 10089.219819214322, -24148.48943334692, -46066.96767413231, -187500.02235174447, -187500.02235174447, 7436.112455858285, -20754.086465130626, 0.618, -0.78, 0.20800000000000002, 192.0, 0.0, 0.0, 0.0, 0.0, 0.0, 0.0, 0.0, 0.0, 0.0, 1.6635907116668682E9, 0.0, 2022-09-19 17:31:51.666
64.0, -2377.890333877842, 10167.20505561889, -23693.49732321469, -45986.4566906043, -187500.02235174447, -187500.02235174447, 7512.510718406525, -20265.745552271077, 0.618, -0.78, 0.20800000000000002, 192.0, 0.0, 0.0, 0.0, 0.0, 0.0, 0.0, 0.0, 0.0, 0.0, 1.6635907116709712E9, 0.0, 2022-09-19 17:31:51.670
65.0, -2284.5270972880244, 10222.637381868051, -24003.963053698906, -45788.64375217483, -187500.02235174447, -187500.02235174447, 7636.27232745556, -20536.69339855831, 0.618, -0.78, 0.20800000000000002, 192.0, 0.0, 0.0, 0.0, 0.0, 0.0, 0.0, 0.0, 0.0, 0.0, 1.663590711673859E9, 0.0, 2022-09-19 17:31:51.673
66.0, -2472.0358815235954, 10205.940628759936, -24755.831033686525, -45673.532268229996, -187500.02235174447, -187500.02235174447, 7696.510278762613, -21216.454650933105, 0.618, -0.78, 0.20800000000000002, 192.0, 0.0, 0.0, 0.0, 0.0, 0.0, 0.0, 0.0, 0.0, 0.0, 1.6635907116778584E9, 0.0, 2022-09-19 17:31:51.677
67.0, -2830.17788293098, 10120.400502729477, -25109.078003058195, -45813.767112942594, -187500.02235174447, -187500.02235174447, 7588.573704787935, -21592.79097232711, 0.618, -0.78, 0.20800000000000002, 192.0, 0.0, 0.0, 0.0, 0.0, 0.0, 0.0, 0.0, 0.0, 0.0, 1.6635907116829443E9, 0.0, 2022-09-19 17:31:51.682
68.0, -2731.807855583174, 10113.67262764843, -24101.90839790206, -46072.13092710149, -187500.02235174447, -187500.02235174447, 7429.786912177434, -20702.744508116783, 0.614, -0.78, 0.202, 192.0, 19.0, 48.0, 231.0, 160.0, 6.0, 80.0, 0.0, 0.0, 0.0, 1.6635907116869507E9, 0.0, 2022-09-19 17:31:51.686
69.0, -2382.0030548576183, 10190.003834963303, -23691.26214876916, -45980.153498667896, -187500.02235174447, -187500.02235174447, 7512.0413317729635, -20255.173177143715, 0.614, -0.78, 0.202, 192.0, 0.0, 0.0, 0.0, 0.0, 0.0, 0.0, 0.0, 0.0, 0.0, 1.6635907116909504E9, 0.0, 2022-09-19 17:31:51.690
70.0, -2296.2394113826053, 10241.323440232687, -24014.13309742607, -45780.910048593294, -187500.02235174447, -187500.02235174447, 7637.099342000407, -20521.270694884148, 0.614, -0.78, 0.202, 192.0, 0.0, 0.0, 0.0, 0.0, 0.0, 0.0, 0.0, 0.0, 0.0, 1.6635907116949413E9, 0.0, 2022-09-19 17:31:51.694
71.0, -2492.39832072238, 10220.469262655886, -24781.04380143211, -45666.31265477093, -187500.02235174447, -187500.02235174447, 7700.399482297837, -21242.29326752344, 0.614, -0.78, 0.202, 192.0, 0.0, 0.0, 0.0, 0.0, 0.0, 0.0, 0.0, 0.0, 0.0, 1.6635907116979537E9, 0.0, 2022-09-19 17:31:51.697
72.0, -2837.3304411566787, 10136.359648270565, -25097.522151174802, -45817.99159264465, -187500.02235174447, -187500.02235174447, 7581.063518650952, -21588.924120536343, 0.614, -0.78, 0.202, 192.0, 0.0, 0.0, 0.0, 0.0, 0.0, 0.0, 0.0, 0.0, 0.0, 1.6635907117019775E9, 0.0, 2022-09-19 17:31:51.701
73.0, -2711.646582084487, 10138.460712249365, -24086.06101108325, -46073.51673525772, -187500.02235174447, -187500.02235174447, 7420.265069039473, -20677.174112459914, 0.614, -0.78, 0.202, 192.0, 0.0, 0.0, 0.0, 0.0, 0.0, 0.0, 0.0, 0.0, 0.0, 1.663590711706002E9, 0.0, 2022-09-19 17:31:51.706
74.0, -2368.7708221400767, 10216.848280054126, -23712.876285657443, -45971.77159449716, -187500.02235174447, -187500.02235174447, 7507.258058459528, -20260.917575468728, 0.614, -0.78, 0.202, 192.0, 0.0, 0.0, 0.0, 0.0, 0.0, 0.0, 0.0, 0.0, 0.0, 1.6635907117099164E9, 0.0, 2022-09-19 17:31:51.709
75.0, -2297.982847450119, 10265.776248666794, -24042.251591950848, -45774.94213282372, -187500.02235174447, -187500.02235174447, 7635.311202443982, -20542.236631183223, 0.614, -0.78, 0.202, 192.0, 0.0, 0.0, 0.0, 0.0, 0.0, 0.0, 0.0, 0.0, 0.0, 1.663590711715012E9, 0.0, 2022-09-19 17:31:51.715
76.0, -2514.615954710955, 10242.038696055257, -24824.808517075602, -45663.13870705828, -187500.02235174447, -187500.02235174447, 7690.85528741542, -21265.15910210122, 0.614, -0.78, 0.202, 192.0, 0.0, 0.0, 0.0, 0.0, 0.0, 0.0, 0.0, 0.0, 0.0, 1.6635907117190063E9, 0.0, 2022-09-19 17:31:51.719
77.0, -2853.244883208857, 10160.141904371012, -25094.281148228783, -45823.758342714114, -187500.02235174447, -187500.02235174447, 7560.097582351874, -21571.467408116747, 0.614, -0.78, 0.202, 192.0, 0.0, 0.0, 0.0, 0.0, 0.0, 0.0, 0.0, 0.0, 0.0, 1.6635907117219608E9, 0.0, 2022-09-19 17:31:51.721
78.0, -2701.0295034682163, 10164.589901517618, -24057.830757836196, -46073.69554921336, -187500.02235174447, -187500.02235174447, 7408.7986241339, -20641.970114942804, 0.612, -0.782, 0.20600000000000002, 192.0, 19.0, 32.0, 231.0, 144.0, 6.0, 112.0, 0.0, 0.0, 0.0, 1.6635907117260602E9, 0.0, 2022-09-19 17:31:51.726
79.0, -2359.5171999355794, 10246.441989712954, -23718.12894560444, -45962.540324037116, -187500.02235174447, -187500.02235174447, 7504.665256102712, -20268.092485438883, 0.612, -0.782, 0.20600000000000002, 192.0, 0.0, 0.0, 0.0, 0.0, 0.0, 0.0, 0.0, 0.0, 0.0, 1.6635907117300155E9, 0.0, 2022-09-19 17:31:51.730
80.0, -2293.154870647773, 10294.878219947603, -24066.05619979575, -45765.62145538586, -187500.02235174447, -187500.02235174447, 7628.024533751552, -20541.074340471547, 0.612, -0.782, 0.20600000000000002, 192.0, 0.0, 0.0, 0.0, 0.0, 0.0, 0.0, 0.0, 0.0, 0.0, 1.6635907117340353E9, 0.0, 2022-09-19 17:31:51.734
81.0, -2510.704399431276, 10261.708231175928, -24851.92118309989, -45662.1775820467, -187500.02235174447, -187500.02235174447, 7682.786307667055, -21272.959860916122, 0.612, -0.782, 0.20600000000000002, 192.0, 0.0, 0.0, 0.0, 0.0, 0.0, 0.0, 0.0, 0.0, 0.0, 1.6635907117380133E9, 0.0, 2022-09-19 17:31:51.738
82.0, -2838.582138846176, 10175.274035367256, -25066.810854293213, -45835.62711901988, -187500.02235174447, -187500.02235174447, 7550.575739213913, -21524.238172082685, 0.612, -0.782, 0.20600000000000002, 192.0, 0.0, 0.0, 0.0, 0.0, 0.0, 0.0, 0.0, 0.0, 0.0, 1.66359071174302E9, 0.0, 2022-09-19 17:31:51.743
83.0, -2669.0888606415824, 10177.419802834966, -24029.488745866867, -46078.34471206006, -187500.02235174447, -187500.02235174447, 7402.070749052853, -20588.03535557215, 0.612, -0.782, 0.20600000000000002, 192.0, 0.0, 0.0, 0.0, 0.0, 0.0, 0.0, 0.0, 0.0, 0.0, 1.6635907117470992E9, 0.0, 2022-09-19 17:31:51.747
84.0, -2323.597946595901, 10257.863731129615, -23721.146431105906, -45959.34402458001, -187500.02235174447, -187500.02235174447, 7502.6535991017345, -20240.130453125294, 0.612, -0.782, 0.20600000000000002, 192.0, 0.0, 0.0, 0.0, 0.0, 0.0, 0.0, 0.0, 0.0, 0.0, 1.6635907117500517E9, 0.0, 2022-09-19 17:31:51.750
85.0, -2271.1607541037506, 10304.109490407645, -24076.71798190093, -45768.97421705416, -187500.02235174447, -187500.02235174447, 7624.738827316622, -20544.02477073965, 0.612, -0.782, 0.20600000000000002, 192.0, 0.0, 0.0, 0.0, 0.0, 0.0, 0.0, 0.0, 0.0, 0.0, 1.663590711754108E9, 0.0, 2022-09-19 17:31:51.754
86.0, -2507.4410447408018, 10275.32044354921, -24878.54211074616, -45668.39136700528, -187500.02235174447, -187500.02235174447, 7680.193505310239, -21298.17262866171, 0.612, -0.782, 0.20600000000000002, 192.0, 0.0, 0.0, 0.0, 0.0, 0.0, 0.0, 0.0, 0.0, 0.0, 1.6635907117580683E9, 0.0, 2022-09-19 17:31:51.758
87.0, -2830.9601939869162, 10190.070890196668, -25046.113138927598, -45851.2733401386, -187500.02235174447, -187500.02235174447, 7543.646698432768, -21511.34121553197, 0.612, -0.782, 0.20600000000000002, 192.0, 0.0, 0.0, 0.0, 0.0, 0.0, 0.0, 0.0, 0.0, 0.0, 1.663590711762077E9, 0.0, 2022-09-19 17:31:51.762
88.0, -2646.6030057195435, 10194.094204198624, -24001.50436180882, -46080.669293483414, -187500.02235174447, -187500.02235174447, 7402.383673475227, -20565.728314605753, 0.616, -0.778, 0.20400000000000001, 192.0, 19.0, 64.0, 231.0, 176.0, 6.0, 96.0, 0.0, 0.0, 0.0, 1.6635907117660763E9, 0.0, 2022-09-19 17:31:51.766
89.0, -2317.7641412930657, 10267.586739967674, -23731.87526844445, -45950.00099539769, -187500.02235174447, -187500.02235174447, 7506.453395659137, -20257.743627756077, 0.616, -0.778, 0.20400000000000001, 192.0, 0.0, 0.0, 0.0, 0.0, 0.0, 0.0, 0.0, 0.0, 0.0, 1.6635907117710884E9, 0.0, 2022-09-19 17:31:51.771
90.0, -2265.885742412298, 10313.385464356597, -24109.10565961667, -45763.4533361737, -187500.02235174447, -187500.02235174447, 7622.213080193172, -20572.925576320362, 0.616, -0.778, 0.20400000000000001, 192.0, 0.0, 0.0, 0.0, 0.0, 0.0, 0.0, 0.0, 0.0, 0.0, 1.663590711775076E9, 0.0, 2022-09-19 17:31:51.775
91.0, -2512.3807802654246, 10280.55075175175, -24916.540076320183, -45667.60905594934, -187500.02235174447, -187500.02235174447, 7675.879618630364, -21319.451489383162, 0.616, -0.778, 0.20400000000000001, 192.0, 0.0, 0.0, 0.0, 0.0, 0.0, 0.0, 0.0, 0.0, 0.0, 1.6635907117780805E9, 0.0, 2022-09-19 17:31:51.778
92.0, -2837.576310345687, 10192.976616975859, -25031.115118398087, -45859.18585767578, -187500.02235174447, -187500.02235174447, 7531.464997704626, -21483.267424496105, 0.616, -0.778, 0.20400000000000001, 192.0, 0.0, 0.0, 0.0, 0.0, 0.0, 0.0, 0.0, 0.0, 0.0, 1.6635907117821195E9, 0.0, 2022-09-19 17:31:51.782
93.0, -2646.9829853752835, 10197.558724589197, -23980.5607772542, -46086.03371215269, -187500.02235174447, -187500.02235174447, 7397.958028073076, -20513.984026191716, 0.616, -0.778, 0.20400000000000001, 192.0, 0.0, 0.0, 0.0, 0.0, 0.0, 0.0, 0.0, 0.0, 0.0, 1.6635907117861283E9, 0.0, 2022-09-19 17:31:51.786
94.0, -2326.749542564099, 10271.028908613791, -23742.51469880518, -45947.654062229885, -187500.02235174447, -187500.02235174447, 7512.398959684248, -20230.094519864862, 0.616, -0.778, 0.20400000000000001, 192.0, 0.0, 0.0, 0.0, 0.0, 0.0, 0.0, 0.0, 0.0, 0.0, 1.663590711790135E9, 0.0, 2022-09-19 17:31:51.790
95.0, -2293.467795070147, 10317.431130103008, -24131.07742441624, -45755.20554246969, -187500.02235174447, -187500.02235174447, 7625.923469772753, -20577.440628700333, 0.616, -0.778, 0.20400000000000001, 192.0, 0.0, 0.0, 0.0, 0.0, 0.0, 0.0, 0.0, 0.0, 0.0, 1.6635907117941637E9, 0.0, 2022-09-19 17:31:51.794
96.0, -2550.110524905983, 10284.305844820243, -24948.190146468896, -45664.21159079213, -187500.02235174447, -187500.02235174447, 7669.241150527138, -21348.84403334189, 0.616, -0.778, 0.20400000000000001, 192.0, 0.0, 0.0, 0.0, 0.0, 0.0, 0.0, 0.0, 0.0, 0.0, 1.6635907117991457E9, 0.0, 2022-09-19 17:31:51.799
97.0, -2857.80463907774, 10207.237029938344, -25002.482533750837, -45865.220828678706, -187500.02235174447, -187500.02235174447, 7517.763378353522, -21445.224755433173, 0.616, -0.778, 0.20400000000000001, 192.0, 0.0, 0.0, 0.0, 0.0, 0.0, 0.0, 0.0, 0.0, 0.0, 1.6635907118031974E9, 0.0, 2022-09-19 17:31:51.803
98.0, -2641.573863217099, 10230.974582549881, -23946.094387304114, -46075.81896493661, -187500.02235174447, -187500.02235174447, 7394.60526640478, -20482.82569442102, 0.616, -0.778, 0.20400000000000001, 192.0, 0.0, 0.0, 0.0, 0.0, 0.0, 0.0, 0.0, 0.0, 0.0, 1.6635907118061805E9, 0.0, 2022-09-19 17:31:51.806
99.0, -2317.495920359602, 10309.876240477115, -23747.610896540988, -45924.028268340626, -187500.02235174447, -187500.02235174447, 7510.186136983173, -20238.543479268967, 0.614, -0.776, 0.202, 192.0, 19.0, 48.0, 231.0, 192.0, 6.0, 80.0, 0.0, 0.0, 0.0, 1.6635907118101983E9, 0.0, 2022-09-19 17:31:51.810
100.0, -2286.672864755734, 10349.550586885285, -24149.49526184741, -45737.01122248307, -187500.02235174447, -187500.02235174447, 7619.88849876982, -20592.885684118948, 0.614, -0.776, 0.202, 192.0, 0.0, 0.0, 0.0, 0.0, 0.0, 0.0, 0.0, 0.0, 0.0, 1.6635907118141415E9, 0.0, 2022-09-19 17:31:51.814
101.0, -2552.815085985075, 10304.690635763483, -24980.913100351467, -45659.24950352305, -187500.02235174447, -187500.02235174447, 7653.147894519317, -21374.392077254306, 0.614, -0.776, 0.202, 192.0, 0.0, 0.0, 0.0, 0.0, 0.0, 0.0, 0.0, 0.0, 0.0, 1.6635907118181891E9, 0.0, 2022-09-19 17:31:51.818
102.0, -2850.2273977073905, 10219.39637892203, -24985.606966687083, -45874.65326483885, -187500.02235174447, -187500.02235174447, 7492.170630952196, -21442.788415287545, 0.614, -0.776, 0.202, 192.0, 0.0, 0.0, 0.0, 0.0, 0.0, 0.0, 0.0, 0.0, 0.0, 1.6635907118221684E9, 0.0, 2022-09-19 17:31:51.822
103.0, -2626.2405665207584, 10236.383704708065, -23936.729006377343, -46080.11049987203, -187500.02235174447, -187500.02235174447, 7371.001824259976, -20483.42919152131, 0.614, -0.776, 0.202, 192.0, 0.0, 0.0, 0.0, 0.0, 0.0, 0.0, 0.0, 0.0, 0.0, 1.663590711826161E9, 0.0, 2022-09-19 17:31:51.826
104.0, -2320.6475163278005, 10317.587592314196, -23761.26781240318, -45927.33632652001, -187500.02235174447, -187500.02235174447, 7494.159936208718, -20270.841750006886, 0.614, -0.776, 0.202, 192.0, 0.0, 0.0, 0.0, 0.0, 0.0, 0.0, 0.0, 0.0, 0.0, 1.663590711831258E9, 0.0, 2022-09-19 17:31:51.831
105.0, -2297.8934404722977, 10365.465028937464, -24162.749846309405, -45740.16281845127, -187500.02235174447, -187500.02235174447, 7615.373446389848, -20629.587248514563, 0.614, -0.776, 0.202, 192.0, 0.0, 0.0, 0.0, 0.0, 0.0, 0.0, 0.0, 0.0, 0.0, 1.663590711834191E9, 0.0, 2022-09-19 17:31:51.834
106.0, -2571.2105716717924, 10322.907307494559, -25001.297891294707, -45664.70332917015, -187500.02235174447, -187500.02235174447, 7648.185807250239, -21402.152943867797, 0.614, -0.776, 0.202, 192.0, 0.0, 0.0, 0.0, 0.0, 0.0, 0.0, 0.0, 0.0, 0.0, 1.6635907118382347E9, 0.0, 2022-09-19 17:31:51.838
107.0, -2854.7424500873626, 10243.424504211487, -24943.250410944274, -45887.6843318563, -187500.02235174447, -187500.02235174447, 7485.889790760254, -21402.37646131235, 0.614, -0.776, 0.202, 192.0, 0.0, 0.0, 0.0, 0.0, 0.0, 0.0, 0.0, 0.0, 0.0, 1.6635907118422496E9, 0.0, 2022-09-19 17:31:51.842
108.0, -2615.489377437756, 10266.245635300354, -23902.128505960525, -46081.33984581707, -187500.02235174447, -187500.02235174447, 7371.404155660171, -20437.451653176744, 0.614, -0.776, 0.202, 192.0, 0.0, 0.0, 0.0, 0.0, 0.0, 0.0, 0.0, 0.0, 0.0, 1.66359071184623E9, 0.0, 2022-09-19 17:31:51.846
109.0, -2314.2325656691273, 10341.146330970088, -23771.661373574898, -45923.69299217379, -187500.02235174447, -187500.02235174447, 7491.701244318634, -20265.700848782166, 0.616, -0.772, 0.20400000000000001, 192.0, 19.0, 64.0, 231.0, 224.0, 6.0, 96.0, 0.0, 0.0, 0.0, 1.6635907118502555E9, 0.0, 2022-09-19 17:31:51.850
110.0, -2299.7486352620886, 10378.697261655005, -24191.24832048992, -45743.023841741546, -187500.02235174447, -187500.02235174447, 7604.443443351203, -20626.32389382409, 0.616, -0.772, 0.20400000000000001, 192.0, 0.0, 0.0, 0.0, 0.0, 0.0, 0.0, 0.0, 0.0, 0.0, 1.6635907118541927E9, 0.0, 2022-09-19 17:31:51.854
111.0, -2582.4311473883567, 10334.776083800327, -25029.125813141563, -45672.14646007377, -187500.02235174447, -187500.02235174447, 7636.607603622389, -21404.566932268972, 0.616, -0.772, 0.20400000000000001, 192.0, 0.0, 0.0, 0.0, 0.0, 0.0, 0.0, 0.0, 0.0, 0.0, 1.6635907118592641E9, 0.0, 2022-09-19 17:31:51.859
112.0, -2853.8483803091503, 10261.819989898204, -24922.12801243401, -45901.27419248512, -187500.02235174447, -187500.02235174447, 7469.304796374417, -21367.351277750884, 0.616, -0.772, 0.20400000000000001, 192.0, 0.0, 0.0, 0.0, 0.0, 0.0, 0.0, 0.0, 0.0, 0.0, 1.663590711862187E9, 0.0, 2022-09-19 17:31:51.862
113.0, -2597.6973888513317, 10287.591551255173, -23877.742752759787, -46083.73148247379, -187500.02235174447, -187500.02235174447, 7371.180638215618, -20403.94638823824, 0.616, -0.772, 0.20400000000000001, 192.0, 0.0, 0.0, 0.0, 0.0, 0.0, 0.0, 0.0, 0.0, 0.0, 1.6635907118662825E9, 0.0, 2022-09-19 17:31:51.866
114.0, -2306.40945510977, 10359.944148057002, -23776.869330032987, -45917.12157930393, -187500.02235174447, -187500.02235174447, 7499.099671733341, -20249.808758474443, 0.616, -0.772, 0.20400000000000001, 192.0, 0.0, 0.0, 0.0, 0.0, 0.0, 0.0, 0.0, 0.0, 0.0, 1.6635907118702505E9, 0.0, 2022-09-19 17:31:51.870
115.0, -2307.16941442125, 10391.571866461261, -24220.26088479291, -45738.59819633939, -187500.02235174447, -187500.02235174447, 7601.247143894094, -20649.301487124147, 0.616, -0.772, 0.20400000000000001, 192.0, 0.0, 0.0, 0.0, 0.0, 0.0, 0.0, 0.0, 0.0, 0.0, 1.6635907118742683E9, 0.0, 2022-09-19 17:31:51.874
116.0, -2599.03849351865, 10346.533101383819, -25055.545575087737, -45679.00844562155, -187500.02235174447, -187500.02235174447, 7626.370504661859, -21433.579496571958, 0.616, -0.772, 0.20400000000000001, 192.0, 0.0, 0.0, 0.0, 0.0, 0.0, 0.0, 0.0, 0.0, 0.0, 1.6635907118782086E9, 0.0, 2022-09-19 17:31:51.878
117.0, -2856.485886154877, 10273.666414459518, -24888.51098877323, -45921.81544563955, -187500.02235174447, -187500.02235174447, 7457.1007439018185, -21339.590411137393, 0.616, -0.772, 0.20400000000000001, 192.0, 0.0, 0.0, 0.0, 0.0, 0.0, 0.0, 0.0, 0.0, 0.0, 1.6635907118822987E9, 0.0, 2022-09-19 17:31:51.882
118.0, -2576.5749903410665, 10303.70715900745, -23853.15583385895, -46095.287334357185, -187500.02235174447, -187500.02235174447, 7364.408059645661, -20392.926978221774, 0.616, -0.772, 0.20400000000000001, 192.0, 0.0, 0.0, 0.0, 0.0, 0.0, 0.0, 0.0, 0.0, 0.0, 1.6635907118872886E9, 0.0, 2022-09-19 17:31:51.887
119.0, -2285.979960677619, 10378.607854677184, -23785.631213859466, -45926.48696023071, -187500.02235174447, -187500.02235174447, 7490.7401193070555, -20260.24702313507, 0.612, -0.778, 0.20600000000000002, 192.0, 19.0, 32.0, 231.0, 176.0, 6.0, 112.0, 0.0, 0.0, 0.0, 1.663590711890294E9, 0.0, 2022-09-19 17:31:51.890
120.0, -2296.2170596381497, 10410.302628314808, -24229.335693041765, -45749.304681933485, -187500.02235174447, -187500.02235174447, 7599.660170037767, -20637.36565558501, 0.612, -0.778, 0.20600000000000002, 192.0, 0.0, 0.0, 0.0, 0.0, 0.0, 0.0, 0.0, 0.0, 0.0, 1.6635907118933449E9, 0.0, 2022-09-19 17:31:51.893
121.0, -2599.3067144521137, 10360.882921324126, -25067.839034538156, -45690.51959401603, -187500.02235174447, -187500.02235174447, 7624.336495916426, -21426.829269746457, 0.612, -0.778, 0.20600000000000002, 192.0, 0.0, 0.0, 0.0, 0.0, 0.0, 0.0, 0.0, 0.0, 0.0, 1.6635907118983476E9, 0.0, 2022-09-19 17:31:51.898
122.0, -2851.0097087633267, 10286.071632632213, -24850.848299366036, -45936.05350685758, -187500.02235174447, -187500.02235174447, 7443.354421061805, -21303.648806053257, 0.612, -0.778, 0.20600000000000002, 192.0, 0.0, 0.0, 0.0, 0.0, 0.0, 0.0, 0.0, 0.0, 0.0, 1.6635907119023428E9, 0.0, 2022-09-19 17:31:51.902
123.0, -2569.3106733930917, 10317.744054525383, -23824.255028278236, -46090.7275784883, -187500.02235174447, -187500.02235174447, 7359.6024345877695, -20357.052428371004, 0.612, -0.778, 0.20600000000000002, 192.0, 0.0, 0.0, 0.0, 0.0, 0.0, 0.0, 0.0, 0.0, 0.0, 1.6635907119063575E9, 0.0, 2022-09-19 17:31:51.906
124.0, -2295.50180381558, 10393.62822695115, -23781.742010324244, -45909.969021078236, -187500.02235174447, -187500.02235174447, 7489.466069873103, -20255.128473654804, 0.612, -0.778, 0.20600000000000002, 192.0, 0.0, 0.0, 0.0, 0.0, 0.0, 0.0, 0.0, 0.0, 0.0, 1.6635907119103673E9, 0.0, 2022-09-19 17:31:51.910
125.0, -2309.8739755003426, 10422.953715676513, -24243.864326937717, -45733.166722436756, -187500.02235174447, -187500.02235174447, 7592.239390878605, -20666.892310010473, 0.612, -0.778, 0.20600000000000002, 192.0, 0.0, 0.0, 0.0, 0.0, 0.0, 0.0, 0.0, 0.0, 0.0, 1.6635907119153028E9, 0.0, 2022-09-19 17:31:51.915
126.0, -2618.3727524724904, 10363.81099984777, -25080.49012189986, -45685.31163755794, -187500.02235174447, -187500.02235174447, 7608.019722464052, -21452.354961914418, 0.612, -0.778, 0.20600000000000002, 192.0, 0.0, 0.0, 0.0, 0.0, 0.0, 0.0, 0.0, 0.0, 0.0, 1.6635907119183352E9, 0.0, 2022-09-19 17:31:51.918
127.0, -2844.5500546157427, 10289.357339067143, -24804.602540088006, -45940.47915225973, -187500.02235174447, -187500.02235174447, 7429.384580777238, -21268.82478819189, 0.612, -0.778, 0.20600000000000002, 192.0, 0.0, 0.0, 0.0, 0.0, 0.0, 0.0, 0.0, 0.0, 0.0, 1.6635907119213164E9, 0.0, 2022-09-19 17:31:51.921
128.0, -2540.7674957236645, 10328.875223264125, -23795.935368053364, -46083.66442724042, -187500.02235174447, -187500.02235174447, 7361.301167166373, -20329.537430946522, 0.612, -0.778, 0.20600000000000002, 192.0, 0.0, 0.0, 0.0, 0.0, 0.0, 0.0, 0.0, 0.0, 0.0, 1.6635907119263077E9, 0.0, 2022-09-19 17:31:51.926
129.0, -2279.207382107661, 10398.0538723533, -23793.029641274174, -45900.89421282938, -187500.02235174447, -187500.02235174447, 7491.544782107447, -20261.901052224763, 0.616, -0.77, 0.21, 192.0, 19.0, 64.0, 231.0, 240.0, 6.0, 144.0, 0.0, 0.0, 0.0, 1.6635907119303303E9, 0.0, 2022-09-19 17:31:51.930
130.0, -2310.566879578457, 10416.896392929124, -24274.262699396935, -45734.44077187071, -187500.02235174447, -187500.02235174447, 7588.327835598927, -20700.86696158254, 0.616, -0.77, 0.21, 192.0, 0.0, 0.0, 0.0, 0.0, 0.0, 0.0, 0.0, 0.0, 0.0, 1.6635907119343505E9, 0.0, 2022-09-19 17:31:51.934
131.0, -2631.4038194899344, 10358.446581178498, -25100.271415742805, -45698.365056319846, -187500.02235174447, -187500.02235174447, 7602.118861927851, -21495.985567091175, 0.616, -0.77, 0.21, 192.0, 0.0, 0.0, 0.0, 0.0, 0.0, 0.0, 0.0, 0.0, 0.0, 1.663590711938337E9, 0.0, 2022-09-19 17:31:51.938
132.0, -2857.603473377642, 10285.959873909937, -24775.500568807194, -45968.821164229055, -187500.02235174447, -187500.02235174447, 7411.458481724082, -21265.82965443488, 0.616, -0.77, 0.21, 192.0, 0.0, 0.0, 0.0, 0.0, 0.0, 0.0, 0.0, 0.0, 0.0, 1.6635907119423337E9, 0.0, 2022-09-19 17:31:51.942
133.0, -2548.6576615163876, 10328.875223264125, -23785.22888245927, -46101.94815420487, -187500.02235174447, -187500.02235174447, 7346.772533270423, -20322.764852376564, 0.616, -0.77, 0.21, 192.0, 0.0, 0.0, 0.0, 0.0, 0.0, 0.0, 0.0, 0.0, 0.0, 1.66359071194535E9, 0.0, 2022-09-19 17:31:51.945
134.0, -2289.6903502572004, 10405.608761979194, -23802.6185396455, -45911.578346679016, -187500.02235174447, -187500.02235174447, 7477.172610422685, -20280.20713093366, 0.616, -0.77, 0.21, 192.0, 0.0, 0.0, 0.0, 0.0, 0.0, 0.0, 0.0, 0.0, 0.0, 1.6635907119493792E9, 0.0, 2022-09-19 17:31:51.949
135.0, -2333.0974379894064, 10431.49208205844, -24298.849618297772, -45740.296928918, -187500.02235174447, -187500.02235174447, 7575.095602881384, -20738.931982389928, 0.616, -0.77, 0.21, 192.0, 0.0, 0.0, 0.0, 0.0, 0.0, 0.0, 0.0, 0.0, 0.0, 1.6635907119544032E9, 0.0, 2022-09-19 17:31:51.954
136.0, -2663.2327035942917, 10374.271616252854, -25118.376328751605, -45704.71295174515, -187500.02235174447, -187500.02235174447, 7581.622312262334, -21497.125506058397, 0.616, -0.77, 0.21, 192.0, 0.0, 0.0, 0.0, 0.0, 0.0, 0.0, 0.0, 0.0, 0.0, 1.6635907119583583E9, 0.0, 2022-09-19 17:31:51.958
137.0, -2862.6549676245413, 10310.770310255326, -24734.261600287155, -45972.24098113072, -187500.02235174447, -187500.02235174447, 7392.303036725883, -21213.794793342924, 0.616, -0.77, 0.21, 192.0, 0.0, 0.0, 0.0, 0.0, 0.0, 0.0, 0.0, 0.0, 0.0, 1.663590711962372E9, 0.0, 2022-09-19 17:31:51.962
138.0, -2551.049298173106, 10355.026764276834, -23767.23572817275, -46090.99579942177, -187500.02235174447, -187500.02235174447, 7335.104922664753, -20316.327549973437, 0.616, -0.77, 0.21, 192.0, 0.0, 0.0, 0.0, 0.0, 0.0, 0.0, 0.0, 0.0, 0.0, 1.663590711966466E9, 0.0, 2022-09-19 17:31:51.966
139.0, -2304.3754463643368, 10430.0615704133, -23803.870237334995, -45895.485090671194, -187500.02235174447, -187500.02235174447, 7474.937435977154, -20291.897093283784, 0.614, -0.776, 0.20600000000000002, 192.0, 19.0, 48.0, 231.0, 192.0, 6.0, 112.0, 0.0, 0.0, 0.0, 1.6635907119704232E9, 0.0, 2022-09-19 17:31:51.970
140.0, -2346.553188151501, 10456.347221892742, -24311.970092293035, -45728.78578052352, -187500.02235174447, -187500.02235174447, 7577.107259882362, -20754.53350001973, 0.614, -0.776, 0.20600000000000002, 192.0, 0.0, 0.0, 0.0, 0.0, 0.0, 0.0, 0.0, 0.0, 0.0, 1.6635907119744473E9, 0.0, 2022-09-19 17:31:51.974
141.0, -2678.3424828460793, 10394.142317073622, -25137.576477238712, -45710.56910879244, -187500.02235174447, -187500.02235174447, 7567.384251044304, -21528.730872718203, 0.614, -0.776, 0.20600000000000002, 192.0, 0.0, 0.0, 0.0, 0.0, 0.0, 0.0, 0.0, 0.0, 0.0, 1.6635907119774563E9, 0.0, 2022-09-19 17:31:51.977
142.0, -2861.09034551267, 10333.90436576657, -24701.426887682308, -45989.29536215012, -187500.02235174447, -187500.02235174447, 7374.175771972629, -21187.95617675259, 0.614, -0.776, 0.20600000000000002, 192.0, 0.0, 0.0, 0.0, 0.0, 0.0, 0.0, 0.0, 0.0, 0.0, 1.6635907119824605E9, 0.0, 2022-09-19 17:31:51.982
143.0, -2536.8559404439857, 10378.518447699362, -23745.353370351004, -46096.471976813315, -187500.02235174447, -187500.02235174447, 7338.8823674776995, -20293.97580551813, 0.614, -0.776, 0.20600000000000002, 192.0, 0.0, 0.0, 0.0, 0.0, 0.0, 0.0, 0.0, 0.0, 0.0, 1.6635907119864554E9, 0.0, 2022-09-19 17:31:51.986
144.0, -2292.819594480943, 10444.88077698717, -23810.95574032733, -45898.45787268375, -187500.02235174447, -187500.02235174447, 7476.47970634457, -20303.698814356187, 0.614, -0.776, 0.20600000000000002, 192.0, 0.0, 0.0, 0.0, 0.0, 0.0, 0.0, 0.0, 0.0, 0.0, 1.663590711990524E9, 0.0, 2022-09-19 17:31:51.990
145.0, -2346.7543538515993, 10464.818533041303, -24337.58519143882, -45735.17837943773, -187500.02235174447, -187500.02235174447, 7573.30746332496, -20783.12138117807, 0.614, -0.776, 0.20600000000000002, 192.0, 0.0, 0.0, 0.0, 0.0, 0.0, 0.0, 0.0, 0.0, 0.0, 1.663590711994419E9, 0.0, 2022-09-19 17:31:51.994
146.0, -2694.2122214093474, 10398.567962475772, -25144.058483130753, -45725.120094432845, -187500.02235174447, -187500.02235174447, 7563.249178320072, -21540.26437285714, 0.614, -0.776, 0.20600000000000002, 192.0, 0.0, 0.0, 0.0, 0.0, 0.0, 0.0, 0.0, 0.0, 0.0, 1.663590711997496E9, 0.0, 2022-09-19 17:31:51.997
147.0, -2852.887255297572, 10339.402894902576, -24652.945953958744, -46003.48871987924, -187500.02235174447, -187500.02235174447, 7369.414850403649, -21153.33332459132, 0.614, -0.776, 0.20600000000000002, 192.0, 0.0, 0.0, 0.0, 0.0, 0.0, 0.0, 0.0, 0.0, 0.0, 1.6635907120014129E9, 0.0, 2022-09-19 17:31:52.001
148.0, -2514.951230877785, 10387.86147688168, -23731.919971933363, -46094.594430279074, -187500.02235174447, -187500.02235174447, 7331.550995296359, -20294.73576482961, 0.614, -0.776, 0.20600000000000002, 192.0, 0.0, 0.0, 0.0, 0.0, 0.0, 0.0, 0.0, 0.0, 0.0, 1.6635907120054922E9, 0.0, 2022-09-19 17:31:52.005
149.0, -2290.7855857355103, 10456.838960270758, -23818.66709216441, -45890.90298305786, -187500.02235174447, -187500.02235174447, 7472.635206298257, -20298.44615440919, 0.618, -0.782, 0.20600000000000002, 192.0, 19.0, 80.0, 231.0, 144.0, 6.0, 112.0, 0.0, 0.0, 0.0, 1.6635907120094955E9, 0.0, 2022-09-19 17:31:52.009
150.0, -2360.7241941361663, 10474.78741106837, -24359.86988066076, -45724.40483861027, -187500.02235174447, -187500.02235174447, 7570.334681312404, -20795.705413306405, 0.618, -0.782, 0.20600000000000002, 192.0, 0.0, 0.0, 0.0, 0.0, 0.0, 0.0, 0.0, 0.0, 0.0, 1.6635907120145023E9, 0.0, 2022-09-19 17:31:52.014
151.0, -2708.740855305297, 10410.906125415102, -25153.177994868518, -45724.67305954374, -187500.02235174447, -187500.02235174447, 7555.515474738536, -21556.827015498522, 0.618, -0.782, 0.20600000000000002, 192.0, 0.0, 0.0, 0.0, 0.0, 0.0, 0.0, 0.0, 0.0, 0.0, 1.663590712018509E9, 0.0, 2022-09-19 17:31:52.018
152.0, -2850.383859918578, 10357.485456166918, -24618.792488431038, -46010.77538857167, -187500.02235174447, -187500.02235174447, 7358.082515964808, -21116.52000147343, 0.618, -0.782, 0.20600000000000002, 192.0, 0.0, 0.0, 0.0, 0.0, 0.0, 0.0, 0.0, 0.0, 0.0, 1.6635907120224912E9, 0.0, 2022-09-19 17:31:52.022
153.0, -2501.0260940821286, 10408.782709691848, -23730.914143432874, -46091.55459303315, -187500.02235174447, -187500.02235174447, 7327.952364439055, -20273.948642486175, 0.618, -0.782, 0.20600000000000002, 192.0, 0.0, 0.0, 0.0, 0.0, 0.0, 0.0, 0.0, 0.0, 0.0, 1.6635907120255625E9, 0.0, 2022-09-19 17:31:52.025
154.0, -2285.5552775329684, 10476.955530280535, -23845.15390934395, -45889.98656153519, -187500.02235174447, -187500.02235174447, 7464.655633527713, -20329.760948391075, 0.618, -0.782, 0.20600000000000002, 192.0, 0.0, 0.0, 0.0, 0.0, 0.0, 0.0, 0.0, 0.0, 0.0, 1.663590712029513E9, 0.0, 2022-09-19 17:31:52.029
155.0, -2367.362662239392, 10493.920504322114, -24402.673471292674, -45728.91989099025, -187500.02235174447, -187500.02235174447, 7554.219073560128, -20824.494460164842, 0.618, -0.782, 0.20600000000000002, 192.0, 0.0, 0.0, 0.0, 0.0, 0.0, 0.0, 0.0, 0.0, 0.0, 1.6635907120335555E9, 0.0, 2022-09-19 17:31:52.033
156.0, -2721.257832200269, 10429.636887268649, -25165.516157807848, -45733.07731545893, -187500.02235174447, -187500.02235174447, 7533.499006450058, -21553.49660557468, 0.618, -0.782, 0.20600000000000002, 192.0, 0.0, 0.0, 0.0, 0.0, 0.0, 0.0, 0.0, 0.0, 0.0, 1.6635907120375488E9, 0.0, 2022-09-19 17:31:52.037
157.0, -2840.482037124877, 10377.043232565313, -24582.314441479975, -46021.10189451002, -187500.02235174447, -187500.02235174447, 7335.97664069851, -21079.237291721976, 0.618, -0.782, 0.20600000000000002, 192.0, 0.0, 0.0, 0.0, 0.0, 0.0, 0.0, 0.0, 0.0, 0.0, 1.6635907120426884E9, 0.0, 2022-09-19 17:31:52.042
158.0, -2494.1194050454387, 10426.0606081558, -23721.705224717287, -46088.090072642575, -187500.02235174447, -187500.02235174447, 7318.363466067728, -20260.045857434972, 0.618, -0.782, 0.20600000000000002, 192.0, 0.0, 0.0, 0.0, 0.0, 0.0, 0.0, 0.0, 0.0, 0.0, 1.6635907120466628E9, 0.0, 2022-09-19 17:31:52.046
159.0, -2293.7136642591554, 10492.35588221024, -23849.66896172392, -45879.972980019214, -187500.02235174447, -187500.02235174447, 7461.6828515151565, -20325.871744855853, 0.622, -0.778, 0.20600000000000002, 192.0, 19.0, 112.0, 231.0, 176.0, 6.0, 112.0, 0.0, 0.0, 0.0, 1.663590712050625E9, 0.0, 2022-09-19 17:31:52.050
160.0, -2380.7066536792104, 10503.330588737797, -24427.03687274896, -45718.3922193518, -187500.02235174447, -187500.02235174447, 7549.9051868802535, -20844.879251108083, 0.622, -0.778, 0.20600000000000002, 192.0, 0.0, 0.0, 0.0, 0.0, 0.0, 0.0, 0.0, 0.0, 0.0, 1.663590712053626E9, 0.0, 2022-09-19 17:31:52.053
161.0, -2732.165483494459, 10432.810834981303, -25177.02730620233, -45735.62541432684, -187500.02235174447, -187500.02235174447, 7522.7254656226005, -21576.07186747454, 0.622, -0.778, 0.20600000000000002, 192.0, 0.0, 0.0, 0.0, 0.0, 0.0, 0.0, 0.0, 0.0, 0.0, 1.6635907120576456E9, 0.0, 2022-09-19 17:31:52.057
162.0, -2839.766781302307, 10381.267712267365, -24542.170708438243, -46030.82490334808, -187500.02235174447, -187500.02235174447, 7322.8561667032445, -21062.40642814713, 0.622, -0.778, 0.20600000000000002, 192.0, 0.0, 0.0, 0.0, 0.0, 0.0, 0.0, 0.0, 0.0, 0.0, 1.6635907120616405E9, 0.0, 2022-09-19 17:31:52.061
163.0, -2479.948399060774, 10440.701000774026, -23703.48855298621, -46079.417595793915, -187500.02235174447, -187500.02235174447, 7318.49757653446, -20244.019656660515, 0.622, -0.778, 0.20600000000000002, 192.0, 0.0, 0.0, 0.0, 0.0, 0.0, 0.0, 0.0, 0.0, 0.0, 1.663590712065634E9, 0.0, 2022-09-19 17:31:52.065
164.0, -2288.5280595455242, 10505.74457713897, -23862.34240083008, -45873.69213982727, -187500.02235174447, -187500.02235174447, 7453.14448513323, -20340.64624794081, 0.622, -0.778, 0.20600000000000002, 192.0, 0.0, 0.0, 0.0, 0.0, 0.0, 0.0, 0.0, 0.0, 0.0, 1.6635907120706222E9, 0.0, 2022-09-19 17:31:52.070
165.0, -2383.008883358107, 10516.920449366624, -24453.188413761665, -45720.62739379733, -187500.02235174447, -187500.02235174447, 7544.138436810785, -20893.76251623184, 0.622, -0.778, 0.20600000000000002, 192.0, 0.0, 0.0, 0.0, 0.0, 0.0, 0.0, 0.0, 0.0, 0.0, 1.6635907120745907E9, 0.0, 2022-09-19 17:31:52.074
166.0, -2745.8894545900175, 10446.378343865676, -25183.956346983476, -45748.477667388644, -187500.02235174447, -187500.02235174447, 7505.559325880925, -21589.527617636635, 0.622, -0.778, 0.20600000000000002, 192.0, 0.0, 0.0, 0.0, 0.0, 0.0, 0.0, 0.0, 0.0, 0.0, 1.663590712078656E9, 0.0, 2022-09-19 17:31:52.078
167.0, -2844.6394615935637, 10398.813831664782, -24504.262149842045, -46038.02216506269, -187500.02235174447, -187500.02235174447, 7305.310047305828, -21020.1616311266, 0.622, -0.778, 0.20600000000000002, 192.0, 0.0, 0.0, 0.0, 0.0, 0.0, 0.0, 0.0, 0.0, 0.0, 1.6635907120816157E9, 0.0, 2022-09-19 17:31:52.081
168.0, -2484.597561907478, 10457.73303004897, -23700.940454118307, -46073.270866068706, -187500.02235174447, -187500.02235174447, 7304.30421880534, -20253.943831198674, 0.622, -0.778, 0.20600000000000002, 192.0, 0.0, 0.0, 0.0, 0.0, 0.0, 0.0, 0.0, 0.0, 0.0, 1.663590712085597E9, 0.0, 2022-09-19 17:31:52.085
169.0, -2295.0994724153843, 10526.263478548943, -23874.38999109149, -45864.68438681178, -187500.02235174447, -187500.02235174447, 7447.243624597028, -20364.473207530165, 0.618, -0.782, 0.2, 192.0, 19.0, 80.0, 231.0, 144.0, 6.0, 64.0, 0.0, 0.0, 0.0, 1.6635907120896335E9, 0.0, 2022-09-19 17:31:52.089
170.0, -2393.693017207744, 10537.41699903214, -24480.614004208328, -45711.19495763719, -187500.02235174447, -187500.02235174447, 7539.846901875366, -20906.592417549185, 0.618, -0.782, 0.2, 192.0, 0.0, 0.0, 0.0, 0.0, 0.0, 0.0, 0.0, 0.0, 0.0, 1.663590712093584E9, 0.0, 2022-09-19 17:31:52.093
171.0, -2761.446268730911, 10464.036221985367, -25191.08655346472, -45749.5505511225, -187500.02235174447, -187500.02235174447, 7488.080261716875, -21593.17095198285, 0.618, -0.782, 0.2, 192.0, 0.0, 0.0, 0.0, 0.0, 0.0, 0.0, 0.0, 0.0, 0.0, 1.6635907120976508E9, 0.0, 2022-09-19 17:31:52.097
172.0, -2834.6258800775863, 10424.87596569967, -24461.1232830433, -46045.0182610772, -187500.02235174447, -187500.02235174447, 7290.49084073196, -20981.11313356318, 0.618, -0.782, 0.2, 192.0, 0.0, 0.0, 0.0, 0.0, 0.0, 0.0, 0.0, 0.0, 0.0, 1.6635907121026368E9, 0.0, 2022-09-19 17:31:52.102
173.0, -2480.5071926721566, 10485.292730962365, -23693.45261972578, -46073.38262479098, -187500.02235174447, -187500.02235174447, 7300.4373670145715, -20229.423967531202, 0.618, -0.782, 0.2, 192.0, 0.0, 0.0, 0.0, 0.0, 0.0, 0.0, 0.0, 0.0, 0.0, 1.6635907121066864E9, 0.0, 2022-09-19 17:31:52.106
174.0, -2305.0683504424514, 10553.286737595408, -23879.128560916015, -45865.33258740099, -187500.02235174447, -187500.02235174447, 7441.745095461023, -20358.773512694064, 0.618, -0.782, 0.2, 192.0, 0.0, 0.0, 0.0, 0.0, 0.0, 0.0, 0.0, 0.0, 0.0, 1.6635907121096778E9, 0.0, 2022-09-19 17:31:52.109
175.0, -2413.854290706431, 10563.27796736693, -24496.819018938426, -45712.04432392649, -187500.02235174447, -187500.02235174447, 7532.6496401607565, -20945.842080812705, 0.618, -0.782, 0.2, 192.0, 0.0, 0.0, 0.0, 0.0, 0.0, 0.0, 0.0, 0.0, 0.0, 1.663590712113694E9, 0.0, 2022-09-19 17:31:52.113
176.0, -2781.942818396428, 10490.165411253622, -25173.719248022946, -45757.32895819294, -187500.02235174447, -187500.02235174447, 7482.000587225031, -21613.488687692727, 0.618, -0.782, 0.2, 192.0, 0.0, 0.0, 0.0, 0.0, 0.0, 0.0, 0.0, 0.0, 0.0, 1.6635907121177E9, 0.0, 2022-09-19 17:31:52.117
177.0, -2832.9047957545276, 10448.814684011304, -24403.746355026527, -46050.405031490925, -187500.02235174447, -187500.02235174447, 7290.244971542951, -20936.90138303058, 0.618, -0.782, 0.2, 192.0, 0.0, 0.0, 0.0, 0.0, 0.0, 0.0, 0.0, 0.0, 0.0, 1.6635907121216867E9, 0.0, 2022-09-19 17:31:52.121
178.0, -2467.67729135481, 10510.214926030032, -23683.483741698714, -46063.07847059709, -187500.02235174447, -187500.02235174447, 7304.795957183356, -20228.798118686453, 0.618, -0.782, 0.2, 192.0, 0.0, 0.0, 0.0, 0.0, 0.0, 0.0, 0.0, 0.0, 0.0, 1.6635907121257088E9, 0.0, 2022-09-19 17:31:52.125
179.0, -2308.1975946661946, 10576.66666229566, -23890.59500582159, -45858.090622197466, -187500.02235174447, -187500.02235174447, 7443.063848383886, -20366.149588364315, 0.618, -0.78, 0.20600000000000002, 192.0, 19.0, 80.0, 231.0, 160.0, 6.0, 112.0, 0.0, 0.0, 0.0, 1.6635907121307375E9, 0.0, 2022-09-19 17:31:52.130
180.0, -2435.915462483819, 10582.18754317612, -24529.452565843174, -45713.49718731608, -187500.02235174447, -187500.02235174447, 7530.7720936265105, -20957.219118740453, 0.618, -0.78, 0.20600000000000002, 192.0, 0.0, 0.0, 0.0, 0.0, 0.0, 0.0, 0.0, 0.0, 0.0, 1.6635907121347835E9, 0.0, 2022-09-19 17:31:52.134
181.0, -2806.5967925306313, 10508.292676006875, -25175.6414980461, -45771.65642638879, -187500.02235174447, -187500.02235174447, 7470.914121975198, -21583.64910884489, 0.618, -0.78, 0.20600000000000002, 192.0, 0.0, 0.0, 0.0, 0.0, 0.0, 0.0, 0.0, 0.0, 0.0, 1.6635907121377184E9, 0.0, 2022-09-19 17:31:52.137
182.0, -2838.604490590631, 10474.49683839045, -24367.782398197938, -46062.38556651898, -187500.02235174447, -187500.02235174447, 7272.989424823454, -20890.81208596374, 0.618, -0.78, 0.20600000000000002, 192.0, 0.0, 0.0, 0.0, 0.0, 0.0, 0.0, 0.0, 0.0, 0.0, 1.6635907121417189E9, 0.0, 2022-09-19 17:31:52.141
183.0, -2468.101974499461, 10543.094342123788, -23674.028953794117, -46054.13777281497, -187500.02235174447, -187500.02235174447, 7301.599657726248, -20204.971159097095, 0.618, -0.78, 0.20600000000000002, 192.0, 0.0, 0.0, 0.0, 0.0, 0.0, 0.0, 0.0, 0.0, 0.0, 1.663590712145657E9, 0.0, 2022-09-19 17:31:52.145
184.0, -2305.8730132428427, 10613.122357502265, -23900.80975303766, -45845.41718309131, -187500.02235174447, -187500.02235174447, 7440.068714626875, -20375.89494894683, 0.618, -0.78, 0.20600000000000002, 192.0, 0.0, 0.0, 0.0, 0.0, 0.0, 0.0, 0.0, 0.0, 0.0, 1.6635907121497655E9, 0.0, 2022-09-19 17:31:52.149
185.0, -2435.8037037615422, 10617.235078482043, -24565.86355756087, -45705.38350407881, -187500.02235174447, -187500.02235174447, 7520.937326066176, -20992.244302301922, 0.618, -0.78, 0.20600000000000002, 192.0, 0.0, 0.0, 0.0, 0.0, 0.0, 0.0, 0.0, 0.0, 0.0, 1.6635907121537628E9, 0.0, 2022-09-19 17:31:52.153
186.0, -2806.8650134640952, 10542.9378799126, -25170.612355543657, -45776.52910668005, -187500.02235174447, -187500.02235174447, 7460.341746847838, -21586.085448990518, 0.618, -0.78, 0.20600000000000002, 192.0, 0.0, 0.0, 0.0, 0.0, 0.0, 0.0, 0.0, 0.0, 0.0, 1.663590712158713E9, 0.0, 2022-09-19 17:31:52.158
187.0, -2821.6171648045975, 10511.55603069735, -24320.687272630606, -46065.380700275986, -187500.02235174447, -187500.02235174447, 7265.635700897658, -20856.435102991476, 0.618, -0.78, 0.20600000000000002, 192.0, 0.0, 0.0, 0.0, 0.0, 0.0, 0.0, 0.0, 0.0, 0.0, 1.6635907121617005E9, 0.0, 2022-09-19 17:31:52.161
188.0, -2460.077698240006, 10572.218665149054, -23671.771427604133, -46049.53331345717, -187500.02235174447, -187500.02235174447, 7297.576343724292, -20222.00318837204, 0.618, -0.78, 0.20600000000000002, 192.0, 0.0, 0.0, 0.0, 0.0, 0.0, 0.0, 0.0, 0.0, 0.0, 1.6635907121658213E9, 0.0, 2022-09-19 17:31:52.165
189.0, -2314.299620902493, 10630.757883877503, -23920.501639902788, -45843.271415623596, -187500.02235174447, -187500.02235174447, 7428.021124365464, -20385.059164173505, 0.62, -0.784, 0.196, 192.0, 19.0, 96.0, 231.0, 128.0, 6.0, 32.0, 0.0, 0.0, 0.0, 1.663590712169773E9, 0.0, 2022-09-19 17:31:52.169
190.0, -2459.6083116064447, 10628.545061176428, -24588.52822643855, -45706.05405641247, -187500.02235174447, -187500.02235174447, 7511.683703861679, -21006.325901308766, 0.62, -0.784, 0.196, 192.0, 0.0, 0.0, 0.0, 0.0, 0.0, 0.0, 0.0, 0.0, 0.0, 1.6635907121738083E9, 0.0, 2022-09-19 17:31:52.173
191.0, -2829.0379439637595, 10553.778475973426, -25158.92239319353, -45790.16367079779, -187500.02235174447, -187500.02235174447, 7441.365115805283, -21574.239024429207, 0.62, -0.784, 0.196, 192.0, 0.0, 0.0, 0.0, 0.0, 0.0, 0.0, 0.0, 0.0, 0.0, 1.663590712177836E9, 0.0, 2022-09-19 17:31:52.177
192.0, -2806.060350663704, 10532.633725718704, -24277.81662676533, -46078.657636482436, -187500.02235174447, -187500.02235174447, 7251.7105641020025, -20809.78701231325, 0.62, -0.784, 0.196, 192.0, 0.0, 0.0, 0.0, 0.0, 0.0, 0.0, 0.0, 0.0, 0.0, 1.6635907121818113E9, 0.0, 2022-09-19 17:31:52.181
193.0, -2433.9038054828416, 10602.505278885994, -23661.48962515469, -46049.26509252371, -187500.02235174447, -187500.02235174447, 7294.067119844809, -20196.52219969299, 0.62, -0.784, 0.196, 192.0, 0.0, 0.0, 0.0, 0.0, 0.0, 0.0, 0.0, 0.0, 0.0, 1.6635907121868076E9, 0.0, 2022-09-19 17:31:52.186
194.0, -2305.917716731753, 10662.25149181503, -23919.764032335763, -45845.46188658022, -187500.02235174447, -187500.02235174447, 7424.7577696749895, -20400.32540563648, 0.62, -0.784, 0.196, 192.0, 0.0, 0.0, 0.0, 0.0, 0.0, 0.0, 0.0, 0.0, 0.0, 1.663590712189796E9, 0.0, 2022-09-19 17:31:52.189
195.0, -2454.310948170537, 10661.200959825632, -24620.602979731917, -45711.37377159283, -187500.02235174447, -187500.02235174447, 7502.363026423815, -21045.486157594463, 0.62, -0.784, 0.196, 192.0, 0.0, 0.0, 0.0, 0.0, 0.0, 0.0, 0.0, 0.0, 0.0, 1.6635907121938212E9, 0.0, 2022-09-19 17:31:52.193
196.0, -2830.8484352646396, 10584.914455999668, -25157.9389164375, -45808.55915648451, -187500.02235174447, -187500.02235174447, 7423.260202796484, -21598.244797974206, 0.62, -0.784, 0.196, 192.0, 0.0, 0.0, 0.0, 0.0, 0.0, 0.0, 0.0, 0.0, 0.0, 1.6635907121978507E9, 0.0, 2022-09-19 17:31:52.197
197.0, -2812.922336211483, 10562.272138866441, -24244.31136182682, -46097.76837799173, -187500.02235174447, -187500.02235174447, 7234.700886571513, -20788.083468447145, 0.62, -0.784, 0.196, 192.0, 0.0, 0.0, 0.0, 0.0, 0.0, 0.0, 0.0, 0.0, 0.0, 1.6635907122018342E9, 0.0, 2022-09-19 17:31:52.201
198.0, -2444.0291457210956, 10635.474101957572, -23667.189319990794, -46052.01435709171, -187500.02235174447, -187500.02235174447, 7286.869858130201, -20203.004205585028, 0.62, -0.784, 0.196, 192.0, 0.0, 0.0, 0.0, 0.0, 0.0, 0.0, 0.0, 0.0, 0.0, 1.6635907122058296E9, 0.0, 2022-09-19 17:31:52.205
199.0, -2309.739865033611, 10699.891829477767, -23935.83493659913, -45845.6183487914, -187500.02235174447, -187500.02235174447, 7422.813167907378, -20417.357434911424, 0.62, -0.784, 0.196, 192.0, 0.0, 0.0, 0.0, 0.0, 0.0, 0.0, 0.0, 0.0, 0.0, 1.6635907122098503E9, 0.0, 2022-09-19 17:31:52.209
200.0, -2470.985349534196, 10698.058986432432, -24643.178241631776, -45711.30671635947, -187500.02235174447, -187500.02235174447, 7501.491308390058, -21072.97880327449, 0.626, -0.786, 0.20600000000000002, 192.0, 19.0, 144.0, 231.0, 112.0, 6.0, 112.0, 0.0, 0.0, 0.0, 1.6635907122148402E9, 0.0, 2022-09-19 17:31:52.214
201.0, -2840.839665036162, 10620.453729683606, -25140.817480184734, -45814.52707225407, -187500.02235174447, -187500.02235174447, 7416.286458526428, -21582.106838477474, 0.626, -0.786, 0.20600000000000002, 192.0, 0.0, 0.0, 0.0, 0.0, 0.0, 0.0, 0.0, 0.0, 0.0, 1.663590712217843E9, 0.0, 2022-09-19 17:31:52.217
202.0, -2797.1196528815813, 10601.09711898531, -24201.21719851699, -46100.16001464844, -187500.02235174447, -187500.02235174447, 7231.3481249032175, -20744.96695339286, 0.626, -0.786, 0.20600000000000002, 192.0, 0.0, 0.0, 0.0, 0.0, 0.0, 0.0, 0.0, 0.0, 0.0, 1.6635907122208312E9, 0.0, 2022-09-19 17:31:52.220
203.0, -2439.335279385481, 10671.236893086063, -23665.82586357902, -46049.555665201624, -187500.02235174447, -187500.02235174447, 7286.132250563175, -20199.98672008356, 0.626, -0.786, 0.20600000000000002, 192.0, 0.0, 0.0, 0.0, 0.0, 0.0, 0.0, 0.0, 0.0, 0.0, 1.6635907122258425E9, 0.0, 2022-09-19 17:31:52.225
204.0, -2329.945842021208, 10726.021018746022, -23948.26250651628, -45844.74663075765, -187500.02235174447, -187500.02235174447, 7417.627563193747, -20416.28455117757, 0.626, -0.786, 0.20600000000000002, 192.0, 0.0, 0.0, 0.0, 0.0, 0.0, 0.0, 0.0, 0.0, 0.0, 1.6635907122299073E9, 0.0, 2022-09-19 17:31:52.229
205.0, -2494.9687713347403, 10721.081283221398, -24673.241337924166, -45712.871338471334, -187500.02235174447, -187500.02235174447, 7490.606008840324, -21085.562835402827, 0.626, -0.786, 0.20600000000000002, 192.0, 0.0, 0.0, 0.0, 0.0, 0.0, 0.0, 0.0, 0.0, 0.0, 1.6635907122339768E9, 0.0, 2022-09-19 17:31:52.233
206.0, -2856.2623687103237, 10640.525596204472, -25134.87191615962, -45828.20633986072, -187500.02235174447, -187500.02235174447, 7393.398272204194, -21558.525748077125, 0.626, -0.786, 0.20600000000000002, 192.0, 0.0, 0.0, 0.0, 0.0, 0.0, 0.0, 0.0, 0.0, 0.0, 1.663590712237904E9, 0.0, 2022-09-19 17:31:52.237
207.0, -2787.508402765799, 10621.906593073201, -24168.851872545707, -46107.379628107505, -187500.02235174447, -187500.02235174447, 7214.159633417086, -20703.99620580628, 0.626, -0.786, 0.20600000000000002, 192.0, 0.0, 0.0, 0.0, 0.0, 0.0, 0.0, 0.0, 0.0, 0.0, 1.6635907122419033E9, 0.0, 2022-09-19 17:31:52.241
208.0, -2426.326564112492, 10692.985140441078, -23667.97163104673, -46042.49251395375, -187500.02235174447, -187500.02235174447, 7282.220695283497, -20186.70978387711, 0.626, -0.786, 0.20600000000000002, 192.0, 0.0, 0.0, 0.0, 0.0, 0.0, 0.0, 0.0, 0.0, 0.0, 1.663590712245834E9, 0.0, 2022-09-19 17:31:52.245
209.0, -2325.9001762747976, 10746.897548067278, -23969.51901549328, -45837.50466555413, -187500.02235174447, -187500.02235174447, 7406.675208410646, -20428.37684492789, 0.626, -0.786, 0.20600000000000002, 192.0, 0.0, 0.0, 0.0, 0.0, 0.0, 0.0, 0.0, 0.0, 0.0, 1.663590712248928E9, 0.0, 2022-09-19 17:31:52.248
210.0, -2508.6703906858434, 10734.492329894583, -24709.719384875225, -45711.641992526296, -187500.02235174447, -187500.02235174447, 7475.317415632894, -21113.144888060677, 0.628, -0.78, 0.20800000000000002, 192.0, 19.0, 160.0, 231.0, 160.0, 6.0, 128.0, 0.0, 0.0, 0.0, 1.6635907122539277E9, 0.0, 2022-09-19 17:31:52.253
211.0, -2858.385784433578, 10660.329241791875, -25118.465735729427, -45837.99640393215, -187500.02235174447, -187500.02235174447, 7375.472173151037, -21559.866852744442, 0.628, -0.78, 0.20800000000000002, 192.0, 0.0, 0.0, 0.0, 0.0, 0.0, 0.0, 0.0, 0.0, 0.0, 1.6635907122579143E9, 0.0, 2022-09-19 17:31:52.257
212.0, -2767.0789083336485, 10650.516825975994, -24127.747014492397, -46111.69351478738, -187500.02235174447, -187500.02235174447, 7201.799118733302, -20687.791191076183, 0.628, -0.78, 0.20800000000000002, 192.0, 0.0, 0.0, 0.0, 0.0, 0.0, 0.0, 0.0, 0.0, 0.0, 1.6635907122619228E9, 0.0, 2022-09-19 17:31:52.261
213.0, -2413.1837383727716, 10720.433082632195, -23668.083389769006, -46035.1164382835, -187500.02235174447, -187500.02235174447, 7275.403413224628, -20198.064470060406, 0.628, -0.78, 0.20800000000000002, 192.0, 0.0, 0.0, 0.0, 0.0, 0.0, 0.0, 0.0, 0.0, 0.0, 1.663590712265938E9, 0.0, 2022-09-19 17:31:52.265
214.0, -2322.2568419285826, 10774.926635614233, -23982.058344132703, -45832.7660957296, -187500.02235174447, -187500.02235174447, 7403.031874064431, -20442.23492649018, 0.628, -0.78, 0.20800000000000002, 192.0, 0.0, 0.0, 0.0, 0.0, 0.0, 0.0, 0.0, 0.0, 0.0, 1.6635907122699485E9, 0.0, 2022-09-19 17:31:52.269
215.0, -2516.3817425229245, 10766.231807021119, -24738.888411389402, -45713.20661463817, -187500.02235174447, -187500.02235174447, 7470.087107430352, -21147.074836143835, 0.628, -0.78, 0.20800000000000002, 192.0, 0.0, 0.0, 0.0, 0.0, 0.0, 0.0, 0.0, 0.0, 0.0, 1.6635907122739055E9, 0.0, 2022-09-19 17:31:52.273
216.0, -2876.75891837584, 10688.40303282774, -25104.808819867234, -45851.2733401386, -187500.02235174447, -187500.02235174447, 7362.195236944585, -21535.816375710532, 0.628, -0.78, 0.20800000000000002, 192.0, 0.0, 0.0, 0.0, 0.0, 0.0, 0.0, 0.0, 0.0, 0.0, 1.6635907122769125E9, 0.0, 2022-09-19 17:31:52.276
217.0, -2775.0808328486482, 10682.189247869164, -24093.459438497954, -46116.76736077874, -187500.02235174447, -187500.02235174447, 7197.060548908777, -20637.74563524075, 0.628, -0.78, 0.20800000000000002, 192.0, 0.0, 0.0, 0.0, 0.0, 0.0, 0.0, 0.0, 0.0, 0.0, 1.6635907122819755E9, 0.0, 2022-09-19 17:31:52.281
218.0, -2417.9893634306627, 10760.107429040365, -23668.53042465811, -46024.45465617832, -187500.02235174447, -187500.02235174447, 7280.253741771429, -20179.691336118143, 0.628, -0.78, 0.20800000000000002, 192.0, 0.0, 0.0, 0.0, 0.0, 0.0, 0.0, 0.0, 0.0, 0.0, 1.663590712285988E9, 0.0, 2022-09-19 17:31:52.285
219.0, -2331.979850766641, 10817.707874501692, -23991.423725059478, -45818.34922055593, -187500.02235174447, -187500.02235174447, 7406.496394455004, -20439.06097877753, 0.628, -0.78, 0.20800000000000002, 192.0, 0.0, 0.0, 0.0, 0.0, 0.0, 0.0, 0.0, 0.0, 0.0, 1.6635907122899773E9, 0.0, 2022-09-19 17:31:52.289
220.0, -2533.2796613311366, 10802.553391760992, -24762.067170389557, -45698.74503597558, -187500.02235174447, -187500.02235174447, 7472.925778976176, -21154.987353681012, 0.622, -0.78, 0.20600000000000002, 192.0, 19.0, 112.0, 231.0, 160.0, 6.0, 112.0, 0.0, 0.0, 0.0, 1.6635907122939763E9, 0.0, 2022-09-19 17:31:52.293
221.0, -2876.2671799978234, 10721.88594602179, -25087.463866169914, -45852.435630850276, -187500.02235174447, -187500.02235174447, 7353.12042869573, -21513.464631255225, 0.622, -0.78, 0.20600000000000002, 192.0, 0.0, 0.0, 0.0, 0.0, 0.0, 0.0, 0.0, 0.0, 0.0, 1.663590712297959E9, 0.0, 2022-09-19 17:31:52.297
222.0, -2750.4715622033555, 10718.35437039785, -24064.089246283682, -46119.203700924365, -187500.02235174447, -187500.02235174447, 7188.3210168267515, -20598.227751043767, 0.622, -0.78, 0.20600000000000002, 192.0, 0.0, 0.0, 0.0, 0.0, 0.0, 0.0, 0.0, 0.0, 0.0, 1.6635907123020444E9, 0.0, 2022-09-19 17:31:52.302
223.0, -2402.633714989867, 10793.009196878576, -23678.02991605162, -46023.44882767783, -187500.02235174447, -187500.02235174447, 7277.169201036597, -20191.38129846827, 0.622, -0.78, 0.20600000000000002, 192.0, 0.0, 0.0, 0.0, 0.0, 0.0, 0.0, 0.0, 0.0, 0.0, 1.663590712304996E9, 0.0, 2022-09-19 17:31:52.304
224.0, -2325.050809985496, 10848.48622661665, -24017.75408002783, -45822.104313624426, -187500.02235174447, -187500.02235174447, 7400.707292641079, -20471.649822193365, 0.622, -0.78, 0.20600000000000002, 192.0, 0.0, 0.0, 0.0, 0.0, 0.0, 0.0, 0.0, 0.0, 0.0, 1.6635907123089545E9, 0.0, 2022-09-19 17:31:52.308
225.0, -2537.370030566458, 10833.979944465154, -24803.32849065405, -45712.603117537874, -187500.02235174447, -187500.02235174447, 7459.402973580715, -21208.162153740188, 0.622, -0.78, 0.20600000000000002, 192.0, 0.0, 0.0, 0.0, 0.0, 0.0, 0.0, 0.0, 0.0, 0.0, 1.6635907123140292E9, 0.0, 2022-09-19 17:31:52.314
226.0, -2878.010616065337, 10761.046202307487, -25072.15292121803, -45874.519154372116, -187500.02235174447, -187500.02235174447, 7336.5354343098925, -21503.987491606178, 0.622, -0.78, 0.20600000000000002, 192.0, 0.0, 0.0, 0.0, 0.0, 0.0, 0.0, 0.0, 0.0, 0.0, 1.663590712318031E9, 0.0, 2022-09-19 17:31:52.318
227.0, -2733.9536230508834, 10767.304690754974, -24033.24383893536, -46126.9374045059, -187500.02235174447, -187500.02235174447, 7177.592179488204, -20550.037389998128, 0.622, -0.78, 0.20600000000000002, 192.0, 0.0, 0.0, 0.0, 0.0, 0.0, 0.0, 0.0, 0.0, 0.0, 1.663590712321998E9, 0.0, 2022-09-19 17:31:52.321
228.0, -2392.0166363735957, 10843.814712025489, -23685.182474277317, -46012.943507783835, -187500.02235174447, -187500.02235174447, 7270.2625119999075, -20178.529045406467, 0.622, -0.78, 0.20600000000000002, 192.0, 0.0, 0.0, 0.0, 0.0, 0.0, 0.0, 0.0, 0.0, 0.0, 1.6635907123260224E9, 0.0, 2022-09-19 17:31:52.326
229.0, -2327.755371064588, 10893.122660293897, -24035.166088958515, -45813.58829898695, -187500.02235174447, -187500.02235174447, 7391.453670436582, -20489.173589846327, 0.622, -0.78, 0.20600000000000002, 192.0, 0.0, 0.0, 0.0, 0.0, 0.0, 0.0, 0.0, 0.0, 0.0, 1.6635907123300412E9, 0.0, 2022-09-19 17:31:52.330
230.0, -2555.005556941695, 10873.587235639958, -24832.363406701497, -45708.266879113544, -187500.02235174447, -187500.02235174447, 7450.864607198788, -21231.050340062422, 0.622, -0.782, 0.2, 192.0, 19.0, 112.0, 231.0, 144.0, 6.0, 64.0, 0.0, 0.0, 0.0, 1.663590712332996E9, 0.0, 2022-09-19 17:31:52.332
231.0, -2890.281723771301, 10796.80899343598, -25044.43675809345, -45884.1304044879, -187500.02235174447, -187500.02235174447, 7323.303201592351, -21489.59296817696, 0.622, -0.782, 0.2, 192.0, 0.0, 0.0, 0.0, 0.0, 0.0, 0.0, 0.0, 0.0, 0.0, 1.6635907123370645E9, 0.0, 2022-09-19 17:31:52.337
232.0, -2720.2296519553247, 10805.548525518005, -23988.02625990227, -46129.10552371806, -187500.02235174447, -187500.02235174447, 7179.626188233637, -20539.17444219285, 0.622, -0.782, 0.2, 192.0, 0.0, 0.0, 0.0, 0.0, 0.0, 0.0, 0.0, 0.0, 0.0, 1.6635907123420424E9, 0.0, 2022-09-19 17:31:52.342
233.0, -2375.94573211023, 10888.317035236007, -23679.25926199666, -46008.65197284841, -187500.02235174447, -187500.02235174447, 7282.220695283497, -20192.700051391133, 0.622, -0.782, 0.2, 192.0, 0.0, 0.0, 0.0, 0.0, 0.0, 0.0, 0.0, 0.0, 0.0, 1.6635907123460193E9, 0.0, 2022-09-19 17:31:52.346
234.0, -2321.3627721503703, 10937.669686993324, -24036.574248859197, -45816.94106065525, -187500.02235174447, -187500.02235174447, 7405.08823455432, -20510.363043589958, 0.622, -0.782, 0.2, 192.0, 0.0, 0.0, 0.0, 0.0, 0.0, 0.0, 0.0, 0.0, 0.0, 1.6635907123500152E9, 0.0, 2022-09-19 17:31:52.350
235.0, -2558.134801165438, 10908.746529668157, -24839.985351560754, -45721.633222297816, -187500.02235174447, -187500.02235174447, 7459.559435791903, -21267.1707591022, 0.622, -0.782, 0.2, 192.0, 0.0, 0.0, 0.0, 0.0, 0.0, 0.0, 0.0, 0.0, 0.0, 1.6635907123540697E9, 0.0, 2022-09-19 17:31:52.354
236.0, -2890.5275929603094, 10830.202499652207, -25010.19388558792, -45904.40343670886, -187500.02235174447, -187500.02235174447, 7320.822157957811, -21467.129464999376, 0.622, -0.782, 0.2, 192.0, 0.0, 0.0, 0.0, 0.0, 0.0, 0.0, 0.0, 0.0, 0.0, 1.6635907123580613E9, 0.0, 2022-09-19 17:31:52.358
237.0, -2714.6864193304086, 10836.773912522069, -23952.710503662885, -46140.08023024562, -187500.02235174447, -187500.02235174447, 7177.882752166123, -20517.605008793475, 0.622, -0.782, 0.2, 192.0, 0.0, 0.0, 0.0, 0.0, 0.0, 0.0, 0.0, 0.0, 0.0, 1.6635907123610396E9, 0.0, 2022-09-19 17:31:52.361
238.0, -2388.172136327283, 10912.568677970014, -23679.30396548557, -46009.90367053791, -187500.02235174447, -187500.02235174447, 7279.627892926681, -20203.875923618787, 0.622, -0.782, 0.2, 192.0, 0.0, 0.0, 0.0, 0.0, 0.0, 0.0, 0.0, 0.0, 0.0, 1.6635907123650756E9, 0.0, 2022-09-19 17:31:52.365
239.0, -2345.569711395468, 10958.07682968102, -24048.71124609843, -45816.40461878832, -187500.02235174447, -187500.02235174447, 7401.400196719193, -20515.369834347945, 0.622, -0.782, 0.2, 192.0, 0.0, 0.0, 0.0, 0.0, 0.0, 0.0, 0.0, 0.0, 0.0, 1.663590712370068E9, 0.0, 2022-09-19 17:31:52.370
240.0, -2586.7897375571415, 10933.109931124442, -24861.420674493394, -45719.64391704129, -187500.02235174447, -187500.02235174447, 7459.693546258634, -21274.502131283538, 0.62, -0.782, 0.198, 192.0, 19.0, 96.0, 231.0, 144.0, 6.0, 48.0, 0.0, 0.0, 0.0, 1.6635907123740993E9, 0.0, 2022-09-19 17:31:52.374
241.0, -2902.7763489218178, 10856.935186020755, -24981.80717012968, -45912.71828564624, -187500.02235174447, -187500.02235174447, 7316.68708523358, -21440.843813519932, 0.62, -0.782, 0.198, 192.0, 0.0, 0.0, 0.0, 0.0, 0.0, 0.0, 0.0, 0.0, 0.0, 1.6635907123782809E9, 0.0, 2022-09-19 17:31:52.378
242.0, -2709.5231663612326, 10868.669851859791, -23925.30726496068, -46137.15215172197, -187500.02235174447, -187500.02235174447, 7178.1062696106765, -20473.95205187226, 0.62, -0.782, 0.198, 192.0, 0.0, 0.0, 0.0, 0.0, 0.0, 0.0, 0.0, 0.0, 0.0, 1.6635907123811314E9, 0.0, 2022-09-19 17:31:52.381
243.0, -2384.528801981068, 10945.7833702306, -23685.048363810583, -45990.18943192833, -187500.02235174447, -187500.02235174447, 7288.255666286429, -20177.724382606077, 0.62, -0.782, 0.198, 192.0, 0.0, 0.0, 0.0, 0.0, 0.0, 0.0, 0.0, 0.0, 0.0, 1.6635907123850968E9, 0.0, 2022-09-19 17:31:52.385
244.0, -2342.1945979827165, 10990.822135308044, -24074.460455710945, -45795.28222027805, -187500.02235174447, -187500.02235174447, 7402.853060108789, -20518.812002994062, 0.62, -0.782, 0.198, 192.0, 0.0, 0.0, 0.0, 0.0, 0.0, 0.0, 0.0, 0.0, 0.0, 1.6635907123891492E9, 0.0, 2022-09-19 17:31:52.389
245.0, -2595.0822347500607, 10958.725030270223, -24906.34768084856, -45707.52927154652, -187500.02235174447, -187500.02235174447, 7447.556549019403, -21301.97242521911, 0.62, -0.782, 0.198, 192.0, 0.0, 0.0, 0.0, 0.0, 0.0, 0.0, 0.0, 0.0, 0.0, 1.6635907123931038E9, 0.0, 2022-09-19 17:31:52.393
246.0, -2902.709293688452, 10884.696052634246, -24965.579803655124, -45911.623050167924, -187500.02235174447, -187500.02235174447, 7296.145832079153, -21417.03920567503, 0.62, -0.782, 0.198, 192.0, 0.0, 0.0, 0.0, 0.0, 0.0, 0.0, 0.0, 0.0, 0.0, 1.663590712398195E9, 0.0, 2022-09-19 17:31:52.398
247.0, -2683.5280875597105, 10903.024483087598, -23895.91472100195, -46126.37861089452, -187500.02235174447, -187500.02235174447, 7170.909007896067, -20449.543946927064, 0.62, -0.782, 0.198, 192.0, 0.0, 0.0, 0.0, 0.0, 0.0, 0.0, 0.0, 0.0, 0.0, 1.6635907124021564E9, 0.0, 2022-09-19 17:31:52.402
248.0, -2368.703766906711, 10979.690966569302, -23698.817038395053, -45984.31092313659, -187500.02235174447, -187500.02235174447, 7281.997177838944, -20216.99639761405, 0.62, -0.782, 0.198, 192.0, 0.0, 0.0, 0.0, 0.0, 0.0, 0.0, 0.0, 0.0, 0.0, 1.6635907124061797E9, 0.0, 2022-09-19 17:31:52.406
249.0, -2339.9147200482753, 11027.188423536829, -24088.497351228878, -45796.86919413438, -187500.02235174447, -187500.02235174447, 7399.723815885046, -20543.533032361633, 0.62, -0.782, 0.198, 192.0, 0.0, 0.0, 0.0, 0.0, 0.0, 0.0, 0.0, 0.0, 0.0, 1.6635907124091039E9, 0.0, 2022-09-19 17:31:52.409
250.0, -2595.2386969612476, 11001.059234268574, -24909.387518094485, -45704.914117445245, -187500.02235174447, -187500.02235174447, 7446.506017030003, -21298.954939717645, 0.62, -0.786, 0.202, 192.0, 19.0, 96.0, 231.0, 112.0, 6.0, 80.0, 0.0, 0.0, 0.0, 1.6635907124131243E9, 0.0, 2022-09-19 17:31:52.413
251.0, -2892.4945464723764, 10931.92528866831, -24916.02598619771, -45915.065218814045, -187500.02235174447, -187500.02235174447, 7287.048672085843, -21378.12481857834, 0.62, -0.786, 0.202, 192.0, 0.0, 0.0, 0.0, 0.0, 0.0, 0.0, 0.0, 0.0, 0.0, 1.6635907124171543E9, 0.0, 2022-09-19 17:31:52.417
252.0, -2673.2462851102696, 10953.31590811204, -23857.96145891684, -46124.36695389354, -187500.02235174447, -187500.02235174447, 7165.298720037785, -20414.630522087875, 0.62, -0.786, 0.202, 192.0, 0.0, 0.0, 0.0, 0.0, 0.0, 0.0, 0.0, 0.0, 0.0, 1.6635907124211428E9, 0.0, 2022-09-19 17:31:52.421
253.0, -2361.6406156588337, 11028.641286926424, -23693.69848891479, -45973.515030564675, -187500.02235174447, -187500.02235174447, 7279.806706882323, -20191.7165746351, 0.62, -0.786, 0.202, 192.0, 0.0, 0.0, 0.0, 0.0, 0.0, 0.0, 0.0, 0.0, 0.0, 1.663590712425132E9, 0.0, 2022-09-19 17:31:52.425
254.0, -2337.6124903693785, 11069.410868812904, -24107.518685760344, -45791.39301674283, -187500.02235174447, -187500.02235174447, 7393.778251859934, -20559.715695347273, 0.62, -0.786, 0.202, 192.0, 0.0, 0.0, 0.0, 0.0, 0.0, 0.0, 0.0, 0.0, 0.0, 1.6635907124301536E9, 0.0, 2022-09-19 17:31:52.430
255.0, -2606.70514186682, 11030.89881311641, -24937.50601261926, -45717.40874259576, -187500.02235174447, -187500.02235174447, 7437.118284358774, -21337.824623325425, 0.62, -0.786, 0.202, 192.0, 0.0, 0.0, 0.0, 0.0, 0.0, 0.0, 0.0, 0.0, 0.0, 1.663590712434182E9, 0.0, 2022-09-19 17:31:52.434
0.0, -2891.66753192753, 10956.892187224888, -24891.17084636341, -45943.36252729446, -187500.02235174447, -187500.02235174447, 7276.163372536108, -21351.03450429851, 0.62, -0.786, 0.202, 192.0, 0.0, 0.0, 0.0, 0.0, 0.0, 0.0, 0.0, 0.0, 0.0, 1.6635907124371417E9, 0.0, 2022-09-19 17:31:52.437
1.0, -2645.3960115189566, 10982.59669334849, -23833.039263849172, -46138.11327673355, -187500.02235174447, -187500.02235174447, 7167.869170650145, -20382.08638216095, 0.62, -0.786, 0.202, 192.0, 0.0, 0.0, 0.0, 0.0, 0.0, 0.0, 0.0, 0.0, 0.0, 1.6635907124411545E9, 0.0, 2022-09-19 17:31:52.441
2.0, -2342.7980950830097, 11060.850150686521, -23698.749983161688, -45977.89597247791, -187500.02235174447, -187500.02235174447, 7287.607465697225, -20195.158743281216, 0.62, -0.786, 0.202, 192.0, 0.0, 0.0, 0.0, 0.0, 0.0, 0.0, 0.0, 0.0, 0.0, 1.663590712445155E9, 0.0, 2022-09-19 17:31:52.445
3.0, -2334.885577545831, 11099.451613360836, -24129.289284859813, -45795.30457202251, -187500.02235174447, -187500.02235174447, 7394.381748960227, -20566.756494850695, 0.62, -0.786, 0.202, 192.0, 0.0, 0.0, 0.0, 0.0, 0.0, 0.0, 0.0, 0.0, 0.0, 1.663590712449181E9, 0.0, 2022-09-19 17:31:52.449
4.0, -2615.847005349041, 11061.543054764636, -24975.772199126746, -45722.750809520585, -187500.02235174447, -187500.02235174447, 7429.026952865953, -21351.861518843358, 0.622, -0.782, 0.202, 192.0, 19.0, 112.0, 231.0, 144.0, 6.0, 80.0, 0.0, 0.0, 0.0, 1.6635907124532635E9, 0.0, 2022-09-19 17:31:52.453
5.0, -2886.2584097693457, 10991.112707985963, -24876.619860723004, -45954.225475099745, -187500.02235174447, -187500.02235174447, 7260.5171514173935, -21320.479669628105, 0.622, -0.782, 0.202, 192.0, 0.0, 0.0, 0.0, 0.0, 0.0, 0.0, 0.0, 0.0, 0.0, 1.663590712458178E9, 0.0, 2022-09-19 17:31:52.458
6.0, -2631.4038194899344, 11020.393493222415, -23830.737034170277, -46139.23086395632, -187500.02235174447, -187500.02235174447, 7151.5747489422265, -20356.82891092645, 0.622, -0.782, 0.202, 192.0, 0.0, 0.0, 0.0, 0.0, 0.0, 0.0, 0.0, 0.0, 0.0, 1.6635907124621925E9, 0.0, 2022-09-19 17:31:52.462
7.0, -2344.2286067281493, 11095.942389481354, -23726.913181175376, -45969.35760609598, -187500.02235174447, -187500.02235174447, 7273.168238779097, -20189.03436530046, 0.622, -0.782, 0.202, 192.0, 0.0, 0.0, 0.0, 0.0, 0.0, 0.0, 0.0, 0.0, 0.0, 1.663590712465207E9, 0.0, 2022-09-19 17:31:52.465
8.0, -2340.5629206374792, 11134.163872499928, -24164.336820165732, -45786.25211551811, -187500.02235174447, -187500.02235174447, 7381.305978453873, -20579.251120001212, 0.622, -0.782, 0.202, 192.0, 0.0, 0.0, 0.0, 0.0, 0.0, 0.0, 0.0, 0.0, 0.0, 1.6635907124692602E9, 0.0, 2022-09-19 17:31:52.469
9.0, -2625.681772909376, 11090.466212089803, -24999.979138371844, -45717.67696352923, -187500.02235174447, -187500.02235174447, 7416.018237592964, -21369.117065562852, 0.622, -0.782, 0.202, 192.0, 0.0, 0.0, 0.0, 0.0, 0.0, 0.0, 0.0, 0.0, 0.0, 1.663590712473254E9, 0.0, 2022-09-19 17:31:52.473
10.0, -2884.6937876574743, 11015.99019956472, -24840.365331216497, -45958.76287922417, -187500.02235174447, -187500.02235174447, 7246.390848921639, -21286.50501805604, 0.622, -0.782, 0.202, 192.0, 0.0, 0.0, 0.0, 0.0, 0.0, 0.0, 0.0, 0.0, 0.0, 1.6635907124772365E9, 0.0, 2022-09-19 17:31:52.477
11.0, -2611.6001739025323, 11048.511987747192, -23799.489295421758, -46130.49133187429, -187500.02235174447, -187500.02235174447, 7152.021783831333, -20332.666675170265, 0.622, -0.782, 0.202, 192.0, 0.0, 0.0, 0.0, 0.0, 0.0, 0.0, 0.0, 0.0, 0.0, 1.6635907124812803E9, 0.0, 2022-09-19 17:31:52.481
12.0, -2331.823388555454, 11127.771273585711, -23729.148355620906, -45957.10885013448, -187500.02235174447, -187500.02235174447, 7277.638587670159, -20213.800098156942, 0.622, -0.782, 0.202, 192.0, 0.0, 0.0, 0.0, 0.0, 0.0, 0.0, 0.0, 0.0, 0.0, 1.6635907124862657E9, 0.0, 2022-09-19 17:31:52.486
13.0, -2346.7543538515993, 11163.958747858853, -24181.21238722949, -45779.099557292415, -187500.02235174447, -187500.02235174447, 7381.08246100932, -20605.64853020293, 0.622, -0.782, 0.202, 192.0, 0.0, 0.0, 0.0, 0.0, 0.0, 0.0, 0.0, 0.0, 0.0, 1.6635907124903057E9, 0.0, 2022-09-19 17:31:52.490
14.0, -2652.8614941670294, 11114.695503079356, -25021.257999093297, -45717.989887951604, -187500.02235174447, -187500.02235174447, 7404.149461287197, -21386.551426237995, 0.622, -0.784, 0.202, 192.0, 19.0, 112.0, 231.0, 128.0, 6.0, 80.0, 0.0, 0.0, 0.0, 1.6635907124932837E9, 0.0, 2022-09-19 17:31:52.493
15.0, -2894.260334284346, 11041.605298710501, -24810.123420968466, -45967.12243165045, -187500.02235174447, -187500.02235174447, 7227.5930318347255, -21258.36417178681, 0.622, -0.784, 0.202, 192.0, 0.0, 0.0, 0.0, 0.0, 0.0, 0.0, 0.0, 0.0, 0.0, 1.6635907124973614E9, 0.0, 2022-09-19 17:31:52.497
16.0, -2612.8965750809402, 11076.138743893951, -23793.655490118923, -46134.581701109615, -187500.02235174447, -187500.02235174447, 7135.302678978763, -20316.998102307094, 0.622, -0.784, 0.202, 192.0, 0.0, 0.0, 0.0, 0.0, 0.0, 0.0, 0.0, 0.0, 0.0, 1.6635907125012932E9, 0.0, 2022-09-19 17:31:52.501
17.0, -2341.635804371334, 11157.454390222358, -23746.046274429118, -45958.137030379425, -187500.02235174447, -187500.02235174447, 7266.8650468427, -20204.09944106334, 0.622, -0.784, 0.202, 192.0, 0.0, 0.0, 0.0, 0.0, 0.0, 0.0, 0.0, 0.0, 0.0, 1.6635907125052533E9, 0.0, 2022-09-19 17:31:52.505
18.0, -2355.8515138449093, 11194.40182380698, -24205.2628642634, -45778.026673558554, -187500.02235174447, -187500.02235174447, 7373.8628475502555, -20602.69809993483, 0.622, -0.784, 0.202, 192.0, 0.0, 0.0, 0.0, 0.0, 0.0, 0.0, 0.0, 0.0, 0.0, 1.6635907125092583E9, 0.0, 2022-09-19 17:31:52.509
19.0, -2659.455258781345, 11144.7809511162, -25042.916839470487, -45725.92475723324, -187500.02235174447, -187500.02235174447, 7394.314693726861, -21396.788525198524, 0.622, -0.784, 0.202, 192.0, 0.0, 0.0, 0.0, 0.0, 0.0, 0.0, 0.0, 0.0, 0.0, 1.6635907125143964E9, 0.0, 2022-09-19 17:31:52.514
20.0, -2889.09708131517, 11074.596473526535, -24780.417952587362, -45984.17681266985, -187500.02235174447, -187500.02235174447, 7213.556136316793, -21225.10477603731, 0.622, -0.784, 0.202, 192.0, 0.0, 0.0, 0.0, 0.0, 0.0, 0.0, 0.0, 0.0, 0.0, 1.663590712518314E9, 0.0, 2022-09-19 17:31:52.518
21.0, -2597.4291679178677, 11109.711064065823, -23762.854786259508, -46133.48646563131, -187500.02235174447, -187500.02235174447, 7137.783722613302, -20283.962224002153, 0.622, -0.784, 0.202, 192.0, 0.0, 0.0, 0.0, 0.0, 0.0, 0.0, 0.0, 0.0, 0.0, 1.6635907125212817E9, 0.0, 2022-09-19 17:31:52.521
22.0, -2337.2325107136385, 11184.924684157932, -23748.661428530388, -45947.005861640675, -187500.02235174447, -187500.02235174447, 7268.116744532197, -20207.18398179817, 0.622, -0.784, 0.202, 192.0, 0.0, 0.0, 0.0, 0.0, 0.0, 0.0, 0.0, 0.0, 0.0, 1.6635907125253348E9, 0.0, 2022-09-19 17:31:52.525
23.0, -2363.048775559518, 11219.994571208308, -24231.392053531654, -45770.47178393266, -187500.02235174447, -187500.02235174447, 7368.319614925339, -20639.578478286086, 0.622, -0.784, 0.202, 192.0, 0.0, 0.0, 0.0, 0.0, 0.0, 0.0, 0.0, 0.0, 0.0, 1.6635907125293896E9, 0.0, 2022-09-19 17:31:52.529
24.0, -2676.0849566560933, 11169.457276994859, -25061.692304812947, -45730.8421410134, -187500.02235174447, -187500.02235174447, 7380.724833098035, -21423.655322033803, 0.618, -0.786, 0.198, 192.0, 19.0, 80.0, 231.0, 112.0, 6.0, 48.0, 0.0, 0.0, 0.0, 1.6635907125333748E9, 0.0, 2022-09-19 17:31:52.533
25.0, -2886.19135453598, 11107.34177915356, -24737.703768933272, -45991.77640578466, -187500.02235174447, -187500.02235174447, 7196.0100169193765, -21188.49261861952, 0.618, -0.786, 0.198, 192.0, 0.0, 0.0, 0.0, 0.0, 0.0, 0.0, 0.0, 0.0, 0.0, 1.6635907125375555E9, 0.0, 2022-09-19 17:31:52.537
26.0, -2581.93940901034, 11149.228948262806, -23753.04237044363, -46127.138570206, -187500.02235174447, -187500.02235174447, 7123.12097825062, -20269.05361045046, 0.618, -0.786, 0.198, 192.0, 0.0, 0.0, 0.0, 0.0, 0.0, 0.0, 0.0, 0.0, 0.0, 1.6635907125413487E9, 0.0, 2022-09-19 17:31:52.541
27.0, -2327.978888509141, 11228.331771890136, -23763.99472522673, -45937.66283245836, -187500.02235174447, -187500.02235174447, 7258.796067094335, -20225.4230052737, 0.618, -0.786, 0.198, 192.0, 0.0, 0.0, 0.0, 0.0, 0.0, 0.0, 0.0, 0.0, 0.0, 1.6635907125463886E9, 0.0, 2022-09-19 17:31:52.546
28.0, -2356.2538452451045, 11259.870083316575, -24252.402693319644, -45763.96742629617, -187500.02235174447, -187500.02235174447, 7362.55286485587, -20661.86316750803, 0.618, -0.786, 0.198, 192.0, 0.0, 0.0, 0.0, 0.0, 0.0, 0.0, 0.0, 0.0, 0.0, 1.6635907125494113E9, 0.0, 2022-09-19 17:31:52.549
29.0, -2676.844915967574, 11206.337655346115, -25075.997421264343, -45730.12688519083, -187500.02235174447, -187500.02235174447, 7373.460516150059, -21456.512386383103, 0.618, -0.786, 0.198, 192.0, 0.0, 0.0, 0.0, 0.0, 0.0, 0.0, 0.0, 0.0, 0.0, 1.6635907125534284E9, 0.0, 2022-09-19 17:31:52.553
30.0, -2879.28466549929, 11146.278517994704, -24701.44923942676, -45997.92313550987, -187500.02235174447, -187500.02235174447, 7185.974083658944, -21168.018420698456, 0.618, -0.786, 0.198, 192.0, 0.0, 0.0, 0.0, 0.0, 0.0, 0.0, 0.0, 0.0, 0.0, 1.6635907125574186E9, 0.0, 2022-09-19 17:31:52.557
31.0, -2560.526437822156, 11196.413480807958, -23730.668274243864, -46119.337811391095, -187500.02235174447, -187500.02235174447, 7123.3444956951735, -20248.19943287366, 0.618, -0.786, 0.198, 192.0, 0.0, 0.0, 0.0, 0.0, 0.0, 0.0, 0.0, 0.0, 0.0, 1.663590712561389E9, 0.0, 2022-09-19 17:31:52.561
32.0, -2312.6455918128004, 11272.32000497818, -23767.4592456173, -45925.50348347468, -187500.02235174447, -187500.02235174447, 7256.203264737519, -20216.124679580294, 0.618, -0.786, 0.198, 192.0, 0.0, 0.0, 0.0, 0.0, 0.0, 0.0, 0.0, 0.0, 0.0, 1.663590712565402E9, 0.0, 2022-09-19 17:31:52.565
33.0, -2361.6853191477444, 11289.732013908866, -24272.362801118234, -45757.61953087086, -187500.02235174447, -187500.02235174447, 7354.9085682521545, -20671.206196690346, 0.618, -0.786, 0.198, 192.0, 0.0, 0.0, 0.0, 0.0, 0.0, 0.0, 0.0, 0.0, 0.0, 1.6635907125695157E9, 0.0, 2022-09-19 17:31:52.569
34.0, -2699.3978261229786, 11221.514489831268, -25088.469694670403, -45738.195864939196, -187500.02235174447, -187500.02235174447, 7355.914396752643, -21455.573613115983, 0.618, -0.786, 0.20400000000000001, 192.0, 19.0, 80.0, 231.0, 112.0, 6.0, 96.0, 0.0, 0.0, 0.0, 1.6635907125744195E9, 0.0, 2022-09-19 17:31:52.574
35.0, -2884.0008835793597, 11155.040401821185, -24662.490148841163, -46013.16702522839, -187500.02235174447, -187500.02235174447, 7164.918740382045, -21123.672559699127, 0.618, -0.786, 0.20400000000000001, 192.0, 0.0, 0.0, 0.0, 0.0, 0.0, 0.0, 0.0, 0.0, 0.0, 1.663590712577394E9, 0.0, 2022-09-19 17:31:52.577
36.0, -2548.6353097719325, 11209.198678636394, -23712.56336123507, -46115.761532278244, -187500.02235174447, -187500.02235174447, 7110.782815311291, -20226.697054707653, 0.618, -0.786, 0.20400000000000001, 192.0, 0.0, 0.0, 0.0, 0.0, 0.0, 0.0, 0.0, 0.0, 0.0, 1.663590712581422E9, 0.0, 2022-09-19 17:31:52.581
37.0, -2308.9575539776747, 11294.247066288837, -23776.176425954873, -45912.695933901785, -187500.02235174447, -187500.02235174447, 7247.419029166584, -20226.09355760736, 0.618, -0.786, 0.20400000000000001, 192.0, 0.0, 0.0, 0.0, 0.0, 0.0, 0.0, 0.0, 0.0, 0.0, 1.6635907125854309E9, 0.0, 2022-09-19 17:31:52.585
38.0, -2362.825258114965, 11321.560898013222, -24299.408411909153, -45746.98010051013, -187500.02235174447, -187500.02235174447, 7347.778361770912, -20706.81252560765, 0.618, -0.786, 0.20400000000000001, 192.0, 0.0, 0.0, 0.0, 0.0, 0.0, 0.0, 0.0, 0.0, 0.0, 1.6635907125895028E9, 0.0, 2022-09-19 17:31:52.589
39.0, -2708.092654716093, 11255.690307103432, -25103.24419775536, -45740.52044636255, -187500.02235174447, -187500.02235174447, 7339.128236666708, -21478.35004071594, 0.618, -0.786, 0.20400000000000001, 192.0, 0.0, 0.0, 0.0, 0.0, 0.0, 0.0, 0.0, 0.0, 0.0, 1.6635907125934472E9, 0.0, 2022-09-19 17:31:52.593
40.0, -2877.384767220589, 11192.770146461744, -24623.843982677936, -46024.96874630079, -187500.02235174447, -187500.02235174447, 7142.74580988238, -21088.26739648192, 0.618, -0.786, 0.20400000000000001, 192.0, 0.0, 0.0, 0.0, 0.0, 0.0, 0.0, 0.0, 0.0, 0.0, 1.663590712597607E9, 0.0, 2022-09-19 17:31:52.597
41.0, -2532.3855915529243, 11243.732123819844, -23695.285462771113, -46118.62255556852, -187500.02235174447, -187500.02235174447, 7108.234716443386, -20213.017787101006, 0.618, -0.786, 0.20400000000000001, 192.0, 0.0, 0.0, 0.0, 0.0, 0.0, 0.0, 0.0, 0.0, 0.0, 1.6635907126015053E9, 0.0, 2022-09-19 17:31:52.601
42.0, -2302.4308445967254, 11315.257706076825, -23782.770190569187, -45922.821274140035, -187500.02235174447, -187500.02235174447, 7246.949642533022, -20235.838918189875, 0.618, -0.786, 0.20400000000000001, 192.0, 0.0, 0.0, 0.0, 0.0, 0.0, 0.0, 0.0, 0.0, 0.0, 1.6635907126045136E9, 0.0, 2022-09-19 17:31:52.604
43.0, -2368.793173884532, 11338.48116856589, -24318.496801673988, -45761.70990010618, -187500.02235174447, -187500.02235174447, 7347.0407542038865, -20725.744453161296, 0.618, -0.786, 0.20400000000000001, 192.0, 0.0, 0.0, 0.0, 0.0, 0.0, 0.0, 0.0, 0.0, 0.0, 1.6635907126085937E9, 0.0, 2022-09-19 17:31:52.608
44.0, -2717.905070531973, 11275.583359668655, -25106.842828612665, -45757.32895819294, -187500.02235174447, -187500.02235174447, 7337.921242466122, -21486.664889653315, 0.618, -0.786, 0.20400000000000001, 192.0, 0.0, 0.0, 0.0, 0.0, 0.0, 0.0, 0.0, 0.0, 0.0, 1.6635907126135647E9, 0.0, 2022-09-19 17:31:52.613
45.0, -2866.275950226301, 11217.98291420733, -24587.745915382617, -46046.11349655551, -187500.02235174447, -187500.02235174447, 7139.236586002897, -21073.470541652507, 0.626, -0.776, 0.194, 192.0, 19.0, 144.0, 231.0, 192.0, 6.0, 16.0, 0.0, 0.0, 0.0, 1.6635907126175265E9, 0.0, 2022-09-19 17:31:52.617
46.0, -2529.16694035136, 11266.37444095307, -23700.314605273557, -46132.74885806428, -187500.02235174447, -187500.02235174447, 7103.339684407674, -20219.008054615028, 0.626, -0.776, 0.194, 192.0, 0.0, 0.0, 0.0, 0.0, 0.0, 0.0, 0.0, 0.0, 0.0, 1.6635907126215518E9, 0.0, 2022-09-19 17:31:52.621
47.0, -2316.624202325845, 11334.122578397106, -23806.53009492518, -45933.77362892314, -187500.02235174447, -187500.02235174447, 7240.601747107715, -20266.863139493842, 0.626, -0.776, 0.194, 192.0, 0.0, 0.0, 0.0, 0.0, 0.0, 0.0, 0.0, 0.0, 0.0, 1.6635907126255283E9, 0.0, 2022-09-19 17:31:52.625
48.0, -2389.2897235500486, 11352.339250128181, -24365.457816774586, -45770.96352231068, -187500.02235174447, -187500.02235174447, 7333.003858685954, -20778.896901476015, 0.626, -0.776, 0.194, 192.0, 0.0, 0.0, 0.0, 0.0, 0.0, 0.0, 0.0, 0.0, 0.0, 1.66359071262865E9, 0.0, 2022-09-19 17:31:52.628
49.0, -2727.1810444809253, 11288.6144266861, -25137.35295979416, -45768.39307169832, -187500.02235174447, -187500.02235174447, 7320.0398469018755, -21507.83199165249, 0.626, -0.776, 0.194, 192.0, 0.0, 0.0, 0.0, 0.0, 0.0, 0.0, 0.0, 0.0, 0.0, 1.663590712632632E9, 0.0, 2022-09-19 17:31:52.632
50.0, -2856.240016965868, 11234.657315570988, -24559.448606902195, -46053.690737925856, -187500.02235174447, -187500.02235174447, 7124.596193384671, -21038.333599368765, 0.626, -0.776, 0.194, 192.0, 0.0, 0.0, 0.0, 0.0, 0.0, 0.0, 0.0, 0.0, 0.0, 1.6635907126366313E9, 0.0, 2022-09-19 17:31:52.636
51.0, -2515.979411122729, 11287.765060396798, -23699.129962817427, -46120.36599163604, -187500.02235174447, -187500.02235174447, 7093.9743034809, -20196.5669031819, 0.626, -0.776, 0.194, 192.0, 0.0, 0.0, 0.0, 0.0, 0.0, 0.0, 0.0, 0.0, 0.0, 1.6635907126415892E9, 0.0, 2022-09-19 17:31:52.641
52.0, -2311.416245867759, 11359.447104864968, -23818.510629953224, -45916.741599648194, -187500.02235174447, -187500.02235174447, 7233.806816793302, -20262.996287703074, 0.626, -0.776, 0.194, 192.0, 0.0, 0.0, 0.0, 0.0, 0.0, 0.0, 0.0, 0.0, 0.0, 1.6635907126456752E9, 0.0, 2022-09-19 17:31:52.645
53.0, -2391.5472497400347, 11376.277968439814, -24387.697802507617, -45758.267731460066, -187500.02235174447, -187500.02235174447, 7329.025248172909, -20789.11164869209, 0.626, -0.776, 0.194, 192.0, 0.0, 0.0, 0.0, 0.0, 0.0, 0.0, 0.0, 0.0, 0.0, 1.6635907126496477E9, 0.0, 2022-09-19 17:31:52.649
54.0, -2738.871006831051, 11309.043921118251, -25133.910791148042, -45770.58354265494, -187500.02235174447, -187500.02235174447, 7309.623933985703, -21508.68135794179, 0.626, -0.776, 0.194, 192.0, 0.0, 0.0, 0.0, 0.0, 0.0, 0.0, 0.0, 0.0, 0.0, 1.6635907126536372E9, 0.0, 2022-09-19 17:31:52.653
55.0, -2852.797848319751, 11255.869121059075, -24507.391394065788, -46061.26797929621, -187500.02235174447, -187500.02235174447, 7111.0733879892105, -20989.427982500554, 0.628, -0.774, 0.188, 192.0, 19.0, 160.0, 231.0, 208.0, 5.0, 224.0, 0.0, 0.0, 0.0, 1.6635907126576383E9, 0.0, 2022-09-19 17:31:52.657
56.0, -2501.428425482324, 11316.598810744144, -23680.466256197247, -46117.41556136794, -187500.02235174447, -187500.02235174447, 7089.816879012214, -20186.84389434384, 0.628, -0.774, 0.188, 192.0, 0.0, 0.0, 0.0, 0.0, 0.0, 0.0, 0.0, 0.0, 0.0, 1.663590712660566E9, 0.0, 2022-09-19 17:31:52.660
57.0, -2301.268553885049, 11388.996111034885, -23834.38036851649, -45915.981640336715, -187500.02235174447, -187500.02235174447, 7227.14599694562, -20274.082752952905, 0.628, -0.774, 0.188, 192.0, 0.0, 0.0, 0.0, 0.0, 0.0, 0.0, 0.0, 0.0, 0.0, 1.6635907126646051E9, 0.0, 2022-09-19 17:31:52.664
58.0, -2386.0263688595737, 11401.244866996392, -24419.88431452326, -45762.15693499529, -187500.02235174447, -187500.02235174447, 7321.604469013748, -20809.49643963533, 0.628, -0.774, 0.188, 192.0, 0.0, 0.0, 0.0, 0.0, 0.0, 0.0, 0.0, 0.0, 0.0, 1.6635907126696255E9, 0.0, 2022-09-19 17:31:52.669
59.0, -2742.3355272216236, 11328.177014371993, -25157.022494914832, -45791.460071976195, -187500.02235174447, -187500.02235174447, 7287.093375574753, -21515.20806732274, 0.628, -0.774, 0.188, 192.0, 0.0, 0.0, 0.0, 0.0, 0.0, 0.0, 0.0, 0.0, 0.0, 1.663590712673596E9, 0.0, 2022-09-19 17:31:52.673
60.0, -2839.8785400245833, 11278.04205155874, -24489.487646757087, -46087.44187205337, -187500.02235174447, -187500.02235174447, 7083.759556264825, -20952.972287293946, 0.628, -0.774, 0.188, 192.0, 0.0, 0.0, 0.0, 0.0, 0.0, 0.0, 0.0, 0.0, 0.0, 1.66359071267759E9, 0.0, 2022-09-19 17:31:52.677
61.0, -2479.6801781273102, 11339.419941833014, -23679.125151529926, -46129.77607605173, -187500.02235174447, -187500.02235174447, 7084.3630533651185, -20186.84389434384, 0.628, -0.774, 0.188, 192.0, 0.0, 0.0, 0.0, 0.0, 0.0, 0.0, 0.0, 0.0, 0.0, 1.663590712681687E9, 0.0, 2022-09-19 17:31:52.681
62.0, -2295.3229898599375, 11408.419776966546, -23846.00327563325, -45925.30231777458, -187500.02235174447, -187500.02235174447, 7227.660087068091, -20292.05355549497, 0.628, -0.774, 0.188, 192.0, 0.0, 0.0, 0.0, 0.0, 0.0, 0.0, 0.0, 0.0, 0.0, 1.6635907126847243E9, 0.0, 2022-09-19 17:31:52.684
63.0, -2395.436453275258, 11420.154442805582, -24444.851213079837, -45772.12581302236, -187500.02235174447, -187500.02235174447, 7319.235184101485, -20835.782091114772, 0.628, -0.774, 0.188, 192.0, 0.0, 0.0, 0.0, 0.0, 0.0, 0.0, 0.0, 0.0, 0.0, 1.6635907126886067E9, 0.0, 2022-09-19 17:31:52.688
64.0, -2757.802934384696, 11349.254709393348, -25143.611448241645, -45799.48434823565, -187500.02235174447, -187500.02235174447, 7284.232352284474, -21510.31303528703, 0.628, -0.774, 0.188, 192.0, 0.0, 0.0, 0.0, 0.0, 0.0, 0.0, 0.0, 0.0, 0.0, 1.6635907126926303E9, 0.0, 2022-09-19 17:31:52.692
65.0, -2834.1788451884804, 11308.641589718056, -24430.32257918389, -46089.274715098705, -187500.02235174447, -187500.02235174447, 7085.145364421054, -20909.833420495204, 0.62, -0.78, 0.196, 192.0, 19.0, 96.0, 231.0, 160.0, 6.0, 32.0, 0.0, 0.0, 0.0, 1.6635907126976433E9, 0.0, 2022-09-19 17:31:52.697
66.0, -2480.9095240723523, 11377.507314384857, -23665.02120077863, -46115.94034623389, -187500.02235174447, -187500.02235174447, 7090.487431345872, -20171.309431947404, 0.62, -0.78, 0.196, 192.0, 0.0, 0.0, 0.0, 0.0, 0.0, 0.0, 0.0, 0.0, 0.0, 1.6635907127016551E9, 0.0, 2022-09-19 17:31:52.701
67.0, -2303.950763219686, 11447.468274529967, -23859.414322306435, -45911.80186412357, -187500.02235174447, -187500.02235174447, 7220.418121864573, -20304.16820098975, 0.62, -0.78, 0.196, 192.0, 0.0, 0.0, 0.0, 0.0, 0.0, 0.0, 0.0, 0.0, 0.0, 1.6635907127057414E9, 0.0, 2022-09-19 17:31:52.705
68.0, -2413.4743110506906, 11450.753980964897, -24480.993983864068, -45765.3532344524, -187500.02235174447, -187500.02235174447, 7306.472338017505, -20868.549748486254, 0.62, -0.78, 0.196, 192.0, 0.0, 0.0, 0.0, 0.0, 0.0, 0.0, 0.0, 0.0, 0.0, 1.6635907127106764E9, 0.0, 2022-09-19 17:31:52.710
69.0, -2781.8757631630615, 11371.651157337566, -25160.732884494413, -45812.06838036399, -187500.02235174447, -187500.02235174447, 7262.841732840745, -21527.233305839694, 0.62, -0.78, 0.196, 192.0, 0.0, 0.0, 0.0, 0.0, 0.0, 0.0, 0.0, 0.0, 0.0, 1.6635907127137542E9, 0.0, 2022-09-19 17:31:52.713
70.0, -2841.890197025561, 11331.462720806923, -24405.668605049683, -46105.34561936207, -187500.02235174447, -187500.02235174447, 7066.436954311962, -20897.51760930033, 0.62, -0.78, 0.196, 192.0, 0.0, 0.0, 0.0, 0.0, 0.0, 0.0, 0.0, 0.0, 0.0, 1.6635907127176895E9, 0.0, 2022-09-19 17:31:52.717
71.0, -2477.400300192869, 11403.100061786183, -23673.648974138378, -46115.69447704488, -187500.02235174447, -187500.02235174447, 7084.318349876207, -20174.259862215506, 0.62, -0.78, 0.196, 192.0, 0.0, 0.0, 0.0, 0.0, 0.0, 0.0, 0.0, 0.0, 0.0, 1.6635907127217388E9, 0.0, 2022-09-19 17:31:52.721
72.0, -2315.350152891893, 11470.870550974674, -23883.308337129158, -45907.66679139934, -187500.02235174447, -187500.02235174447, 7218.250002652408, -20306.179857990726, 0.62, -0.78, 0.196, 192.0, 0.0, 0.0, 0.0, 0.0, 0.0, 0.0, 0.0, 0.0, 0.0, 1.6635907127247355E9, 0.0, 2022-09-19 17:31:52.724
73.0, -2433.4120671048245, 11479.163048167593, -24516.153277892266, -45761.21816172817, -187500.02235174447, -187500.02235174447, 7305.466509517016, -20893.427240065008, 0.62, -0.78, 0.196, 192.0, 0.0, 0.0, 0.0, 0.0, 0.0, 0.0, 0.0, 0.0, 0.0, 1.6635907127287257E9, 0.0, 2022-09-19 17:31:52.728
74.0, -2798.4607575488994, 11405.089367042705, -25160.241146116394, -45818.2151100892, -187500.02235174447, -187500.02235174447, 7254.929215303567, -21530.004922152155, 0.62, -0.78, 0.196, 192.0, 0.0, 0.0, 0.0, 0.0, 0.0, 0.0, 0.0, 0.0, 0.0, 1.6635907127327259E9, 0.0, 2022-09-19 17:31:52.732
75.0, -2828.8144265192063, 11372.679337582511, -24362.261517317478, -46112.766398521235, -187500.02235174447, -187500.02235174447, 7059.172637363987, -20841.03475106177, 0.618, -0.782, 0.196, 192.0, 19.0, 80.0, 231.0, 144.0, 6.0, 32.0, 0.0, 0.0, 0.0, 1.6635907127367303E9, 0.0, 2022-09-19 17:31:52.736
76.0, -2466.112669242939, 11445.16604485107, -23670.184453747806, -46114.15220667746, -187500.02235174447, -187500.02235174447, 7077.992806195356, -20147.258954913494, 0.618, -0.782, 0.196, 192.0, 0.0, 0.0, 0.0, 0.0, 0.0, 0.0, 0.0, 0.0, 0.0, 1.6635907127418008E9, 0.0, 2022-09-19 17:31:52.741
77.0, -2313.5173098465575, 11515.194060229547, -23893.43367736741, -45909.07495130002, -187500.02235174447, -187500.02235174447, 7211.052740937798, -20304.123497500837, 0.618, -0.782, 0.196, 192.0, 0.0, 0.0, 0.0, 0.0, 0.0, 0.0, 0.0, 0.0, 0.0, 1.663590712745715E9, 0.0, 2022-09-19 17:31:52.745
78.0, -2439.134113685383, 11523.195984744547, -24544.249420672586, -45762.805135584495, -187500.02235174447, -187500.02235174447, 7295.028244856388, -20907.061804182747, 0.618, -0.782, 0.196, 192.0, 0.0, 0.0, 0.0, 0.0, 0.0, 0.0, 0.0, 0.0, 0.0, 1.663590712749783E9, 0.0, 2022-09-19 17:31:52.749
79.0, -2808.921373953983, 11442.819111683264, -25159.704704249467, -45831.9167294403, -187500.02235174447, -187500.02235174447, 7236.332563916751, -21517.68911095728, 0.618, -0.782, 0.196, 192.0, 0.0, 0.0, 0.0, 0.0, 0.0, 0.0, 0.0, 0.0, 0.0, 1.6635907127527752E9, 0.0, 2022-09-19 17:31:52.752
80.0, -2827.9874119743604, 11406.497526943389, -24325.53760117741, -46124.434009126904, -187500.02235174447, -187500.02235174447, 7041.872387155579, -20796.375965640065, 0.618, -0.782, 0.196, 192.0, 0.0, 0.0, 0.0, 0.0, 0.0, 0.0, 0.0, 0.0, 0.0, 1.663590712756746E9, 0.0, 2022-09-19 17:31:52.756
81.0, -2462.0893552409834, 11482.672272047075, -23662.987192033197, -46105.36797110653, -187500.02235174447, -187500.02235174447, 7075.534114305272, -20138.07238794236, 0.618, -0.782, 0.196, 192.0, 0.0, 0.0, 0.0, 0.0, 0.0, 0.0, 0.0, 0.0, 0.0, 1.663590712760857E9, 0.0, 2022-09-19 17:31:52.760
82.0, -2316.1995191811943, 11551.783865902886, -23901.50265711578, -45893.182860992296, -187500.02235174447, -187500.02235174447, 7209.6892845260245, -20320.3955674643, 0.618, -0.782, 0.196, 192.0, 0.0, 0.0, 0.0, 0.0, 0.0, 0.0, 0.0, 0.0, 0.0, 1.663590712764792E9, 0.0, 2022-09-19 17:31:52.764
83.0, -2454.981500504196, 11554.42137174861, -24569.752761096093, -45749.036461000025, -187500.02235174447, -187500.02235174447, 7289.619122698203, -20939.561240620762, 0.618, -0.782, 0.196, 192.0, 0.0, 0.0, 0.0, 0.0, 0.0, 0.0, 0.0, 0.0, 0.0, 1.6635907127688015E9, 0.0, 2022-09-19 17:31:52.768
84.0, -2820.633688048564, 11472.457524831001, -25145.466643031436, -45827.31227008251, -187500.02235174447, -187500.02235174447, 7222.966220732477, -21517.711462701736, 0.618, -0.782, 0.196, 192.0, 0.0, 0.0, 0.0, 0.0, 0.0, 0.0, 0.0, 0.0, 0.0, 1.663590712773795E9, 0.0, 2022-09-19 17:31:52.773
85.0, -2818.13029266957, 11441.030972126839, -24277.86133025424, -46120.03071546921, -187500.02235174447, -187500.02235174447, 7030.920032372479, -20767.363401337076, 0.616, -0.788, 0.202, 192.0, 19.0, 64.0, 231.0, 96.0, 6.0, 80.0, 0.0, 0.0, 0.0, 1.6635907127778463E9, 0.0, 2022-09-19 17:31:52.777
86.0, -2449.080639967995, 11520.826699832285, -23655.052322751562, -46094.19209887888, -187500.02235174447, -187500.02235174447, 7077.992806195356, -20143.03447521144, 0.616, -0.788, 0.202, 192.0, 0.0, 0.0, 0.0, 0.0, 0.0, 0.0, 0.0, 0.0, 0.0, 1.6635907127807813E9, 0.0, 2022-09-19 17:31:52.780
87.0, -2318.144120948806, 11583.143363373681, -23909.236360697316, -45889.763044090636, -187500.02235174447, -187500.02235174447, 7212.304438627296, -20339.573364206954, 0.616, -0.788, 0.202, 192.0, 0.0, 0.0, 0.0, 0.0, 0.0, 0.0, 0.0, 0.0, 0.0, 1.6635907127848284E9, 0.0, 2022-09-19 17:31:52.784
88.0, -2466.8055733210535, 11574.515590013933, -24602.431011489753, -45757.03838551502, -187500.02235174447, -187500.02235174447, 7286.959265108021, -20974.318203248764, 0.616, -0.788, 0.202, 192.0, 0.0, 0.0, 0.0, 0.0, 0.0, 0.0, 0.0, 0.0, 0.0, 1.6635907127888231E9, 0.0, 2022-09-19 17:31:52.788
89.0, -2831.4295806204773, 11494.809269286308, -25146.69598897648, -45849.775773260095, -187500.02235174447, -187500.02235174447, 7210.292781626318, -21519.901933658355, 0.616, -0.788, 0.202, 192.0, 0.0, 0.0, 0.0, 0.0, 0.0, 0.0, 0.0, 0.0, 0.0, 1.6635907127928522E9, 0.0, 2022-09-19 17:31:52.792
90.0, -2800.830042461162, 11470.89290271913, -24241.89737342565, -46141.13076223502, -187500.02235174447, -187500.02235174447, 7027.410808492996, -20744.944601648403, 0.616, -0.788, 0.202, 192.0, 0.0, 0.0, 0.0, 0.0, 0.0, 0.0, 0.0, 0.0, 0.0, 1.6635907127968802E9, 0.0, 2022-09-19 17:31:52.796
91.0, -2435.915462483819, 11543.357258243235, -23656.77340707462, -46106.15028216247, -187500.02235174447, -187500.02235174447, 7077.746937006347, -20158.121902718773, 0.616, -0.788, 0.202, 192.0, 0.0, 0.0, 0.0, 0.0, 0.0, 0.0, 0.0, 0.0, 0.0, 1.66359071280187E9, 0.0, 2022-09-19 17:31:52.801
92.0, -2316.400684881292, 11605.29394212889, -23928.3471022066, -45901.74357911868, -187500.02235174447, -187500.02235174447, 7204.57073504576, -20354.75019869211, 0.616, -0.788, 0.202, 192.0, 0.0, 0.0, 0.0, 0.0, 0.0, 0.0, 0.0, 0.0, 0.0, 1.6635907128058672E9, 0.0, 2022-09-19 17:31:52.805
93.0, -2465.2856546980925, 11602.410567094155, -24625.810936190002, -45762.62632162885, -187500.02235174447, -187500.02235174447, 7283.494744717449, -20984.845874887214, 0.616, -0.788, 0.202, 192.0, 0.0, 0.0, 0.0, 0.0, 0.0, 0.0, 0.0, 0.0, 0.0, 1.6635907128088293E9, 0.0, 2022-09-19 17:31:52.808
94.0, -2821.5501095712316, 11523.106577766726, -25123.53958172078, -45860.1246309429, -187500.02235174447, -187500.02235174447, 7206.895316469111, -21507.720232930213, 0.616, -0.788, 0.202, 192.0, 0.0, 0.0, 0.0, 0.0, 0.0, 0.0, 0.0, 0.0, 0.0, 1.663590712812843E9, 0.0, 2022-09-19 17:31:52.812
95.0, -2787.061367876693, 11500.620722844687, -24202.714765395496, -46146.383422182014, -187500.02235174447, -187500.02235174447, 7015.609087420594, -20698.60943539255, 0.614, -0.784, 0.194, 192.0, 19.0, 48.0, 231.0, 128.0, 6.0, 16.0, 0.0, 0.0, 0.0, 1.6635907128169272E9, 0.0, 2022-09-19 17:31:52.816
96.0, -2430.0593054365286, 11575.76728770343, -23665.177662989816, -46093.40978782294, -187500.02235174447, -187500.02235174447, 7064.626463011082, -20145.26964965697, 0.614, -0.784, 0.194, 192.0, 0.0, 0.0, 0.0, 0.0, 0.0, 0.0, 0.0, 0.0, 0.0, 1.663590712820904E9, 0.0, 2022-09-19 17:31:52.820
97.0, -2310.209251667172, 11640.87791930174, -23942.272239002257, -45885.3821021774, -187500.02235174447, -187500.02235174447, 7203.251982122896, -20372.385725067346, 0.614, -0.784, 0.194, 192.0, 0.0, 0.0, 0.0, 0.0, 0.0, 0.0, 0.0, 0.0, 0.0, 1.6635907128248975E9, 0.0, 2022-09-19 17:31:52.824
98.0, -2481.8706490839304, 11631.40077965269, -24656.321067371497, -45753.372699424355, -187500.02235174447, -187500.02235174447, 7281.304273760828, -21028.096500408235, 0.614, -0.784, 0.194, 192.0, 0.0, 0.0, 0.0, 0.0, 0.0, 0.0, 0.0, 0.0, 0.0, 1.663590712829923E9, 0.0, 2022-09-19 17:31:52.829
99.0, -2850.6520808520418, 11547.268813522913, -25116.81170663973, -45868.931218258294, -187500.02235174447, -187500.02235174447, 7192.411386062073, -21503.29458752806, 0.614, -0.784, 0.194, 192.0, 0.0, 0.0, 0.0, 0.0, 0.0, 0.0, 0.0, 0.0, 0.0, 1.6635907128339417E9, 0.0, 2022-09-19 17:31:52.833
100.0, -2787.6425132325307, 11534.036580805372, -24162.280459675847, -46153.312462963164, -187500.02235174447, -187500.02235174447, 7012.301029241208, -20660.969097729816, 0.614, -0.784, 0.194, 192.0, 0.0, 0.0, 0.0, 0.0, 0.0, 0.0, 0.0, 0.0, 0.0, 1.6635907128369465E9, 0.0, 2022-09-19 17:31:52.836
101.0, -2424.761942000621, 11620.984866736517, -23655.76757857413, -46085.854898197045, -187500.02235174447, -187500.02235174447, 7073.522457304294, -20144.196765923116, 0.614, -0.784, 0.194, 192.0, 0.0, 0.0, 0.0, 0.0, 0.0, 0.0, 0.0, 0.0, 0.0, 1.6635907128409212E9, 0.0, 2022-09-19 17:31:52.840
102.0, -2322.9497460066973, 11683.726213422564, -23951.92819260695, -45879.88357304139, -187500.02235174447, -187500.02235174447, 7201.687360011025, -20379.113600148394, 0.614, -0.784, 0.194, 192.0, 0.0, 0.0, 0.0, 0.0, 0.0, 0.0, 0.0, 0.0, 0.0, 1.663590712844916E9, 0.0, 2022-09-19 17:31:52.844
103.0, -2499.7967481370865, 11676.21602728558, -24679.79039904957, -45750.24345520061, -187500.02235174447, -187500.02235174447, 7280.209038282519, -21057.198471689044, 0.614, -0.784, 0.194, 192.0, 0.0, 0.0, 0.0, 0.0, 0.0, 0.0, 0.0, 0.0, 0.0, 1.6635907128488965E9, 0.0, 2022-09-19 17:31:52.848
104.0, -2870.3439677171673, 11588.798354720873, -25102.372479721605, -45879.347131174465, -187500.02235174447, -187500.02235174447, 7178.441545777506, -21511.184753320784, 0.614, -0.784, 0.194, 192.0, 0.0, 0.0, 0.0, 0.0, 0.0, 0.0, 0.0, 0.0, 0.0, 1.6635907128530047E9, 0.0, 2022-09-19 17:31:52.853
105.0, -2784.893248664528, 11579.075345882815, -24122.986092923416, -46160.66618688896, -187500.02235174447, -187500.02235174447, 7002.645075636516, -20650.441426091365, 0.618, -0.782, 0.198, 192.0, 19.0, 80.0, 231.0, 144.0, 6.0, 48.0, 0.0, 0.0, 0.0, 1.6635907128579197E9, 0.0, 2022-09-19 17:31:52.857
106.0, -2422.0350291770733, 11661.68739338963, -23665.512939156644, -46089.16295637643, -187500.02235174447, -187500.02235174447, 7068.314500846208, -20158.88186203025, 0.618, -0.782, 0.198, 192.0, 0.0, 0.0, 0.0, 0.0, 0.0, 0.0, 0.0, 0.0, 0.0, 1.6635907128619123E9, 0.0, 2022-09-19 17:31:52.861
107.0, -2322.167434950761, 11725.501623809532, -23969.340201537634, -45887.997256278664, -187500.02235174447, -187500.02235174447, 7195.428871563539, -20405.37689988338, 0.618, -0.782, 0.198, 192.0, 0.0, 0.0, 0.0, 0.0, 0.0, 0.0, 0.0, 0.0, 0.0, 1.663590712864938E9, 0.0, 2022-09-19 17:31:52.864
108.0, -2515.0629896000614, 11714.616324259798, -24705.092573772978, -45763.9003710628, -187500.02235174447, -187500.02235174447, 7271.603616667226, -21096.78341111939, 0.618, -0.782, 0.198, 192.0, 0.0, 0.0, 0.0, 0.0, 0.0, 0.0, 0.0, 0.0, 0.0, 1.6635907128689158E9, 0.0, 2022-09-19 17:31:52.868
109.0, -2870.4333746949883, 11632.496015130999, -25075.617441608603, -45898.72609361722, -187500.02235174447, -187500.02235174447, 7169.836124162212, -21487.089572797966, 0.618, -0.782, 0.198, 192.0, 0.0, 0.0, 0.0, 0.0, 0.0, 0.0, 0.0, 0.0, 0.0, 1.6635907128729205E9, 0.0, 2022-09-19 17:31:52.872
110.0, -2767.056556589193, 11624.315276660356, -24083.937595359996, -46170.098623049096, -187500.02235174447, -187500.02235174447, 6997.772395345259, -20603.480410990767, 0.618, -0.782, 0.198, 192.0, 0.0, 0.0, 0.0, 0.0, 0.0, 0.0, 0.0, 0.0, 0.0, 1.6635907128769703E9, 0.0, 2022-09-19 17:31:52.876
111.0, -2414.077808150984, 11700.020635130482, -23656.236965207692, -46084.625552252, -187500.02235174447, -187500.02235174447, 7079.44566958495, -20159.84298704183, 0.618, -0.782, 0.198, 192.0, 0.0, 0.0, 0.0, 0.0, 0.0, 0.0, 0.0, 0.0, 0.0, 1.663590712881019E9, 0.0, 2022-09-19 17:31:52.881
112.0, -2325.117865218862, 11758.403391647744, -23980.3596115541, -45887.304352200554, -187500.02235174447, -187500.02235174447, 7204.9507147015, -20429.51678389511, 0.618, -0.782, 0.198, 192.0, 0.0, 0.0, 0.0, 0.0, 0.0, 0.0, 0.0, 0.0, 0.0, 1.663590712885006E9, 0.0, 2022-09-19 17:31:52.885
113.0, -2530.0610101295724, 11746.758132786528, -24739.80483291207, -45766.29200771952, -187500.02235174447, -187500.02235174447, 7277.415070225606, -21131.808594680857, 0.618, -0.782, 0.198, 192.0, 0.0, 0.0, 0.0, 0.0, 0.0, 0.0, 0.0, 0.0, 0.0, 1.6635907128899572E9, 0.0, 2022-09-19 17:31:52.889
114.0, -2882.3021510007566, 11659.54162592192, -25062.519319357794, -45911.73480889021, -187500.02235174447, -187500.02235174447, 7166.952749127478, -21489.369450732407, 0.618, -0.782, 0.198, 192.0, 0.0, 0.0, 0.0, 0.0, 0.0, 0.0, 0.0, 0.0, 0.0, 1.6635907128930502E9, 0.0, 2022-09-19 17:31:52.893
115.0, -2756.4618297173774, 11659.318108477368, -24051.013475777327, -46180.69334992091, -187500.02235174447, -187500.02235174447, 6995.850145322102, -20595.366727753488, 0.624, -0.776, 0.202, 192.0, 19.0, 128.0, 231.0, 192.0, 6.0, 80.0, 0.0, 0.0, 0.0, 1.6635907128971143E9, 0.0, 2022-09-19 17:31:52.897
116.0, -2406.2770493360817, 11749.015658976516, -23658.24862220867, -46084.20086910735, -187500.02235174447, -187500.02235174447, 7078.417489340007, -20154.500920117014, 0.624, -0.776, 0.202, 192.0, 0.0, 0.0, 0.0, 0.0, 0.0, 0.0, 0.0, 0.0, 0.0, 1.6635907129009936E9, 0.0, 2022-09-19 17:31:52.900
117.0, -2331.309298432982, 11807.554877704964, -23998.196303629436, -45882.31991318702, -187500.02235174447, -187500.02235174447, 7198.021673920354, -20427.5721821275, 0.624, -0.776, 0.202, 192.0, 0.0, 0.0, 0.0, 0.0, 0.0, 0.0, 0.0, 0.0, 0.0, 1.6635907129049826E9, 0.0, 2022-09-19 17:31:52.904
118.0, -2541.1474753794046, 11791.595732163874, -24778.495702564207, -45765.39793794131, -187500.02235174447, -187500.02235174447, 7257.00792753791, -21148.348885577787, 0.624, -0.776, 0.202, 192.0, 0.0, 0.0, 0.0, 0.0, 0.0, 0.0, 0.0, 0.0, 0.0, 1.66359071290899E9, 0.0, 2022-09-19 17:31:52.908
119.0, -2888.0465493257702, 11706.681454978163, -25052.326923886172, -45921.99425959519, -187500.02235174447, -187500.02235174447, 7139.616565658637, -21464.24608996464, 0.624, -0.776, 0.202, 192.0, 0.0, 0.0, 0.0, 0.0, 0.0, 0.0, 0.0, 0.0, 0.0, 1.66359071291305E9, 0.0, 2022-09-19 17:31:52.913
120.0, -2747.074097046149, 11708.760167212507, -24023.90080975304, -46180.55923945418, -187500.02235174447, -187500.02235174447, 6978.348729413597, -20551.669067343362, 0.624, -0.776, 0.202, 192.0, 0.0, 0.0, 0.0, 0.0, 0.0, 0.0, 0.0, 0.0, 0.0, 1.6635907129179857E9, 0.0, 2022-09-19 17:31:52.917
121.0, -2402.1643283563053, 11795.753156632562, -23669.64801188088, -46070.78982243417, -187500.02235174447, -187500.02235174447, 7067.800410723736, -20163.59808011032, 0.624, -0.776, 0.202, 192.0, 0.0, 0.0, 0.0, 0.0, 0.0, 0.0, 0.0, 0.0, 0.0, 1.663590712921082E9, 0.0, 2022-09-19 17:31:52.921
122.0, -2331.55516762199, 11854.784113739028, -24022.112670196613, -45872.351035159954, -187500.02235174447, -187500.02235174447, 7187.181077859531, -20462.642069177877, 0.624, -0.776, 0.202, 192.0, 0.0, 0.0, 0.0, 0.0, 0.0, 0.0, 0.0, 0.0, 0.0, 1.663590712925064E9, 0.0, 2022-09-19 17:31:52.925
123.0, -2552.2786441181474, 11831.404189038776, -24809.408165145895, -45762.53691465103, -187500.02235174447, -187500.02235174447, 7244.602709365215, -21184.245787173008, 0.624, -0.776, 0.202, 192.0, 0.0, 0.0, 0.0, 0.0, 0.0, 0.0, 0.0, 0.0, 0.0, 1.6635907129290397E9, 0.0, 2022-09-19 17:31:52.929
124.0, -2893.321561017223, 11747.093408953358, -25027.04710090722, -45929.01270735416, -187500.02235174447, -187500.02235174447, 7125.110283507143, -21445.872956022376, 0.624, -0.776, 0.202, 192.0, 0.0, 0.0, 0.0, 0.0, 0.0, 0.0, 0.0, 0.0, 0.0, 1.6635907129330912E9, 0.0, 2022-09-19 17:31:52.933
125.0, -2747.074097046149, 11751.429647377689, -23995.268225105792, -46180.291018520715, -187500.02235174447, -187500.02235174447, 6963.104839695077, -20517.40384309338, 0.634, -0.778, 0.20600000000000002, 192.0, 19.0, 208.0, 231.0, 176.0, 6.0, 112.0, 0.0, 0.0, 0.0, 1.6635907129370372E9, 0.0, 2022-09-19 17:31:52.937
126.0, -2414.010752917618, 11840.00961065407, -23676.241776495193, -46065.20188632034, -187500.02235174447, -187500.02235174447, 7058.5914920081495, -20164.42509465517, 0.634, -0.778, 0.20600000000000002, 192.0, 0.0, 0.0, 0.0, 0.0, 0.0, 0.0, 0.0, 0.0, 0.0, 1.66359071294108E9, 0.0, 2022-09-19 17:31:52.941
127.0, -2351.55997890949, 11895.061957247492, -24030.76279530082, -45868.35007290245, -187500.02235174447, -187500.02235174447, 7181.436679534517, -20459.490473209677, 0.634, -0.778, 0.20600000000000002, 192.0, 0.0, 0.0, 0.0, 0.0, 0.0, 0.0, 0.0, 0.0, 0.0, 1.6635907129450424E9, 0.0, 2022-09-19 17:31:52.945
128.0, -2573.4457461173233, 11870.430334857743, -24827.66954036588, -45762.0004727841, -187500.02235174447, -187500.02235174447, 7244.647412854125, -21209.48090666305, 0.634, -0.778, 0.20600000000000002, 192.0, 0.0, 0.0, 0.0, 0.0, 0.0, 0.0, 0.0, 0.0, 0.0, 1.6635907129480383E9, 0.0, 2022-09-19 17:31:52.948
129.0, -2898.9989041088706, 11790.411089707744, -25010.305644310196, -45940.97089063775, -187500.02235174447, -187500.02235174447, 7111.45336764495, -21433.020702960577, 0.634, -0.778, 0.20600000000000002, 192.0, 0.0, 0.0, 0.0, 0.0, 0.0, 0.0, 0.0, 0.0, 0.0, 1.6635907129531248E9, 0.0, 2022-09-19 17:31:52.953
130.0, -2723.3365444346127, 11804.224467781123, -23968.714352692885, -46183.37555925555, -187500.02235174447, -187500.02235174447, 6960.579092571627, -20490.514694513644, 0.634, -0.778, 0.20600000000000002, 192.0, 0.0, 0.0, 0.0, 0.0, 0.0, 0.0, 0.0, 0.0, 0.0, 1.6635907129570808E9, 0.0, 2022-09-19 17:31:52.957
131.0, -2392.4189677737913, 11890.748070567617, -23691.373907491437, -46063.68196769738, -187500.02235174447, -187500.02235174447, 7058.166808863499, -20182.306490219413, 0.634, -0.778, 0.20600000000000002, 192.0, 0.0, 0.0, 0.0, 0.0, 0.0, 0.0, 0.0, 0.0, 0.0, 1.663590712961052E9, 0.0, 2022-09-19 17:31:52.961
132.0, -2345.7038218621997, 11944.571071215996, -24053.38276068959, -45871.45696538174, -187500.02235174447, -187500.02235174447, 7178.37449054414, -20492.459296281257, 0.634, -0.778, 0.20600000000000002, 192.0, 0.0, 0.0, 0.0, 0.0, 0.0, 0.0, 0.0, 0.0, 0.0, 1.6635907129651308E9, 0.0, 2022-09-19 17:31:52.965
133.0, -2579.815993287086, 11916.698445880229, -24860.861880882014, -45771.76818511107, -187500.02235174447, -187500.02235174447, 7234.969107504977, -21250.898689138736, 0.634, -0.778, 0.20600000000000002, 192.0, 0.0, 0.0, 0.0, 0.0, 0.0, 0.0, 0.0, 0.0, 0.0, 1.6635907129690907E9, 0.0, 2022-09-19 17:31:52.969
134.0, -2905.369151278633, 11827.984372137114, -24982.56712944116, -45962.65208275939, -187500.02235174447, -187500.02235174447, 7095.762443037324, -21423.43180458925, 0.634, -0.778, 0.20600000000000002, 192.0, 0.0, 0.0, 0.0, 0.0, 0.0, 0.0, 0.0, 0.0, 0.0, 1.66359071297315E9, 0.0, 2022-09-19 17:31:52.973
135.0, -2723.1353787345147, 11842.870633944349, -23926.02252078325, -46191.422187259464, -187500.02235174447, -187500.02235174447, 6958.90271173748, -20459.088141809483, 0.634, -0.78, 0.20600000000000002, 192.0, 19.0, 208.0, 231.0, 160.0, 6.0, 112.0, 0.0, 0.0, 0.0, 1.6635907129761586E9, 0.0, 2022-09-19 17:31:52.976
136.0, -2397.38105504287, 11938.200824046235, -23680.600366663977, -46050.896769868945, -187500.02235174447, -187500.02235174447, 7070.192047380454, -20188.877903089277, 0.634, -0.78, 0.20600000000000002, 192.0, 0.0, 0.0, 0.0, 0.0, 0.0, 0.0, 0.0, 0.0, 0.0, 1.6635907129801557E9, 0.0, 2022-09-19 17:31:52.980
137.0, -2354.443353944225, 11995.711862529739, -24057.89781306956, -45856.72716578569, -187500.02235174447, -187500.02235174447, 7188.9468656715, -20518.610837293963, 0.634, -0.78, 0.20600000000000002, 192.0, 0.0, 0.0, 0.0, 0.0, 0.0, 0.0, 0.0, 0.0, 0.0, 1.663590712985108E9, 0.0, 2022-09-19 17:31:52.985
138.0, -2604.8946505659405, 11961.714859213216, -24881.44783752535, -45761.195809983714, -187500.02235174447, -187500.02235174447, 7237.964241261989, -21261.49341601055, 0.634, -0.78, 0.20600000000000002, 192.0, 0.0, 0.0, 0.0, 0.0, 0.0, 0.0, 0.0, 0.0, 0.0, 1.6635907129891107E9, 0.0, 2022-09-19 17:31:52.989
