%OpenBCI Raw EEG Data
%Number of channels = 8
%Sample Rate = 250 Hz
%Board = OpenBCI_GUI$BoardCytonSerial
Sample Index, EXG Channel 0, EXG Channel 1, EXG Channel 2, EXG Channel 3, EXG Channel 4, EXG Channel 5, EXG Channel 6, EXG Channel 7, Accel Channel 0, Accel Channel 1, Accel Channel 2, Other, Other, Other, Other, Other, Other, Other, Analog Channel 0, Analog Channel 1, Analog Channel 2, Timestamp, Other, Timestamp (Formatted)
12.0, 10199.391567634531, 43098.25367906734, -18515.603961420533, -10115.639581160496, 12847.983878610597, -187500.02235174447, 21508.703709686248, -18469.13468469795, 0.0, 0.0, 0.0, 192.0, 0.0, 0.0, 0.0, 0.0, 0.0, 0.0, 0.0, 0.0, 0.0, 1.663586543152323E9, 0.0, 2022-09-19 16:22:23.152
13.0, 10201.291465913233, 43105.6744582265, -18515.872182353996, -10117.718293394839, 12858.712715949145, -187500.02235174447, 21551.17202415133, -18470.118161453982, 0.644, -0.71, 0.35000000000000003, 192.0, 20.0, 32.0, 233.0, 208.0, 10.0, 240.0, 0.0, 0.0, 0.0, 1.663586543152364E9, 0.0, 2022-09-19 16:22:23.152
14.0, 10192.909561742492, 43098.36543778962, -18527.584496448577, -10116.935982338904, 12846.620422198823, -187500.02235174447, 21533.871773942923, -18469.31349865359, 0.644, -0.71, 0.35000000000000003, 192.0, 0.0, 0.0, 0.0, 0.0, 0.0, 0.0, 0.0, 0.0, 0.0, 1.6635865431523976E9, 0.0, 2022-09-19 16:22:23.152
0.0, 0.0, 0.0, 0.0, 0.0, 0.0, 0.0, 0.0, 0.0, 0.644, -0.71, 0.35000000000000003, 192.0, 0.0, 0.0, 0.0, 0.0, 0.0, 0.0, 0.0, 0.0, 0.0, 1.6635865432323341E9, 0.0, 2022-09-19 16:22:23.232
1.0, 10070.42200212741, 42978.40362529798, -19231.91031597976, -10335.021952989335, 12958.155627030806, -187500.02235174447, 24961.51178616426, -18358.180625221805, 0.642, -0.712, 0.352, 192.0, 20.0, 16.0, 233.0, 192.0, 11.0, 0.0, 0.0, 0.0, 0.0, 1.6635865432503805E9, 0.0, 2022-09-19 16:22:23.250
2.0, 10072.344252150566, 42973.709758962366, -19228.401092100274, -10338.262955935354, 12954.84756885142, -187500.02235174447, 24957.868451818045, -18360.885186300897, 0.642, -0.712, 0.352, 192.0, 0.0, 0.0, 0.0, 0.0, 0.0, 0.0, 0.0, 0.0, 0.0, 1.6635865432534292E9, 0.0, 2022-09-19 16:22:23.253
3.0, 10078.669795831418, 42984.5950585121, -19222.81315598645, -10335.401932645074, 12965.7105166567, -187500.02235174447, 24999.934434882933, -18356.705410087754, 0.642, -0.712, 0.352, 192.0, 0.0, 0.0, 0.0, 0.0, 0.0, 0.0, 0.0, 0.0, 0.0, 1.6635865432573266E9, 0.0, 2022-09-19 16:22:23.257
4.0, 10081.195542954867, 42999.45896857488, -19227.57407755543, -10333.636144833106, 12973.019537093585, -187500.02235174447, 25040.681665024957, -18349.91047977334, 0.642, -0.712, 0.352, 192.0, 0.0, 0.0, 0.0, 0.0, 0.0, 0.0, 0.0, 0.0, 0.0, 1.663586543260325E9, 0.0, 2022-09-19 16:22:23.260
5.0, 10068.56680733762, 42983.38806431151, -19239.62166781684, -10330.842176776192, 12951.360696716392, -187500.02235174447, 25003.13073434004, -18353.91144203084, 0.642, -0.712, 0.352, 192.0, 0.0, 0.0, 0.0, 0.0, 0.0, 0.0, 0.0, 0.0, 0.0, 1.66358654326433E9, 0.0, 2022-09-19 16:22:23.264
6.0, 10056.899196731949, 42968.233581570814, -19245.790749286505, -10325.522461595829, 12933.255783707595, -187500.02235174447, 24960.66241987496, -18348.6811338283, 0.642, -0.712, 0.352, 192.0, 0.0, 0.0, 0.0, 0.0, 0.0, 0.0, 0.0, 0.0, 0.0, 1.6635865432683804E9, 0.0, 2022-09-19 16:22:23.268
7.0, 10061.28013864519, 42970.87108741654, -19240.225164917134, -10323.0861214502, 12938.150815743305, -187500.02235174447, 24965.043361788197, -18349.82107279552, 0.642, -0.712, 0.352, 192.0, 0.0, 0.0, 0.0, 0.0, 0.0, 0.0, 0.0, 0.0, 0.0, 1.663586543273374E9, 0.0, 2022-09-19 16:22:23.273
8.0, 10069.550284093653, 42981.801090455185, -19235.441891603696, -10324.673095306527, 12951.42775194976, -187500.02235174447, 25005.85764716359, -18355.073732742516, 0.644, -0.712, 0.35000000000000003, 192.0, 20.0, 32.0, 233.0, 192.0, 10.0, 240.0, 0.0, 0.0, 0.0, 1.6635865432783456E9, 0.0, 2022-09-19 16:22:23.278
9.0, 10076.971063252815, 42986.74082597981, -19238.302914893975, -10329.724589553427, 12961.37427823237, -187500.02235174447, 25041.57573480317, -18361.39927642337, 0.644, -0.712, 0.35000000000000003, 192.0, 0.0, 0.0, 0.0, 0.0, 0.0, 0.0, 0.0, 0.0, 0.0, 1.6635865432814188E9, 0.0, 2022-09-19 16:22:23.281
10.0, 10074.221798684812, 42981.376407310534, -19238.52643233853, -10325.589516829195, 12963.207121277705, -187500.02235174447, 25009.34451929862, -18357.01833451013, 0.644, -0.712, 0.35000000000000003, 192.0, 0.0, 0.0, 0.0, 0.0, 0.0, 0.0, 0.0, 0.0, 0.0, 1.6635865432843783E9, 0.0, 2022-09-19 16:22:23.284
11.0, 10071.092554461069, 42968.97118913784, -19241.454510862175, -10328.517595352841, 12952.970022317175, -187500.02235174447, 24964.685733876915, -18362.986250279697, 0.644, -0.712, 0.35000000000000003, 192.0, 0.0, 0.0, 0.0, 0.0, 0.0, 0.0, 0.0, 0.0, 0.0, 1.663586543287327E9, 0.0, 2022-09-19 16:22:23.287
12.0, 10067.94095849287, 42964.56789548015, -19245.61193533086, -10338.844101291192, 12943.403475690304, -187500.02235174447, 24959.276611718728, -18375.235006241204, 0.644, -0.712, 0.35000000000000003, 192.0, 0.0, 0.0, 0.0, 0.0, 0.0, 0.0, 0.0, 0.0, 0.0, 1.6635865432924128E9, 0.0, 2022-09-19 16:22:23.292
13.0, 10075.965234752326, 42972.88274441752, -19240.649848061785, -10337.681810579517, 12948.902004826308, -187500.02235174447, 24994.52531272475, -18370.652898627868, 0.644, -0.712, 0.35000000000000003, 192.0, 0.0, 0.0, 0.0, 0.0, 0.0, 0.0, 0.0, 0.0, 0.0, 1.6635865432964892E9, 0.0, 2022-09-19 16:22:23.296
14.0, 10078.312167920134, 42978.58243925362, -19241.499214351086, -10340.319316425243, 12950.623089149367, -187500.02235174447, 25030.221048619875, -18370.3846776944, 0.644, -0.712, 0.35000000000000003, 192.0, 0.0, 0.0, 0.0, 0.0, 0.0, 0.0, 0.0, 0.0, 0.0, 1.663586543300424E9, 0.0, 2022-09-19 16:22:23.300
15.0, 10070.08672596058, 42966.73601469231, -19250.57402259994, -10340.296964680787, 12928.003123760596, -187500.02235174447, 24995.061754591676, -18373.424514940325, 0.644, -0.712, 0.35000000000000003, 192.0, 0.0, 0.0, 0.0, 0.0, 0.0, 0.0, 0.0, 0.0, 0.0, 1.6635865433034153E9, 0.0, 2022-09-19 16:22:23.303
16.0, 10069.572635838109, 42959.00231111077, -19245.56723184195, -10334.463159377952, 12911.820460774954, -187500.02235174447, 24951.9899430263, -18363.4332851688, 0.644, -0.712, 0.35000000000000003, 192.0, 0.0, 0.0, 0.0, 0.0, 0.0, 0.0, 0.0, 0.0, 0.0, 1.6635865433073924E9, 0.0, 2022-09-19 16:22:23.307
17.0, 10071.561941094631, 42962.377424523525, -19239.264039905553, -10333.457330877463, 12914.681484065233, -187500.02235174447, 24949.46419590285, -18358.06886649953, 0.644, -0.712, 0.35000000000000003, 192.0, 0.0, 0.0, 0.0, 0.0, 0.0, 0.0, 0.0, 0.0, 0.0, 1.6635865433114045E9, 0.0, 2022-09-19 16:22:23.311
18.0, 10075.85347603005, 42967.78654668171, -19235.061911947956, -10336.81009254576, 12925.03034174804, -187500.02235174447, 24980.42136197345, -18363.075657257516, 0.642, -0.718, 0.35000000000000003, 192.0, 20.0, 16.0, 233.0, 144.0, 10.0, 240.0, 0.0, 0.0, 0.0, 1.6635865433154197E9, 0.0, 2022-09-19 16:22:23.315
19.0, 10079.407403398443, 42977.2413345863, -19234.503118336575, -10341.481607136919, 12939.782493088544, -187500.02235174447, 25024.81192646169, -18370.5858433945, 0.642, -0.718, 0.35000000000000003, 192.0, 0.0, 0.0, 0.0, 0.0, 0.0, 0.0, 0.0, 0.0, 0.0, 1.6635865433194957E9, 0.0, 2022-09-19 16:22:23.319
20.0, 10071.718403305818, 42970.893439161, -19236.80534801547, -10336.921851268036, 12944.588118146434, -187500.02235174447, 25001.387298272526, -18369.20003523827, 0.642, -0.718, 0.35000000000000003, 192.0, 0.0, 0.0, 0.0, 0.0, 0.0, 0.0, 0.0, 0.0, 0.0, 1.663586543324438E9, 0.0, 2022-09-19 16:22:23.324
21.0, 10078.267464431223, 42961.12572683403, -19228.110519422356, -10326.550641840773, 12946.89034782533, -187500.02235174447, 24955.856794817068, -18359.566433378033, 0.642, -0.718, 0.35000000000000003, 192.0, 0.0, 0.0, 0.0, 0.0, 0.0, 0.0, 0.0, 0.0, 0.0, 1.6635865433283806E9, 0.0, 2022-09-19 16:22:23.328
22.0, 10087.364624424532, 42958.801145410675, -19222.768452497538, -10328.718761052938, 12945.415132691282, -187500.02235174447, 24946.804338312668, -18355.81134030954, 0.642, -0.718, 0.35000000000000003, 192.0, 0.0, 0.0, 0.0, 0.0, 0.0, 0.0, 0.0, 0.0, 0.0, 1.6635865433324935E9, 0.0, 2022-09-19 16:22:23.332
23.0, 10087.47638314681, 42967.0936426036, -19217.51579255054, -10329.434016875508, 12955.56282467399, -187500.02235174447, 24981.94128059641, -18358.180625221805, 0.642, -0.718, 0.35000000000000003, 192.0, 0.0, 0.0, 0.0, 0.0, 0.0, 0.0, 0.0, 0.0, 0.0, 1.6635865433364518E9, 0.0, 2022-09-19 16:22:23.336
24.0, 10091.991435526781, 42982.98573291132, -19218.07458616192, -10327.288249407799, 12968.549188202524, -187500.02235174447, 25028.61172301909, -18361.756904334656, 0.642, -0.718, 0.35000000000000003, 192.0, 0.0, 0.0, 0.0, 0.0, 0.0, 0.0, 0.0, 0.0, 0.0, 1.6635865433404732E9, 0.0, 2022-09-19 16:22:23.340
25.0, 10082.603702855553, 42972.659226972966, -19228.021112444534, -10326.930621496515, 12954.266423495583, -187500.02235174447, 24997.721612181856, -18355.833692054, 0.642, -0.718, 0.35000000000000003, 192.0, 0.0, 0.0, 0.0, 0.0, 0.0, 0.0, 0.0, 0.0, 0.0, 1.6635865433454869E9, 0.0, 2022-09-19 16:22:23.345
26.0, 10075.808772541139, 42961.01396811175, -19232.625571802328, -10326.081255207213, 12940.833025077944, -187500.02235174447, 24947.65370460197, -18349.463444884237, 0.642, -0.718, 0.35000000000000003, 192.0, 0.0, 0.0, 0.0, 0.0, 0.0, 0.0, 0.0, 0.0, 0.0, 1.6635865433484848E9, 0.0, 2022-09-19 16:22:23.348
27.0, 10074.691185318374, 42959.78462216671, -19235.307781136966, -10329.501072108875, 12942.755275101099, -187500.02235174447, 24940.948181265376, -18357.86770079943, 0.642, -0.718, 0.35000000000000003, 192.0, 0.0, 0.0, 0.0, 0.0, 0.0, 0.0, 0.0, 0.0, 0.0, 1.6635865433535173E9, 0.0, 2022-09-19 16:22:23.353
28.0, 10081.70963307734, 42965.730186191824, -19230.122176423334, -10330.059865720257, 12955.249900251616, -187500.02235174447, 24971.726533380337, -18354.87256704242, 0.64, -0.71, 0.352, 192.0, 20.0, 0.0, 233.0, 208.0, 11.0, 0.0, 0.0, 0.0, 0.0, 1.663586543356491E9, 0.0, 2022-09-19 16:22:23.356
29.0, 10075.495848118764, 42969.59703798259, -19237.38649337131, -10335.446636133986, 12964.36941198938, -187500.02235174447, 25010.685623965936, -18358.605308366456, 0.64, -0.71, 0.352, 192.0, 0.0, 0.0, 0.0, 0.0, 0.0, 0.0, 0.0, 0.0, 0.0, 1.6635865433604717E9, 0.0, 2022-09-19 16:22:23.360
30.0, 10075.13822020748, 42962.42212801244, -19239.062874205458, -10331.490377365397, 12963.922377100274, -187500.02235174447, 24988.37858299954, -18355.699581587265, 0.64, -0.71, 0.352, 192.0, 0.0, 0.0, 0.0, 0.0, 0.0, 0.0, 0.0, 0.0, 0.0, 1.6635865433634553E9, 0.0, 2022-09-19 16:22:23.363
31.0, 10076.076993474602, 42955.06840408664, -19233.47493809163, -10326.349476140676, 12964.011784078097, -187500.02235174447, 24942.624562099525, -18355.25254669816, 0.64, -0.71, 0.352, 192.0, 0.0, 0.0, 0.0, 0.0, 0.0, 0.0, 0.0, 0.0, 0.0, 1.663586543367576E9, 0.0, 2022-09-19 16:22:23.367
32.0, 10068.522103848709, 42952.676767429926, -19233.76551076955, -10334.61962158914, 12962.402458477314, -187500.02235174447, 24931.046358471678, -18364.617927624935, 0.64, -0.71, 0.352, 192.0, 0.0, 0.0, 0.0, 0.0, 0.0, 0.0, 0.0, 0.0, 0.0, 1.663586543371497E9, 0.0, 2022-09-19 16:22:23.371
33.0, 10072.053679472647, 42954.59901745308, -19234.369007869842, -10341.302793181276, 12962.067182310484, -187500.02235174447, 24953.822786071636, -18371.994003295185, 0.64, -0.71, 0.352, 192.0, 0.0, 0.0, 0.0, 0.0, 0.0, 0.0, 0.0, 0.0, 0.0, 1.6635865433754883E9, 0.0, 2022-09-19 16:22:23.375
34.0, 10083.363662167032, 42960.11989833354, -19233.206717158166, -10338.70999082446, 12961.463685210192, -187500.02235174447, 24995.57584471415, -18369.490607916192, 0.64, -0.71, 0.352, 192.0, 0.0, 0.0, 0.0, 0.0, 0.0, 0.0, 0.0, 0.0, 0.0, 1.663586543380587E9, 0.0, 2022-09-19 16:22:23.380
35.0, 10077.976891753304, 42956.63302619851, -19241.119234695343, -10338.70999082446, 12946.867996080875, -187500.02235174447, 24980.890748607013, -18373.49157017369, 0.64, -0.71, 0.352, 192.0, 0.0, 0.0, 0.0, 0.0, 0.0, 0.0, 0.0, 0.0, 0.0, 1.6635865433845491E9, 0.0, 2022-09-19 16:22:23.384
36.0, 10064.767010780217, 42942.32790974712, -19251.646906333794, -10342.554490870774, 12922.37048415786, -187500.02235174447, 24928.945294492878, -18372.73161086221, 0.64, -0.71, 0.352, 192.0, 0.0, 0.0, 0.0, 0.0, 0.0, 0.0, 0.0, 0.0, 0.0, 1.6635865433875403E9, 0.0, 2022-09-19 16:22:23.387
37.0, 10056.407458353933, 42934.39304046548, -19257.39130465881, -10345.52727288333, 12909.31706539596, -187500.02235174447, 24907.577026793602, -18375.458523685757, 0.64, -0.71, 0.352, 192.0, 0.0, 0.0, 0.0, 0.0, 0.0, 0.0, 0.0, 0.0, 0.0, 1.6635865433915725E9, 0.0, 2022-09-19 16:22:23.391
38.0, 10064.498789846753, 42939.89156960149, -19248.651772576784, -10346.398990917087, 12916.26845792156, -187500.02235174447, 24929.079404959608, -18377.090201030995, 0.64, -0.712, 0.352, 192.0, 20.0, 0.0, 233.0, 192.0, 11.0, 0.0, 0.0, 0.0, 0.0, 1.663586543395518E9, 0.0, 2022-09-19 16:22:23.395
39.0, 10066.666909058918, 42949.860447628555, -19246.86363302036, -10351.428133419531, 12927.55608887149, -187500.02235174447, 24976.6439171605, -18382.476971444725, 0.64, -0.712, 0.352, 192.0, 0.0, 0.0, 0.0, 0.0, 0.0, 0.0, 0.0, 0.0, 0.0, 1.6635865433995545E9, 0.0, 2022-09-19 16:22:23.399
40.0, 10060.833103756084, 42942.41731672494, -19253.27858367903, -10347.337764184209, 12911.708702052678, -187500.02235174447, 24960.61771638605, -18375.614985896944, 0.64, -0.712, 0.352, 192.0, 0.0, 0.0, 0.0, 0.0, 0.0, 0.0, 0.0, 0.0, 0.0, 1.663586543403504E9, 0.0, 2022-09-19 16:22:23.403
41.0, 10055.692202531363, 42930.61559565253, -19250.23874643311, -10340.47577863643, 12889.334605852915, -187500.02235174447, 24908.40404133845, -18371.099933516973, 0.64, -0.712, 0.352, 192.0, 0.0, 0.0, 0.0, 0.0, 0.0, 0.0, 0.0, 0.0, 0.0, 1.663586543407558E9, 0.0, 2022-09-19 16:22:23.407
42.0, 10057.390935109966, 42928.73804911829, -19245.768397542048, -10342.62154610414, 12885.35599533987, -187500.02235174447, 24891.21554985232, -18380.040631299096, 0.64, -0.712, 0.352, 192.0, 0.0, 0.0, 0.0, 0.0, 0.0, 0.0, 0.0, 0.0, 0.0, 1.6635865434125843E9, 0.0, 2022-09-19 16:22:23.412
43.0, 10065.906949747437, 42934.01306080974, -19245.947211497692, -10343.895595538092, 12893.73789951061, -187500.02235174447, 24910.527457061704, -18382.678137144823, 0.64, -0.712, 0.352, 192.0, 0.0, 0.0, 0.0, 0.0, 0.0, 0.0, 0.0, 0.0, 0.0, 1.6635865434155898E9, 0.0, 2022-09-19 16:22:23.415
44.0, 10070.198484682856, 42950.32983426211, -19241.32040039544, -10341.883938537114, 12922.214021946673, -187500.02235174447, 24961.914117564455, -18376.710221375255, 0.64, -0.712, 0.352, 192.0, 0.0, 0.0, 0.0, 0.0, 0.0, 0.0, 0.0, 0.0, 0.0, 1.6635865434196012E9, 0.0, 2022-09-19 16:22:23.419
45.0, 10068.030365470691, 42953.146154063485, -19243.063836462956, -10332.451502376975, 12937.994353532118, -187500.02235174447, 24958.36019019606, -18371.21169223925, 0.64, -0.712, 0.352, 192.0, 0.0, 0.0, 0.0, 0.0, 0.0, 0.0, 0.0, 0.0, 0.0, 1.663586543423596E9, 0.0, 2022-09-19 16:22:23.423
46.0, 10059.335536877577, 42939.35512773456, -19248.070627220946, -10326.841214518692, 12927.421978404758, -187500.02235174447, 24905.16303839243, -18368.909462560354, 0.64, -0.712, 0.352, 192.0, 0.0, 0.0, 0.0, 0.0, 0.0, 0.0, 0.0, 0.0, 0.0, 1.6635865434275599E9, 0.0, 2022-09-19 16:22:23.427
47.0, 10064.297624146655, 42935.0859445436, -19248.785883043514, -10326.19301392949, 12922.906926024787, -187500.02235174447, 24885.135875360476, -18366.584881137, 0.64, -0.712, 0.352, 192.0, 0.0, 0.0, 0.0, 0.0, 0.0, 0.0, 0.0, 0.0, 0.0, 1.6635865434317002E9, 0.0, 2022-09-19 16:22:23.431
48.0, 10072.366603895021, 42944.92071210393, -19238.794653271994, -10320.918002238037, 12935.289792453026, -187500.02235174447, 24907.666433771425, -18358.381790921903, 0.644, -0.716, 0.35000000000000003, 192.0, 20.0, 32.0, 233.0, 160.0, 10.0, 240.0, 0.0, 0.0, 0.0, 1.663586543435652E9, 0.0, 2022-09-19 16:22:23.435
49.0, 10069.393821882466, 42957.39298550999, -19235.866574748346, -10322.683790050005, 12950.46662693818, -187500.02235174447, 24952.861661060055, -18362.092180501484, 0.644, -0.716, 0.35000000000000003, 192.0, 0.0, 0.0, 0.0, 0.0, 0.0, 0.0, 0.0, 0.0, 0.0, 1.6635865434416528E9, 0.0, 2022-09-19 16:22:23.441
50.0, 10072.880694017495, 42952.36384300755, -19240.202813172677, -10319.845118504181, 12943.872862323864, -187500.02235174447, 24943.719797577836, -18360.661668856344, 0.644, -0.716, 0.35000000000000003, 192.0, 0.0, 0.0, 0.0, 0.0, 0.0, 0.0, 0.0, 0.0, 0.0, 1.6635865434447734E9, 0.0, 2022-09-19 16:22:23.444
51.0, 10066.242225914268, 42938.59516842308, -19245.768397542048, -10317.609944058651, 12924.51625162557, -187500.02235174447, 24886.78990445017, -18355.565471120535, 0.644, -0.716, 0.35000000000000003, 192.0, 0.0, 0.0, 0.0, 0.0, 0.0, 0.0, 0.0, 0.0, 0.0, 1.6635865434486456E9, 0.0, 2022-09-19 16:22:23.448
52.0, 10070.623167827507, 42936.650566655466, -19243.063836462956, -10313.072539934223, 12918.995370745108, -187500.02235174447, 24865.06400883961, -18354.090255986484, 0.644, -0.716, 0.35000000000000003, 192.0, 0.0, 0.0, 0.0, 0.0, 0.0, 0.0, 0.0, 0.0, 0.0, 1.663586543451635E9, 0.0, 2022-09-19 16:22:23.451
53.0, 10071.047850972158, 42937.634043411505, -19240.51573759505, -10311.172641655523, 12923.421016147258, -187500.02235174447, 24880.374953791495, -18355.20784320925, 0.644, -0.716, 0.35000000000000003, 192.0, 0.0, 0.0, 0.0, 0.0, 0.0, 0.0, 0.0, 0.0, 0.0, 1.6635865434556832E9, 0.0, 2022-09-19 16:22:23.455
54.0, 10070.824333527606, 42947.22294178283, -19237.85588000487, -10315.598287057674, 12936.921469798264, -187500.02235174447, 24923.245599656773, -18357.085389743494, 0.644, -0.716, 0.35000000000000003, 192.0, 0.0, 0.0, 0.0, 0.0, 0.0, 0.0, 0.0, 0.0, 0.0, 1.6635865434597085E9, 0.0, 2022-09-19 16:22:23.459
55.0, 10065.37050788051, 42944.07134581463, -19240.582792828416, -10320.113339437645, 12935.245088964117, -187500.02235174447, 24918.283512387698, -18363.50034040217, 0.644, -0.716, 0.35000000000000003, 192.0, 0.0, 0.0, 0.0, 0.0, 0.0, 0.0, 0.0, 0.0, 0.0, 1.663586543464701E9, 0.0, 2022-09-19 16:22:23.464
56.0, 10058.262653143724, 42925.96643280583, -19249.009400488067, -10316.179432413512, 12916.916658510765, -187500.02235174447, 24860.884232626468, -18357.48772114369, 0.644, -0.716, 0.35000000000000003, 192.0, 0.0, 0.0, 0.0, 0.0, 0.0, 0.0, 0.0, 0.0, 0.0, 1.6635865434682868E9, 0.0, 2022-09-19 16:22:23.468
57.0, 10059.581406066585, 42918.41154317994, -19246.260135920067, -10309.183336399, 12910.83698401892, -187500.02235174447, 24832.363406701497, -18352.369171663424, 0.644, -0.716, 0.35000000000000003, 192.0, 0.0, 0.0, 0.0, 0.0, 0.0, 0.0, 0.0, 0.0, 0.0, 1.6635865434707122E9, 0.0, 2022-09-19 16:22:23.470
58.0, 10061.704821789841, 42919.88675831399, -19241.968600984645, -10311.686731777994, 12916.89430676631, -187500.02235174447, 24844.388645218452, -18357.01833451013, 0.644, -0.714, 0.352, 192.0, 20.0, 32.0, 233.0, 176.0, 11.0, 0.0, 0.0, 0.0, 0.0, 1.6635865434757118E9, 0.0, 2022-09-19 16:22:23.475
59.0, 10057.23447289878, 42927.06166828414, -19239.822833516937, -10318.213441158943, 12928.383103416338, -187500.02235174447, 24884.867654427013, -18364.416761924836, 0.644, -0.714, 0.352, 192.0, 0.0, 0.0, 0.0, 0.0, 0.0, 0.0, 0.0, 0.0, 0.0, 1.6635865434797752E9, 0.0, 2022-09-19 16:22:23.479
60.0, 10063.60472006854, 42922.74778160427, -19244.494348108095, -10322.303810394265, 12922.079911479941, -187500.02235174447, 24876.73161944528, -18363.321526446525, 0.644, -0.714, 0.352, 192.0, 0.0, 0.0, 0.0, 0.0, 0.0, 0.0, 0.0, 0.0, 0.0, 1.6635865434838169E9, 0.0, 2022-09-19 16:22:23.483
61.0, 10057.703859532341, 42907.5262436302, -19250.52931911103, -10324.538984839795, 12901.113975180862, -187500.02235174447, 24815.979578015755, -18360.929889789808, 0.644, -0.714, 0.352, 192.0, 0.0, 0.0, 0.0, 0.0, 0.0, 0.0, 0.0, 0.0, 0.0, 1.6635865434877217E9, 0.0, 2022-09-19 16:22:23.487
62.0, 10054.909891475427, 42901.558327860635, -19244.60610683037, -10325.56716508474, 12892.910884965764, -187500.02235174447, 24782.60842354398, -18365.69081135879, 0.644, -0.714, 0.352, 192.0, 0.0, 0.0, 0.0, 0.0, 0.0, 0.0, 0.0, 0.0, 0.0, 1.6635865434917157E9, 0.0, 2022-09-19 16:22:23.491
63.0, 10059.201426410846, 42904.978144762295, -19240.962772484156, -10328.271726163832, 12898.655283290778, -187500.02235174447, 24788.978670713746, -18366.96486079274, 0.644, -0.714, 0.352, 192.0, 0.0, 0.0, 0.0, 0.0, 0.0, 0.0, 0.0, 0.0, 0.0, 1.6635865434967518E9, 0.0, 2022-09-19 16:22:23.496
64.0, 10065.348156136055, 42914.4776361558, -19236.537127082007, -10332.652668077073, 12914.368559642859, -187500.02235174447, 24828.85418282201, -18369.177683493817, 0.644, -0.714, 0.352, 192.0, 0.0, 0.0, 0.0, 0.0, 0.0, 0.0, 0.0, 0.0, 0.0, 1.663586543499751E9, 0.0, 2022-09-19 16:22:23.499
65.0, 10062.04009795667, 42912.465979154826, -19240.33692363941, -10336.273650678831, 12913.07215846445, -187500.02235174447, 24827.848354321522, -18370.608195138957, 0.644, -0.714, 0.352, 192.0, 0.0, 0.0, 0.0, 0.0, 0.0, 0.0, 0.0, 0.0, 0.0, 1.663586543503764E9, 0.0, 2022-09-19 16:22:23.503
66.0, 10050.528949562187, 42893.53405160118, -19246.23778417561, -10337.592403601695, 12888.105259907874, -187500.02235174447, 24762.13422562292, -18370.787009094598, 0.644, -0.714, 0.352, 192.0, 0.0, 0.0, 0.0, 0.0, 0.0, 0.0, 0.0, 0.0, 0.0, 1.663586543507772E9, 0.0, 2022-09-19 16:22:23.507
67.0, 10046.326821604589, 42883.56517357411, -19243.42146437424, -10339.067618735746, 12875.811800457455, -187500.02235174447, 24725.499716460672, -18371.658727128357, 0.644, -0.714, 0.352, 192.0, 0.0, 0.0, 0.0, 0.0, 0.0, 0.0, 0.0, 0.0, 0.0, 1.6635865435127492E9, 0.0, 2022-09-19 16:22:23.512
68.0, 10050.886577473471, 42888.05787420963, -19239.196984672188, -10342.554490870774, 12881.109163893363, -187500.02235174447, 24734.865097387446, -18381.426439455325, 0.644, -0.714, 0.352, 192.0, 0.0, 0.0, 0.0, 0.0, 0.0, 0.0, 0.0, 0.0, 0.0, 1.6635865435167916E9, 0.0, 2022-09-19 16:22:23.516
69.0, 10060.006089211236, 42897.75853130323, -19235.57600207043, -10341.816883303749, 12889.893399464298, -187500.02235174447, 24776.819321730058, -18383.505151689667, 0.64, -0.714, 0.352, 192.0, 20.0, 0.0, 233.0, 176.0, 11.0, 0.0, 0.0, 0.0, 0.0, 1.6635865435218036E9, 0.0, 2022-09-19 16:22:23.521
70.0, 10061.615414812019, 42902.675915083404, -19241.81213877346, -10338.777046057827, 12898.07413793494, -187500.02235174447, 24783.23427238873, -18379.01245105415, 0.64, -0.714, 0.352, 192.0, 0.0, 0.0, 0.0, 0.0, 0.0, 0.0, 0.0, 0.0, 0.0, 1.663586543524932E9, 0.0, 2022-09-19 16:22:23.524
71.0, 10052.808827496629, 42888.43785386537, -19244.62845857483, -10336.38540940111, 12890.496896564591, -187500.02235174447, 24728.204277539764, -18373.402163195868, 0.64, -0.714, 0.352, 192.0, 0.0, 0.0, 0.0, 0.0, 0.0, 0.0, 0.0, 0.0, 0.0, 1.6635865435278342E9, 0.0, 2022-09-19 16:22:23.527
72.0, 10065.415211369422, 42886.82852826459, -19237.56530732695, -10327.198842429978, 12886.78650698501, -187500.02235174447, 24697.224759724708, -18363.723857846722, 0.64, -0.714, 0.352, 192.0, 0.0, 0.0, 0.0, 0.0, 0.0, 0.0, 0.0, 0.0, 0.0, 1.6635865435318549E9, 0.0, 2022-09-19 16:22:23.531
73.0, 10066.08576370308, 42883.811042763125, -19234.637228803305, -10327.601173830173, 12887.88174246332, -187500.02235174447, 24699.37052719242, -18366.942509048284, 0.64, -0.714, 0.352, 192.0, 0.0, 0.0, 0.0, 0.0, 0.0, 0.0, 0.0, 0.0, 0.0, 1.6635865435358045E9, 0.0, 2022-09-19 16:22:23.535
74.0, 10072.813638784128, 42892.70703705634, -19228.535202567007, -10331.624487832129, 12901.337492625415, -187500.02235174447, 24739.17898406732, -18373.625680640424, 0.64, -0.714, 0.352, 192.0, 0.0, 0.0, 0.0, 0.0, 0.0, 0.0, 0.0, 0.0, 0.0, 1.663586543539858E9, 0.0, 2022-09-19 16:22:23.539
75.0, 10077.909836519937, 42898.004400492246, -19229.295161878486, -10328.85287151967, 12902.186858914716, -187500.02235174447, 24750.399559783884, -18367.79187533759, 0.64, -0.714, 0.352, 192.0, 0.0, 0.0, 0.0, 0.0, 0.0, 0.0, 0.0, 0.0, 0.0, 1.6635865435437846E9, 0.0, 2022-09-19 16:22:23.543
76.0, 10070.913740505426, 42882.24642065125, -19235.15131892578, -10322.527327838818, 12882.114992393852, -187500.02235174447, 24695.66013761284, -18362.87449155742, 0.64, -0.714, 0.352, 192.0, 0.0, 0.0, 0.0, 0.0, 0.0, 0.0, 0.0, 0.0, 0.0, 1.6635865435478168E9, 0.0, 2022-09-19 16:22:23.547
77.0, 10070.779630038694, 42873.35042635804, -19232.379702613318, -10319.733359781905, 12877.041146402496, -187500.02235174447, 24660.54554707355, -18357.800645566065, 0.64, -0.714, 0.352, 192.0, 0.0, 0.0, 0.0, 0.0, 0.0, 0.0, 0.0, 0.0, 0.0, 1.66358654355093E9, 0.0, 2022-09-19 16:22:23.550
78.0, 10073.215970184323, 42872.746929257744, -19230.256286890064, -10329.635182575606, 12878.918692936742, -187500.02235174447, 24662.333686629976, -18369.557663149557, 0.64, -0.714, 0.352, 192.0, 0.0, 0.0, 0.0, 0.0, 0.0, 0.0, 0.0, 0.0, 0.0, 1.6635865435548737E9, 0.0, 2022-09-19 16:22:23.554
79.0, 10076.591083597075, 42880.167708416906, -19225.540068809994, -10333.61379308865, 12890.541600053502, -187500.02235174447, 24702.70093711626, -18374.229177740715, 0.642, -0.71, 0.35000000000000003, 192.0, 20.0, 16.0, 233.0, 208.0, 10.0, 240.0, 0.0, 0.0, 0.0, 1.663586543558869E9, 0.0, 2022-09-19 16:22:23.558
80.0, 10074.1770951959, 42881.46410959531, -19229.585734556407, -10331.42332213203, 12894.810783244466, -187500.02235174447, 24717.69895764577, -18369.803532338563, 0.642, -0.71, 0.35000000000000003, 192.0, 0.0, 0.0, 0.0, 0.0, 0.0, 0.0, 0.0, 0.0, 0.0, 1.6635865435628877E9, 0.0, 2022-09-19 16:22:23.562
81.0, 10064.923472991404, 42872.94809495784, -19233.89962123628, -10322.639086561096, 12882.472620305136, -187500.02235174447, 24667.608698321426, -18363.366229935436, 0.642, -0.71, 0.35000000000000003, 192.0, 0.0, 0.0, 0.0, 0.0, 0.0, 0.0, 0.0, 0.0, 0.0, 1.6635865435679548E9, 0.0, 2022-09-19 16:22:23.567
82.0, 10061.190731667368, 42864.14150764245, -19236.20185091518, -10323.689618550494, 12873.844846945387, -187500.02235174447, 24627.599075746428, -18365.422590425325, 0.642, -0.71, 0.35000000000000003, 192.0, 0.0, 0.0, 0.0, 0.0, 0.0, 0.0, 0.0, 0.0, 0.0, 1.663586543571895E9, 0.0, 2022-09-19 16:22:23.571
83.0, 10055.736906020273, 42867.38251058847, -19235.732464281617, -10327.377656385619, 12882.159695882761, -187500.02235174447, 24630.97418915918, -18374.229177740715, 0.642, -0.71, 0.35000000000000003, 192.0, 0.0, 0.0, 0.0, 0.0, 0.0, 0.0, 0.0, 0.0, 0.0, 1.6635865435759182E9, 0.0, 2022-09-19 16:22:23.575
84.0, 10068.186827681879, 42880.54768807265, -19233.51964158054, -10328.495243608386, 12900.17520191374, -187500.02235174447, 24672.50373035714, -18375.72674461922, 0.642, -0.71, 0.35000000000000003, 192.0, 0.0, 0.0, 0.0, 0.0, 0.0, 0.0, 0.0, 0.0, 0.0, 1.6635865435799918E9, 0.0, 2022-09-19 16:22:23.579
85.0, 10073.059507973136, 42882.402882862436, -19242.14741494029, -10332.831482032714, 12904.511440338068, -187500.02235174447, 24689.289890443077, -18375.190302752293, 0.642, -0.71, 0.35000000000000003, 192.0, 0.0, 0.0, 0.0, 0.0, 0.0, 0.0, 0.0, 0.0, 0.0, 1.6635865435839136E9, 0.0, 2022-09-19 16:22:23.583
86.0, 10056.31805137611, 42868.03071117768, -19246.885984764813, -10333.747903555382, 12888.261722119061, -187500.02235174447, 24635.39983456133, -18372.619852139935, 0.642, -0.71, 0.35000000000000003, 192.0, 0.0, 0.0, 0.0, 0.0, 0.0, 0.0, 0.0, 0.0, 0.0, 1.6635865435889199E9, 0.0, 2022-09-19 16:22:23.588
87.0, 10060.85545550054, 42860.654635507424, -19237.297086393486, -10331.445673876486, 12878.628120258823, -187500.02235174447, 24596.39604048682, -18371.524616661623, 0.642, -0.71, 0.35000000000000003, 192.0, 0.0, 0.0, 0.0, 0.0, 0.0, 0.0, 0.0, 0.0, 0.0, 1.6635865435918925E9, 0.0, 2022-09-19 16:22:23.591
88.0, 10065.66108055843, 42865.95199894333, -19232.75968226906, -10331.244508176387, 12885.087774406407, -187500.02235174447, 24602.319252767476, -18371.166988750338, 0.642, -0.71, 0.35000000000000003, 192.0, 0.0, 0.0, 0.0, 0.0, 0.0, 0.0, 0.0, 0.0, 0.0, 1.6635865435960748E9, 0.0, 2022-09-19 16:22:23.596
89.0, 10071.874865517006, 42880.7712055172, -19231.262115390553, -10332.518557610341, 12901.449251347693, -187500.02235174447, 24646.77687248908, -18374.7879713521, 0.642, -0.716, 0.35000000000000003, 192.0, 20.0, 16.0, 233.0, 160.0, 10.0, 240.0, 0.0, 0.0, 0.0, 1.6635865436009796E9, 0.0, 2022-09-19 16:22:23.600
90.0, 10064.56584508012, 42880.41357760591, -19244.092016707902, -10344.655554849573, 12897.716510023656, -187500.02235174447, 24666.69227679876, -18389.227198270226, 0.642, -0.716, 0.35000000000000003, 192.0, 0.0, 0.0, 0.0, 0.0, 0.0, 0.0, 0.0, 0.0, 0.0, 1.663586543604942E9, 0.0, 2022-09-19 16:22:23.604
91.0, 10056.60862405403, 42870.60116179004, -19251.646906333794, -10343.225043204433, 12878.136381880806, -187500.02235174447, 24623.173430344275, -18381.29232898859, 0.642, -0.716, 0.35000000000000003, 192.0, 0.0, 0.0, 0.0, 0.0, 0.0, 0.0, 0.0, 0.0, 0.0, 1.663586543607977E9, 0.0, 2022-09-19 16:22:23.607
92.0, 10053.680545530386, 42867.80719373312, -19250.931650511226, -10341.369848414643, 12868.413373042747, -187500.02235174447, 24586.315403737477, -18382.611081911455, 0.642, -0.716, 0.35000000000000003, 192.0, 0.0, 0.0, 0.0, 0.0, 0.0, 0.0, 0.0, 0.0, 0.0, 1.66358654361097E9, 0.0, 2022-09-19 16:22:23.610
93.0, 10054.887539730971, 42872.45635657982, -19251.088112722413, -10344.744961827393, 12871.87789343332, -187500.02235174447, 24590.942214839724, -18391.752945393677, 0.642, -0.716, 0.35000000000000003, 192.0, 0.0, 0.0, 0.0, 0.0, 0.0, 0.0, 0.0, 0.0, 0.0, 1.6635865436149688E9, 0.0, 2022-09-19 16:22:23.614
94.0, 10061.66011830093, 42888.43785386537, -19247.66829582075, -10348.47770315143, 12888.485239563614, -187500.02235174447, 24636.53977352855, -18395.88801811791, 0.642, -0.716, 0.35000000000000003, 192.0, 0.0, 0.0, 0.0, 0.0, 0.0, 0.0, 0.0, 0.0, 0.0, 1.6635865436189775E9, 0.0, 2022-09-19 16:22:23.618
95.0, 10061.391897367466, 42894.0257899792, -19251.021057489044, -10353.305679953775, 12893.02264368804, -187500.02235174447, 24665.664096553817, -18398.905503619375, 0.642, -0.716, 0.35000000000000003, 192.0, 0.0, 0.0, 0.0, 0.0, 0.0, 0.0, 0.0, 0.0, 0.0, 1.663586543624002E9, 0.0, 2022-09-19 16:22:23.624
96.0, 10049.098437917048, 42881.06177819512, -19259.224147704143, -10356.121999755145, 12875.521227779536, -187500.02235174447, 24622.748747199625, -18404.962826366762, 0.642, -0.716, 0.35000000000000003, 192.0, 0.0, 0.0, 0.0, 0.0, 0.0, 0.0, 0.0, 0.0, 0.0, 1.66358654362799E9, 0.0, 2022-09-19 16:22:23.627
97.0, 10048.98667919477, 42874.91504846991, -19260.900528538292, -10359.273595723344, 12867.474599775625, -187500.02235174447, 24583.588490913928, -18408.092070590505, 0.642, -0.716, 0.35000000000000003, 192.0, 0.0, 0.0, 0.0, 0.0, 0.0, 0.0, 0.0, 0.0, 0.0, 1.6635865436309915E9, 0.0, 2022-09-19 16:22:23.630
98.0, 10056.966251965316, 42887.20850792033, -19250.417560388752, -10350.66817410805, 12881.332681337915, -187500.02235174447, 24593.06563056298, -18396.647977429388, 0.642, -0.716, 0.35000000000000003, 192.0, 0.0, 0.0, 0.0, 0.0, 0.0, 0.0, 0.0, 0.0, 0.0, 1.6635865436349952E9, 0.0, 2022-09-19 16:22:23.634
99.0, 10070.287891660679, 42905.35812441804, -19242.75091204058, -10346.890729295103, 12900.041091447007, -187500.02235174447, 24638.35026482943, -18398.704337919276, 0.646, -0.704, 0.34800000000000003, 192.0, 20.0, 48.0, 234.0, 0.0, 10.0, 224.0, 0.0, 0.0, 0.0, 1.6635865436390228E9, 0.0, 2022-09-19 16:22:23.639
100.0, 10074.601778340553, 42916.936328045886, -19243.287353907508, -10346.75661882837, 12909.898210751799, -187500.02235174447, 24672.906061757334, -18401.095974575994, 0.646, -0.704, 0.34800000000000003, 192.0, 0.0, 0.0, 0.0, 0.0, 0.0, 0.0, 0.0, 0.0, 0.0, 1.6635865436430192E9, 0.0, 2022-09-19 16:22:23.643
101.0, 10061.66011830093, 42905.87221454051, -19256.318420924952, -10352.277499708833, 12893.715547766156, -187500.02235174447, 24631.60003800393, -18403.711128677267, 0.646, -0.704, 0.34800000000000003, 192.0, 0.0, 0.0, 0.0, 0.0, 0.0, 0.0, 0.0, 0.0, 0.0, 1.6635865436470025E9, 0.0, 2022-09-19 16:22:23.647
102.0, 10054.328746119589, 42894.24930742375, -19261.124045982844, -10355.563206143763, 12883.232579616617, -187500.02235174447, 24588.05883980499, -18411.824811914543, 0.646, -0.704, 0.34800000000000003, 192.0, 0.0, 0.0, 0.0, 0.0, 0.0, 0.0, 0.0, 0.0, 0.0, 1.663586543651068E9, 0.0, 2022-09-19 16:22:23.651
103.0, 10058.486170588276, 42897.33384815858, -19255.71492382466, -10352.948052042491, 12887.568818040947, -187500.02235174447, 24590.45047646171, -18417.5468584951, 0.646, -0.704, 0.34800000000000003, 192.0, 0.0, 0.0, 0.0, 0.0, 0.0, 0.0, 0.0, 0.0, 0.0, 1.6635865436560423E9, 0.0, 2022-09-19 16:22:23.656
104.0, 10069.729098049296, 42914.2317669668, -19245.388417886308, -10345.750790327882, 12911.976922986141, -187500.02235174447, 24638.73024448517, -18410.21548631376, 0.646, -0.704, 0.34800000000000003, 192.0, 0.0, 0.0, 0.0, 0.0, 0.0, 0.0, 0.0, 0.0, 0.0, 1.6635865436590416E9, 0.0, 2022-09-19 16:22:23.659
105.0, 10070.869037016517, 42929.78858110769, -19247.221260931645, -10343.85089204918, 12937.457911665191, -187500.02235174447, 24680.863282783426, -18409.50023049119, 0.646, -0.704, 0.34800000000000003, 192.0, 0.0, 0.0, 0.0, 0.0, 0.0, 0.0, 0.0, 0.0, 0.0, 1.6635865436630979E9, 0.0, 2022-09-19 16:22:23.663
106.0, 10072.478362617298, 42931.621424153025, -19247.46713012065, -10335.357229156165, 12939.670734366267, -187500.02235174447, 24652.67773302528, -18402.16885830985, 0.646, -0.704, 0.34800000000000003, 192.0, 0.0, 0.0, 0.0, 0.0, 0.0, 0.0, 0.0, 0.0, 0.0, 1.663586543668084E9, 0.0, 2022-09-19 16:22:23.668
107.0, 10070.310243405132, 42924.893549071974, -19254.731447068625, -10339.402894902576, 12924.583306858935, -187500.02235174447, 24613.69629069523, -18408.02501535714, 0.646, -0.704, 0.34800000000000003, 192.0, 0.0, 0.0, 0.0, 0.0, 0.0, 0.0, 0.0, 0.0, 0.0, 1.6635865436720169E9, 0.0, 2022-09-19 16:22:23.672
108.0, 10063.89529274646, 42925.27352872772, -19261.012287260568, -10345.750790327882, 12916.804899788487, -187500.02235174447, 24610.96937787168, -18417.07747186154, 0.646, -0.704, 0.34800000000000003, 192.0, 0.0, 0.0, 0.0, 0.0, 0.0, 0.0, 0.0, 0.0, 0.0, 1.6635865436770988E9, 0.0, 2022-09-19 16:22:23.677
109.0, 10062.911815990426, 42935.667089899434, -19260.788769816016, -10349.215310718455, 12924.404492903292, -187500.02235174447, 24647.82740447848, -18426.97929465524, 0.65, -0.71, 0.34, 192.0, 20.0, 80.0, 233.0, 208.0, 10.0, 160.0, 0.0, 0.0, 0.0, 1.663586543681094E9, 0.0, 2022-09-19 16:22:23.681
110.0, 10076.725194063807, 42945.92654060442, -19260.364086671365, -10346.577804872728, 12929.724208083655, -187500.02235174447, 24690.273367199108, -18429.482690034234, 0.65, -0.71, 0.34, 192.0, 0.0, 0.0, 0.0, 0.0, 0.0, 0.0, 0.0, 0.0, 0.0, 1.6635865436850994E9, 0.0, 2022-09-19 16:22:23.685
111.0, 10070.645519571963, 42942.12674404702, -19271.58466238793, -10340.498130380885, 12912.55806834198, -187500.02235174447, 24659.092683683957, -18421.324303308047, 0.65, -0.71, 0.34, 192.0, 0.0, 0.0, 0.0, 0.0, 0.0, 0.0, 0.0, 0.0, 0.0, 1.6635865436891155E9, 0.0, 2022-09-19 16:22:23.689
112.0, 10052.60766179653, 42924.40181069396, -19279.027793291545, -10342.755656570871, 12894.07317567744, -187500.02235174447, 24614.389194773343, -18426.8004806996, 0.65, -0.71, 0.34, 192.0, 0.0, 0.0, 0.0, 0.0, 0.0, 0.0, 0.0, 0.0, 0.0, 1.663586543692086E9, 0.0, 2022-09-19 16:22:23.692
113.0, 10063.917644490915, 42926.54757816167, -19267.941328041714, -10335.245470433889, 12890.563951797958, -187500.02235174447, 24613.025738361568, -18427.582791755533, 0.65, -0.71, 0.34, 192.0, 0.0, 0.0, 0.0, 0.0, 0.0, 0.0, 0.0, 0.0, 0.0, 1.6635865436951127E9, 0.0, 2022-09-19 16:22:23.695
114.0, 10081.821391799616, 42942.59613068058, -19252.719790067647, -10327.265897663343, 12896.822440245443, -187500.02235174447, 24649.68259926827, -18426.018169643663, 0.65, -0.71, 0.34, 192.0, 0.0, 0.0, 0.0, 0.0, 0.0, 0.0, 0.0, 0.0, 0.0, 1.6635865436991713E9, 0.0, 2022-09-19 16:22:23.699
115.0, 10084.056566245148, 42954.621369197535, -19251.75866505607, -10332.451502376975, 12907.819498517454, -187500.02235174447, 24694.296681201064, -18429.147413867406, 0.65, -0.71, 0.34, 192.0, 0.0, 0.0, 0.0, 0.0, 0.0, 0.0, 0.0, 0.0, 0.0, 1.6635865437031183E9, 0.0, 2022-09-19 16:22:23.703
116.0, 10075.495848118764, 42951.805049396164, -19256.51958662505, -10332.920889010536, 12901.046919947496, -187500.02235174447, 24669.93327974478, -18421.03373063013, 0.65, -0.71, 0.34, 192.0, 0.0, 0.0, 0.0, 0.0, 0.0, 0.0, 0.0, 0.0, 0.0, 1.6635865437071545E9, 0.0, 2022-09-19 16:22:23.707
117.0, 10068.767973037717, 42940.852694613066, -19252.38451390082, -10324.94131623999, 12881.824419715933, -187500.02235174447, 24628.06846237999, -18409.366120024457, 0.65, -0.71, 0.34, 192.0, 0.0, 0.0, 0.0, 0.0, 0.0, 0.0, 0.0, 0.0, 0.0, 1.6635865437121856E9, 0.0, 2022-09-19 16:22:23.712
118.0, 10070.064374216125, 42939.511589945745, -19244.717865552648, -10323.533156339307, 12870.492085277092, -187500.02235174447, 24626.325026312476, -18409.142602579905, 0.65, -0.71, 0.34, 192.0, 0.0, 0.0, 0.0, 0.0, 0.0, 0.0, 0.0, 0.0, 0.0, 1.6635865437152228E9, 0.0, 2022-09-19 16:22:23.715
119.0, 10075.2276271853, 42947.289997016196, -19239.08522594991, -10323.734322039405, 12872.190817855695, -187500.02235174447, 24661.93135522978, -18409.522582235644, 0.648, -0.712, 0.35000000000000003, 192.0, 20.0, 64.0, 233.0, 192.0, 10.0, 240.0, 0.0, 0.0, 0.0, 1.6635865437191663E9, 0.0, 2022-09-19 16:22:23.719
120.0, 10076.23345568579, 42954.08492733061, -19242.37093238484, -10329.389313386597, 12875.521227779536, -187500.02235174447, 24703.170323749822, -18417.368044539457, 0.648, -0.712, 0.35000000000000003, 192.0, 0.0, 0.0, 0.0, 0.0, 0.0, 0.0, 0.0, 0.0, 0.0, 1.663586543723122E9, 0.0, 2022-09-19 16:22:23.723
121.0, 10074.937054507382, 42948.65345342797, -19247.981220243124, -10326.483586607408, 12864.792390440989, -187500.02235174447, 24681.243262439166, -18410.5954659695, 0.648, -0.712, 0.35000000000000003, 192.0, 0.0, 0.0, 0.0, 0.0, 0.0, 0.0, 0.0, 0.0, 0.0, 1.663586543727282E9, 0.0, 2022-09-19 16:22:23.727
122.0, 10069.572635838109, 42937.94696783388, -19247.556537098473, -10323.019066216835, 12849.302631533461, -187500.02235174447, 24639.512555541107, -18406.616855456454, 0.648, -0.712, 0.35000000000000003, 192.0, 0.0, 0.0, 0.0, 0.0, 0.0, 0.0, 0.0, 0.0, 0.0, 1.6635865437311728E9, 0.0, 2022-09-19 16:22:23.731
123.0, 10070.489057360775, 42934.32598523211, -19241.76743528455, -10325.701275551472, 12846.620422198823, -187500.02235174447, 24634.706930483215, -18410.036672358117, 0.648, -0.712, 0.35000000000000003, 192.0, 0.0, 0.0, 0.0, 0.0, 0.0, 0.0, 0.0, 0.0, 0.0, 1.6635865437351763E9, 0.0, 2022-09-19 16:22:23.735
124.0, 10074.959406251837, 42943.35608999206, -19239.42050211674, -10325.790682529294, 12862.490160762092, -187500.02235174447, 24673.733076302182, -18408.4944019907, 0.648, -0.712, 0.35000000000000003, 192.0, 0.0, 0.0, 0.0, 0.0, 0.0, 0.0, 0.0, 0.0, 0.0, 1.663586543740189E9, 0.0, 2022-09-19 16:22:23.740
125.0, 10078.848609787061, 42953.280264530214, -19246.41659813125, -10326.640048818595, 12876.50470453557, -187500.02235174447, 24720.69409140278, -18410.483707247222, 0.648, -0.712, 0.35000000000000003, 192.0, 0.0, 0.0, 0.0, 0.0, 0.0, 0.0, 0.0, 0.0, 0.0, 1.6635865437442286E9, 0.0, 2022-09-19 16:22:23.744
126.0, 10074.445316129366, 42947.289997016196, -19254.731447068625, -10320.068635948735, 12862.087829361895, -187500.02235174447, 24691.03332651059, -18405.11928857795, 0.648, -0.712, 0.35000000000000003, 192.0, 0.0, 0.0, 0.0, 0.0, 0.0, 0.0, 0.0, 0.0, 0.0, 1.663586543748229E9, 0.0, 2022-09-19 16:22:23.748
127.0, 10070.980795738793, 42940.36095623505, -19255.983144758124, -10315.575935313218, 12847.693305932678, -187500.02235174447, 24641.278343353075, -18396.804439640575, 0.648, -0.712, 0.35000000000000003, 192.0, 0.0, 0.0, 0.0, 0.0, 0.0, 0.0, 0.0, 0.0, 0.0, 1.6635865437512503E9, 0.0, 2022-09-19 16:22:23.751
128.0, 10074.534723107186, 42940.7856393797, -19252.205699945178, -10310.457385832953, 12849.16852106673, -187500.02235174447, 24632.20353510422, -18389.07073605904, 0.648, -0.712, 0.35000000000000003, 192.0, 0.0, 0.0, 0.0, 0.0, 0.0, 0.0, 0.0, 0.0, 0.0, 1.6635865437552707E9, 0.0, 2022-09-19 16:22:23.755
129.0, 10080.793211554672, 42949.435764483904, -19244.270830663543, -10311.910249222547, 12868.480428276114, -187500.02235174447, 24660.74671277365, -18398.078489074527, 0.648, -0.71, 0.358, 192.0, 20.0, 64.0, 233.0, 208.0, 11.0, 48.0, 0.0, 0.0, 0.0, 1.6635865437591798E9, 0.0, 2022-09-19 16:22:23.759
130.0, 10086.112926735035, 42963.763232679754, -19237.85588000487, -10315.061845190745, 12901.382196114326, -187500.02235174447, 24711.03813779809, -18395.68685241781, 0.648, -0.71, 0.358, 192.0, 0.0, 0.0, 0.0, 0.0, 0.0, 0.0, 0.0, 0.0, 0.0, 1.6635865437651978E9, 0.0, 2022-09-19 16:22:23.765
131.0, 10078.602740598053, 42958.242351799294, -19241.09688295089, -10312.1337666671, 12907.439518861715, -187500.02235174447, 24692.262672455632, -18384.39922146788, 0.648, -0.71, 0.358, 192.0, 0.0, 0.0, 0.0, 0.0, 0.0, 0.0, 0.0, 0.0, 0.0, 1.6635865437682755E9, 0.0, 2022-09-19 16:22:23.768
132.0, 10070.444353871866, 42945.16658129294, -19244.60610683037, -10314.391292857086, 12895.21311464466, -187500.02235174447, 24638.48437529616, -18386.366174979947, 0.648, -0.71, 0.358, 192.0, 0.0, 0.0, 0.0, 0.0, 0.0, 0.0, 0.0, 0.0, 0.0, 1.6635865437723725E9, 0.0, 2022-09-19 16:22:23.772
133.0, 10073.797115540161, 42946.507685960256, -19240.694551550692, -10314.033664945802, 12895.906018722775, -187500.02235174447, 24626.43678503475, -18383.39339296739, 0.648, -0.71, 0.358, 192.0, 0.0, 0.0, 0.0, 0.0, 0.0, 0.0, 0.0, 0.0, 0.0, 1.6635865437753468E9, 0.0, 2022-09-19 16:22:23.775
134.0, 10079.720327820818, 42951.42506974043, -19234.32430438093, -10313.005484700858, 12904.377329871337, -187500.02235174447, 24651.24722138014, -18378.185436509306, 0.648, -0.71, 0.358, 192.0, 0.0, 0.0, 0.0, 0.0, 0.0, 0.0, 0.0, 0.0, 0.0, 1.6635865437793612E9, 0.0, 2022-09-19 16:22:23.779
135.0, 10083.542476122675, 42962.64564545699, -19230.23393514561, -10316.268839391332, 12916.335513154927, -187500.02235174447, 24696.285986457588, -18378.900692331874, 0.648, -0.71, 0.358, 192.0, 0.0, 0.0, 0.0, 0.0, 0.0, 0.0, 0.0, 0.0, 0.0, 1.6635865437834134E9, 0.0, 2022-09-19 16:22:23.783
136.0, 10077.060470230635, 42955.40368025347, -19233.609048558363, -10317.431130103008, 12905.651379305289, -187500.02235174447, 24675.11888445841, -18370.697602116776, 0.648, -0.71, 0.358, 192.0, 0.0, 0.0, 0.0, 0.0, 0.0, 0.0, 0.0, 0.0, 0.0, 1.66358654378733E9, 0.0, 2022-09-19 16:22:23.787
137.0, 10066.622205570007, 42939.668052156936, -19237.274734649032, -10318.61577255914, 12885.691271506701, -187500.02235174447, 24616.512610496597, -18371.59167189499, 0.648, -0.71, 0.358, 192.0, 0.0, 0.0, 0.0, 0.0, 0.0, 0.0, 0.0, 0.0, 0.0, 1.663586543791368E9, 0.0, 2022-09-19 16:22:23.791
138.0, 10058.41911535491, 42933.02958405371, -19235.173670670232, -10315.0841969352, 12885.177181384228, -187500.02235174447, 24598.027717832058, -18367.903634059865, 0.648, -0.71, 0.358, 192.0, 0.0, 0.0, 0.0, 0.0, 0.0, 0.0, 0.0, 0.0, 0.0, 1.6635865437952774E9, 0.0, 2022-09-19 16:22:23.795
139.0, 10049.903100717438, 42938.17048527843, -19228.42344384473, -10317.587592314196, 12897.828268745932, -187500.02235174447, 24620.91590415429, -18374.698564374277, 0.646, -0.71, 0.356, 192.0, 20.0, 48.0, 233.0, 208.0, 11.0, 32.0, 0.0, 0.0, 0.0, 1.6635865437982645E9, 0.0, 2022-09-19 16:22:23.798
140.0, 10081.352005166054, 42953.54848546368, -19219.818022229436, -10313.430167845509, 12916.313161410471, -187500.02235174447, 24666.26759365411, -18363.366229935436, 0.646, -0.71, 0.356, 192.0, 0.0, 0.0, 0.0, 0.0, 0.0, 0.0, 0.0, 0.0, 0.0, 1.6635865438022892E9, 0.0, 2022-09-19 16:22:23.802
141.0, 10102.675569376419, 42949.21224703935, -19219.460394318154, -10309.920943966024, 12911.529888097035, -187500.02235174447, 24645.905154455326, -18359.566433378033, 0.646, -0.71, 0.356, 192.0, 0.0, 0.0, 0.0, 0.0, 0.0, 0.0, 0.0, 0.0, 0.0, 1.6635865438072548E9, 0.0, 2022-09-19 16:22:23.807
142.0, 10098.160516996446, 42937.276415500215, -19216.174687883224, -10307.931638709502, 12899.482297835624, -187500.02235174447, 24589.042316561023, -18356.504244387655, 0.646, -0.71, 0.356, 192.0, 0.0, 0.0, 0.0, 0.0, 0.0, 0.0, 0.0, 0.0, 0.0, 1.6635865438116243E9, 0.0, 2022-09-19 16:22:23.811
143.0, 10081.70963307734, 42928.40277295146, -19220.779147241014, -10311.686731777994, 12901.940989725708, -187500.02235174447, 24570.020982029557, -18360.751075834167, 0.646, -0.71, 0.356, 192.0, 0.0, 0.0, 0.0, 0.0, 0.0, 0.0, 0.0, 0.0, 0.0, 1.6635865438152933E9, 0.0, 2022-09-19 16:22:23.815
144.0, 10038.593118023053, 42912.82360706611, -19233.027903202525, -10320.716836537938, 12911.239315419116, -187500.02235174447, 24587.432990960242, -18366.74134334819, 0.646, -0.71, 0.356, 192.0, 0.0, 0.0, 0.0, 0.0, 0.0, 0.0, 0.0, 0.0, 0.0, 1.6635865438192866E9, 0.0, 2022-09-19 16:22:23.819
145.0, 10064.31997589111, 42923.15011300446, -19221.919086208236, -10321.722665038427, 12926.550260371001, -187500.02235174447, 24631.39887230383, -18371.30109921707, 0.646, -0.71, 0.356, 192.0, 0.0, 0.0, 0.0, 0.0, 0.0, 0.0, 0.0, 0.0, 0.0, 1.6635865438232963E9, 0.0, 2022-09-19 16:22:23.823
146.0, 10105.625999644519, 42945.8371336266, -19206.898713934268, -10307.596362542674, 12942.308240211993, -187500.02235174447, 24628.359035057907, -18364.126189246916, 0.646, -0.71, 0.356, 192.0, 0.0, 0.0, 0.0, 0.0, 0.0, 0.0, 0.0, 0.0, 0.0, 1.6635865438283472E9, 0.0, 2022-09-19 16:22:23.828
147.0, 10102.832031587604, 42945.41245048195, -19208.23981860159, -10309.831536988204, 12942.531757656547, -187500.02235174447, 24581.062743790477, -18358.06886649953, 0.646, -0.71, 0.356, 192.0, 0.0, 0.0, 0.0, 0.0, 0.0, 0.0, 0.0, 0.0, 0.0, 1.6635865438323483E9, 0.0, 2022-09-19 16:22:23.832
148.0, 10096.260618717744, 42944.9877673373, -19211.793745969982, -10312.893725978582, 12938.106112254396, -187500.02235174447, 24565.058894760477, -18354.738456575687, 0.646, -0.71, 0.356, 192.0, 0.0, 0.0, 0.0, 0.0, 0.0, 0.0, 0.0, 0.0, 0.0, 1.6635865438353436E9, 0.0, 2022-09-19 16:22:23.835
149.0, 10091.119717493024, 42952.229732540814, -19218.588676284395, -10317.297019636277, 12944.14108325733, -187500.02235174447, 24587.432990960242, -18361.041648512084, 0.642, -0.708, 0.356, 192.0, 20.0, 16.0, 233.0, 224.0, 11.0, 32.0, 0.0, 0.0, 0.0, 1.6635865438403516E9, 0.0, 2022-09-19 16:22:23.840
150.0, 10083.609531356042, 42960.29871228919, -19222.723749008626, -10319.822766759726, 12954.266423495583, -187500.02235174447, 24637.34443632894, -18362.15923573485, 0.642, -0.708, 0.356, 192.0, 0.0, 0.0, 0.0, 0.0, 0.0, 0.0, 0.0, 0.0, 0.0, 1.6635865438443878E9, 0.0, 2022-09-19 16:22:23.844
151.0, 10076.144048707969, 42951.31331101815, -19230.323342123433, -10321.365037127141, 12944.096379768418, -187500.02235174447, 24631.465927537196, -18360.661668856344, 0.642, -0.708, 0.356, 192.0, 0.0, 0.0, 0.0, 0.0, 0.0, 0.0, 0.0, 0.0, 0.0, 1.6635865438473208E9, 0.0, 2022-09-19 16:22:23.847
152.0, 10070.80198178315, 42941.92557834692, -19237.967638727147, -10320.85094700467, 12924.18097545874, -187500.02235174447, 24578.402886200296, -18359.141750233382, 0.642, -0.708, 0.356, 192.0, 0.0, 0.0, 0.0, 0.0, 0.0, 0.0, 0.0, 0.0, 0.0, 1.66358654385147E9, 0.0, 2022-09-19 16:22:23.851
153.0, 10059.84962700005, 42939.42218296792, -19242.862670762857, -10321.163871427045, 12912.245143919605, -187500.02235174447, 24558.129853979335, -18371.323450961525, 0.642, -0.708, 0.356, 192.0, 0.0, 0.0, 0.0, 0.0, 0.0, 0.0, 0.0, 0.0, 0.0, 1.6635865438544385E9, 0.0, 2022-09-19 16:22:23.854
154.0, 10055.871016487004, 42941.903226602466, -19242.75091204058, -10326.32712439622, 12920.045902734508, -187500.02235174447, 24579.654583889795, -18369.043573027084, 0.642, -0.708, 0.356, 192.0, 0.0, 0.0, 0.0, 0.0, 0.0, 0.0, 0.0, 0.0, 0.0, 1.6635865438583813E9, 0.0, 2022-09-19 16:22:23.858
155.0, 10061.3248421341, 42957.66120644346, -19239.576964327927, -10330.32808665372, 12936.541490142525, -187500.02235174447, 24631.82355544848, -18369.624718382922, 0.642, -0.708, 0.356, 192.0, 0.0, 0.0, 0.0, 0.0, 0.0, 0.0, 0.0, 0.0, 0.0, 1.663586543862425E9, 0.0, 2022-09-19 16:22:23.862
156.0, 10024.511519016209, 42942.97611033632, -19249.232917932623, -10331.177452943022, 12944.006972790596, -187500.02235174447, 24632.15883161531, -18366.696639859278, 0.642, -0.708, 0.356, 192.0, 0.0, 0.0, 0.0, 0.0, 0.0, 0.0, 0.0, 0.0, 0.0, 1.6635865438673582E9, 0.0, 2022-09-19 16:22:23.867
157.0, 9976.49997192621, 42896.372723147004, -19267.516644897063, -10346.041363005801, 12935.110978497385, -187500.02235174447, 24578.224072244655, -18386.07560230203, 0.642, -0.708, 0.356, 192.0, 0.0, 0.0, 0.0, 0.0, 0.0, 0.0, 0.0, 0.0, 0.0, 1.6635865438713632E9, 0.0, 2022-09-19 16:22:23.871
158.0, 10033.27340284269, 42907.839168052575, -19252.116292967356, -10330.126920953622, 12928.360751671882, -187500.02235174447, 24559.895641791303, -18373.379811451414, 0.642, -0.708, 0.356, 192.0, 0.0, 0.0, 0.0, 0.0, 0.0, 0.0, 0.0, 0.0, 0.0, 1.6635865438744116E9, 0.0, 2022-09-19 16:22:23.874
159.0, 10093.466650660832, 42938.058726556155, -19230.345693867886, -10317.56524056974, 12932.339362184926, -187500.02235174447, 24581.465075190674, -18361.376924678912, 0.634, -0.7000000000000001, 0.358, 192.0, 19.0, 208.0, 234.0, 32.0, 11.0, 48.0, 0.0, 0.0, 0.0, 1.6635865438783953E9, 0.0, 2022-09-19 16:22:23.878
160.0, 10102.563810654141, 42962.0421483567, -19229.00458920057, -10318.816938259237, 12944.543414657524, -187500.02235174447, 24629.364863558396, -18359.052343255564, 0.634, -0.7000000000000001, 0.358, 192.0, 0.0, 0.0, 0.0, 0.0, 0.0, 0.0, 0.0, 0.0, 0.0, 1.663586543882382E9, 0.0, 2022-09-19 16:22:23.882
161.0, 10096.439432673387, 42962.75740417927, -19239.934592239213, -10323.71197029495, 12936.6532488648, -187500.02235174447, 24633.25406709362, -18358.67236359982, 0.634, -0.7000000000000001, 0.358, 192.0, 0.0, 0.0, 0.0, 0.0, 0.0, 0.0, 0.0, 0.0, 0.0, 1.6635865438864558E9, 0.0, 2022-09-19 16:22:23.886
162.0, 10082.916627277926, 42948.51934296123, -19241.923897495737, -10331.512729109852, 12909.138251440318, -187500.02235174447, 24583.163807769277, -18363.20976772425, 0.634, -0.7000000000000001, 0.358, 192.0, 0.0, 0.0, 0.0, 0.0, 0.0, 0.0, 0.0, 0.0, 0.0, 1.663586543891415E9, 0.0, 2022-09-19 16:22:23.891
163.0, 10079.608569098542, 42945.323043504126, -19238.794653271994, -10334.463159377952, 12893.26851287705, -187500.02235174447, 24564.76832208256, -18364.506168902655, 0.634, -0.7000000000000001, 0.358, 192.0, 0.0, 0.0, 0.0, 0.0, 0.0, 0.0, 0.0, 0.0, 0.0, 1.6635865438954084E9, 0.0, 2022-09-19 16:22:23.895
164.0, 10083.765993567229, 42953.36967150804, -19234.637228803305, -10334.686676822505, 12888.440536074702, -187500.02235174447, 24582.0015170576, -18364.23794796919, 0.634, -0.7000000000000001, 0.358, 192.0, 0.0, 0.0, 0.0, 0.0, 0.0, 0.0, 0.0, 0.0, 0.0, 1.6635865438994803E9, 0.0, 2022-09-19 16:22:23.899
165.0, 10084.391842411977, 42965.26079955826, -19233.005551458067, -10342.800360059782, 12890.161620397761, -187500.02235174447, 24633.723453727183, -18368.82005558253, 0.634, -0.7000000000000001, 0.358, 192.0, 0.0, 0.0, 0.0, 0.0, 0.0, 0.0, 0.0, 0.0, 0.0, 1.6635865439034264E9, 0.0, 2022-09-19 16:22:23.903
166.0, 10074.601778340553, 42964.27732280223, -19236.514775337553, -10348.52240664034, 12877.599940013879, -187500.02235174447, 24642.39593057584, -18374.832674841007, 0.634, -0.7000000000000001, 0.358, 192.0, 0.0, 0.0, 0.0, 0.0, 0.0, 0.0, 0.0, 0.0, 0.0, 1.6635865439064991E9, 0.0, 2022-09-19 16:22:23.906
167.0, 10071.584292839087, 42960.67869194492, -19231.753853768572, -10334.530214611319, 12859.159750838251, -187500.02235174447, 24598.765325399083, -18355.721933331723, 0.634, -0.7000000000000001, 0.358, 192.0, 0.0, 0.0, 0.0, 0.0, 0.0, 0.0, 0.0, 0.0, 0.0, 1.6635865439104736E9, 0.0, 2022-09-19 16:22:23.910
168.0, 10073.70770856234, 42957.39298550999, -19224.981275198614, -10332.742075054894, 12837.791483138977, -187500.02235174447, 24576.212415243677, -18359.25350895566, 0.634, -0.7000000000000001, 0.358, 192.0, 0.0, 0.0, 0.0, 0.0, 0.0, 0.0, 0.0, 0.0, 0.0, 1.663586543916545E9, 0.0, 2022-09-19 16:22:23.916
169.0, 10076.121696963513, 42955.56014246466, -19221.740272252595, -10333.770255299838, 12821.877041086798, -187500.02235174447, 24584.929595581245, -18359.208805466747, 0.634, -0.7000000000000001, 0.358, 192.0, 0.0, 0.0, 0.0, 0.0, 0.0, 0.0, 0.0, 0.0, 0.0, 1.6635865439204638E9, 0.0, 2022-09-19 16:22:23.920
170.0, 10083.028386000204, 42965.50666874727, -19218.23104837311, -10338.352362913176, 12820.334770719383, -187500.02235174447, 24629.364863558396, -18363.88032005791, 0.612, -0.6960000000000001, 0.356, 192.0, 19.0, 32.0, 234.0, 64.0, 11.0, 32.0, 0.0, 0.0, 0.0, 1.6635865439244978E9, 0.0, 2022-09-19 16:22:23.924
171.0, 10081.843743544072, 42968.83707867111, -19222.746100753084, -10341.638069348106, 12810.500003159048, -187500.02235174447, 24640.54073578605, -18368.909462560354, 0.612, -0.6960000000000001, 0.356, 192.0, 0.0, 0.0, 0.0, 0.0, 0.0, 0.0, 0.0, 0.0, 0.0, 1.6635865439285297E9, 0.0, 2022-09-19 16:22:23.928
172.0, 10073.126563206502, 42953.59318895259, -19225.607124043363, -10332.362095399154, 12783.879075512777, -187500.02235174447, 24587.432990960242, -18358.404142666357, 0.612, -0.6960000000000001, 0.356, 192.0, 0.0, 0.0, 0.0, 0.0, 0.0, 0.0, 0.0, 0.0, 0.0, 1.6635865439325976E9, 0.0, 2022-09-19 16:22:23.932
173.0, 10068.410345126433, 42944.831305126114, -19221.740272252595, -10328.316429652743, 12771.250339895529, -187500.02235174447, 24556.14054872281, -18356.839520554488, 0.612, -0.6960000000000001, 0.356, 192.0, 0.0, 0.0, 0.0, 0.0, 0.0, 0.0, 0.0, 0.0, 0.0, 1.6635865439355516E9, 0.0, 2022-09-19 16:22:23.935
174.0, 10066.577502081098, 42948.83226738361, -19220.242705374087, -10333.479682621919, 12776.145371931241, -187500.02235174447, 24568.72458085115, -18362.695677601776, 0.612, -0.6960000000000001, 0.356, 192.0, 0.0, 0.0, 0.0, 0.0, 0.0, 0.0, 0.0, 0.0, 0.0, 1.6635865439384892E9, 0.0, 2022-09-19 16:22:23.938
175.0, 10062.397725867955, 42955.314273275646, -19221.94143795269, -10341.23573794791, 12785.309587157917, -187500.02235174447, 24614.54565698453, -18368.127151504417, 0.612, -0.6960000000000001, 0.356, 192.0, 0.0, 0.0, 0.0, 0.0, 0.0, 0.0, 0.0, 0.0, 0.0, 1.6635865439426267E9, 0.0, 2022-09-19 16:22:23.942
176.0, 10062.934167734882, 42956.096584331586, -19228.37874035582, -10336.027781489824, 12786.896561014244, -187500.02235174447, 24628.180221102266, -18365.10966600295, 0.612, -0.6960000000000001, 0.356, 192.0, 0.0, 0.0, 0.0, 0.0, 0.0, 0.0, 0.0, 0.0, 0.0, 1.6635865439466128E9, 0.0, 2022-09-19 16:22:23.946
177.0, 10060.810752011628, 42948.51934296123, -19234.257249147566, -10324.538984839795, 12785.019014479998, -187500.02235174447, 24580.995688557112, -18355.543119376078, 0.612, -0.6960000000000001, 0.356, 192.0, 0.0, 0.0, 0.0, 0.0, 0.0, 0.0, 0.0, 0.0, 0.0, 1.663586543951542E9, 0.0, 2022-09-19 16:22:23.951
178.0, 10060.006089211236, 42945.07717431512, -19233.09495843589, -10323.577859828218, 12786.896561014244, -187500.02235174447, 24552.027827743033, -18358.426494410814, 0.612, -0.6960000000000001, 0.356, 192.0, 0.0, 0.0, 0.0, 0.0, 0.0, 0.0, 0.0, 0.0, 0.0, 1.6635865439555876E9, 0.0, 2022-09-19 16:22:23.955
179.0, 10063.18003692389, 42947.625273183025, -19228.691664778195, -10325.410702873553, 12788.684700570668, -187500.02235174447, 24560.923822036246, -18366.16019799235, 0.612, -0.6960000000000001, 0.356, 192.0, 0.0, 0.0, 0.0, 0.0, 0.0, 0.0, 0.0, 0.0, 0.0, 1.6635865439585843E9, 0.0, 2022-09-19 16:22:23.958
180.0, 10069.527932349198, 42957.750613421274, -19222.209658886153, -10326.572993585229, 12797.066604741407, -187500.02235174447, 24602.76628765658, -18357.979459521706, 0.636, -0.712, 0.356, 192.0, 19.0, 224.0, 233.0, 192.0, 11.0, 32.0, 0.0, 0.0, 0.0, 1.6635865439625895E9, 0.0, 2022-09-19 16:22:23.962
181.0, 10068.387993381977, 42961.393947767494, -19229.56338281195, -10326.237717418398, 12801.022863509997, -187500.02235174447, 24614.8585814069, -18361.980421779208, 0.636, -0.712, 0.356, 192.0, 0.0, 0.0, 0.0, 0.0, 0.0, 0.0, 0.0, 0.0, 0.0, 1.6635865439665523E9, 0.0, 2022-09-19 16:22:23.966
182.0, 10063.89529274646, 42952.87793313002, -19232.558516568963, -10320.292153393288, 12796.932494274675, -187500.02235174447, 24568.121083750855, -18359.074695000018, 0.636, -0.712, 0.356, 192.0, 0.0, 0.0, 0.0, 0.0, 0.0, 0.0, 0.0, 0.0, 0.0, 1.6635865439707048E9, 0.0, 2022-09-19 16:22:23.970
183.0, 10063.314147390622, 42948.675805172425, -19228.065815933445, -10314.972438212924, 12803.369796677804, -187500.02235174447, 24537.163917680256, -18356.571299621024, 0.636, -0.712, 0.356, 192.0, 0.0, 0.0, 0.0, 0.0, 0.0, 0.0, 0.0, 0.0, 0.0, 1.6635865439745924E9, 0.0, 2022-09-19 16:22:23.974
184.0, 10065.459914858331, 42952.028566840716, -19227.66348453325, -10319.934525482002, 12821.184137008684, -187500.02235174447, 24547.66923757425, -18359.432322911303, 0.636, -0.712, 0.356, 192.0, 0.0, 0.0, 0.0, 0.0, 0.0, 0.0, 0.0, 0.0, 0.0, 1.6635865439785783E9, 0.0, 2022-09-19 16:22:23.978
185.0, 10070.265539916223, 42961.885686145506, -19229.965714212147, -10325.90244125157, 12841.144244807274, -187500.02235174447, 24594.138514296832, -18363.835616569, 0.636, -0.712, 0.356, 192.0, 0.0, 0.0, 0.0, 0.0, 0.0, 0.0, 0.0, 0.0, 0.0, 1.6635865439836638E9, 0.0, 2022-09-19 16:22:23.983
186.0, 10071.13725794998, 42971.184011838915, -19237.18532767121, -10326.103606951667, 12853.840035657888, -187500.02235174447, 24622.54758149953, -18366.74134334819, 0.636, -0.712, 0.356, 192.0, 0.0, 0.0, 0.0, 0.0, 0.0, 0.0, 0.0, 0.0, 0.0, 1.6635865439876387E9, 0.0, 2022-09-19 16:22:23.987
187.0, 10069.03619397118, 42968.881782160024, -19238.03469396051, -10325.410702873553, 12864.010079385052, -187500.02235174447, 24588.617633416372, -18361.265165956636, 0.636, -0.712, 0.356, 192.0, 0.0, 0.0, 0.0, 0.0, 0.0, 0.0, 0.0, 0.0, 0.0, 1.6635865439915967E9, 0.0, 2022-09-19 16:22:23.991
188.0, 10071.070202716613, 42970.04407287169, -19233.162013669255, -10326.70710405196, 12875.789448713, -187500.02235174447, 24563.941307537712, -18363.902671802363, 0.636, -0.712, 0.356, 192.0, 0.0, 0.0, 0.0, 0.0, 0.0, 0.0, 0.0, 0.0, 0.0, 1.6635865439946263E9, 0.0, 2022-09-19 16:22:23.994
189.0, 10073.014804484226, 42974.76029095177, -19233.541993324994, -10333.792607044294, 12880.483315048614, -187500.02235174447, 24576.1006565214, -18371.345802705982, 0.636, -0.712, 0.356, 192.0, 0.0, 0.0, 0.0, 0.0, 0.0, 0.0, 0.0, 0.0, 0.0, 1.6635865439986427E9, 0.0, 2022-09-19 16:22:23.998
190.0, 10076.747545808263, 42984.55035502319, -19238.168804427245, -10346.354287428176, 12894.475507077635, -187500.02235174447, 24625.900343167825, -18378.543064420588, 0.662, -0.704, 0.356, 192.0, 20.0, 176.0, 234.0, 0.0, 11.0, 32.0, 0.0, 0.0, 0.0, 1.6635865440026321E9, 0.0, 2022-09-19 16:22:24.002
191.0, 10070.556112594142, 42986.33849457961, -19252.988011001115, -10367.72255512745, 12896.97890245663, -187500.02235174447, 24658.8691662394, -18403.219390299248, 0.662, -0.704, 0.356, 192.0, 0.0, 0.0, 0.0, 0.0, 0.0, 0.0, 0.0, 0.0, 0.0, 1.663586544008649E9, 0.0, 2022-09-19 16:22:24.008
192.0, 10060.162551422423, 42969.015892626754, -19260.744066327105, -10366.180284760034, 12874.627158001324, -187500.02235174447, 24616.333796540952, -18391.6411866714, 0.662, -0.704, 0.356, 192.0, 0.0, 0.0, 0.0, 0.0, 0.0, 0.0, 0.0, 0.0, 0.0, 1.6635865440116382E9, 0.0, 2022-09-19 16:22:24.011
193.0, 10063.85058925755, 42960.25400880027, -19250.037580733013, -10356.501979410885, 12865.842922430387, -187500.02235174447, 24581.465075190674, -18375.816151597042, 0.662, -0.704, 0.356, 192.0, 0.0, 0.0, 0.0, 0.0, 0.0, 0.0, 0.0, 0.0, 0.0, 1.6635865440157683E9, 0.0, 2022-09-19 16:22:24.015
194.0, 10065.817542769617, 42961.55040997868, -19251.691609822705, -10369.354232472686, 12871.095582377386, -187500.02235174447, 24585.466037448175, -18392.78112563862, 0.662, -0.704, 0.356, 192.0, 0.0, 0.0, 0.0, 0.0, 0.0, 0.0, 0.0, 0.0, 0.0, 1.663586544018701E9, 0.0, 2022-09-19 16:22:24.018
195.0, 10065.258749158234, 42967.51832574825, -19254.507929624073, -10379.256055266387, 12883.16552438325, -187500.02235174447, 24626.34737805693, -18404.582846711022, 0.662, -0.704, 0.356, 192.0, 0.0, 0.0, 0.0, 0.0, 0.0, 0.0, 0.0, 0.0, 0.0, 1.6635865440226412E9, 0.0, 2022-09-19 16:22:24.022
196.0, 10061.123676434003, 42969.440575771405, -19258.95592677068, -10384.843991380214, 12886.965320940653, -187500.02235174447, 24652.87889872538, -18407.98031186823, 0.662, -0.704, 0.356, 192.0, 0.0, 0.0, 0.0, 0.0, 0.0, 0.0, 0.0, 0.0, 0.0, 1.6635865440267987E9, 0.0, 2022-09-19 16:22:24.026
197.0, 10047.645574527452, 42949.301654017174, -19273.842188577913, -10386.38626174763, 12861.149056094773, -187500.02235174447, 24602.408659745295, -18408.762622924165, 0.662, -0.704, 0.356, 192.0, 0.0, 0.0, 0.0, 0.0, 0.0, 0.0, 0.0, 0.0, 0.0, 1.6635865440307083E9, 0.0, 2022-09-19 16:22:24.030
198.0, 10047.198539638346, 42941.8361713691, -19273.171636244257, -10381.759450645382, 12852.945965879675, -187500.02235174447, 24565.170653482754, -18405.58867521151, 0.662, -0.704, 0.356, 192.0, 0.0, 0.0, 0.0, 0.0, 0.0, 0.0, 0.0, 0.0, 0.0, 1.6635865440357015E9, 0.0, 2022-09-19 16:22:24.035
199.0, 10047.98085069428, 42940.919749846435, -19271.785828088025, -10389.694319927015, 12856.745762437078, -187500.02235174447, 24565.48357790513, -18416.02693987214, 0.662, -0.704, 0.356, 192.0, 0.0, 0.0, 0.0, 0.0, 0.0, 0.0, 0.0, 0.0, 0.0, 1.6635865440386477E9, 0.0, 2022-09-19 16:22:24.038
200.0, 10057.010955454225, 42953.95081686388, -19264.610918117873, -10387.280331525842, 12878.650472003279, -187500.02235174447, 24609.561217970993, -18416.473974761248, 0.676, -0.722, 0.34, 192.0, 21.0, 32.0, 233.0, 112.0, 10.0, 160.0, 0.0, 0.0, 0.0, 1.6635865440418038E9, 0.0, 2022-09-19 16:22:24.041
201.0, 10061.838932256573, 42967.51832574825, -19267.2484239636, -10385.603950691695, 12897.202419901183, -187500.02235174447, 24647.02274167809, -18415.40109102739, 0.676, -0.722, 0.34, 192.0, 0.0, 0.0, 0.0, 0.0, 0.0, 0.0, 0.0, 0.0, 0.0, 1.6635865440457833E9, 0.0, 2022-09-19 16:22:24.045
202.0, 10054.284042630678, 42956.96830236534, -19280.257139236586, -10388.397918748607, 12879.45513480367, -187500.02235174447, 24604.107392323902, -18415.624608471946, 0.676, -0.722, 0.34, 192.0, 0.0, 0.0, 0.0, 0.0, 0.0, 0.0, 0.0, 0.0, 0.0, 1.6635865440506876E9, 0.0, 2022-09-19 16:22:24.050
203.0, 10050.640708284463, 42947.02177608273, -19282.537017171027, -10389.58256120474, 12855.695230447678, -187500.02235174447, 24560.00740051358, -18419.022073629152, 0.676, -0.722, 0.34, 192.0, 0.0, 0.0, 0.0, 0.0, 0.0, 0.0, 0.0, 0.0, 0.0, 1.6635865440547776E9, 0.0, 2022-09-19 16:22:24.054
204.0, 10049.567824550608, 42942.4843719583, -19282.112334026377, -10391.035424594334, 12846.06162858744, -187500.02235174447, 24553.704208577183, -18420.58669574102, 0.676, -0.722, 0.34, 192.0, 0.0, 0.0, 0.0, 0.0, 0.0, 0.0, 0.0, 0.0, 0.0, 1.663586544058742E9, 0.0, 2022-09-19 16:22:24.058
205.0, 10052.719420518806, 42950.419241239935, -19281.106505525888, -10395.371663018665, 12859.271509560527, -187500.02235174447, 24588.975261327658, -18425.369969054456, 0.676, -0.722, 0.34, 192.0, 0.0, 0.0, 0.0, 0.0, 0.0, 0.0, 0.0, 0.0, 0.0, 1.663586544062798E9, 0.0, 2022-09-19 16:22:24.062
206.0, 10053.389972852467, 42955.671901186935, -19285.91213058378, -10393.53881997333, 12868.368669553838, -187500.02235174447, 24622.435822777254, -18425.50407952119, 0.676, -0.722, 0.34, 192.0, 0.0, 0.0, 0.0, 0.0, 0.0, 0.0, 0.0, 0.0, 0.0, 1.6635865440667324E9, 0.0, 2022-09-19 16:22:24.066
207.0, 10041.61060352452, 42941.14326729099, -19294.606959176894, -10391.169535061066, 12850.822550156421, -187500.02235174447, 24582.58266241344, -18425.861707432476, 0.676, -0.722, 0.34, 192.0, 0.0, 0.0, 0.0, 0.0, 0.0, 0.0, 0.0, 0.0, 0.0, 1.663586544071782E9, 0.0, 2022-09-19 16:22:24.071
208.0, 10039.978926179281, 42930.25796774125, -19292.617653920373, -10388.308511770787, 12840.87602387381, -187500.02235174447, 24543.57886833893, -18422.576000997546, 0.676, -0.722, 0.34, 192.0, 0.0, 0.0, 0.0, 0.0, 0.0, 0.0, 0.0, 0.0, 0.0, 1.6635865440747907E9, 0.0, 2022-09-19 16:22:24.074
209.0, 10038.079027900581, 42929.07332528512, -19292.215322520176, -10396.265732796875, 12840.16076805124, -187500.02235174447, 24544.294124161497, -18428.320399322558, 0.676, -0.722, 0.34, 192.0, 0.0, 0.0, 0.0, 0.0, 0.0, 0.0, 0.0, 0.0, 0.0, 1.6635865440798488E9, 0.0, 2022-09-19 16:22:24.079
210.0, 10040.2694988572, 42938.10343004506, -19293.377613231853, -10405.117023601179, 12847.82741639941, -187500.02235174447, 24581.86740659087, -18434.37772206995, 0.676, -0.74, 0.326, 192.0, 21.0, 32.0, 232.0, 224.0, 10.0, 48.0, 0.0, 0.0, 0.0, 1.6635865440839665E9, 0.0, 2022-09-19 16:22:24.083
211.0, 10044.2704611147, 42944.45132547037, -19295.992767333122, -10403.641808467128, 12854.68940194719, -187500.02235174447, 24619.01600587559, -18429.88502143443, 0.676, -0.74, 0.326, 192.0, 0.0, 0.0, 0.0, 0.0, 0.0, 0.0, 0.0, 0.0, 0.0, 1.6635865440867617E9, 0.0, 2022-09-19 16:22:24.086
212.0, 10042.504673302732, 42939.377479479015, -19296.417450477773, -10394.276427540353, 12845.100503575863, -187500.02235174447, 24586.605976415394, -18420.340826552016, 0.676, -0.74, 0.326, 192.0, 0.0, 0.0, 0.0, 0.0, 0.0, 0.0, 0.0, 0.0, 0.0, 1.66358654409083E9, 0.0, 2022-09-19 16:22:24.090
213.0, 10038.302545345134, 42929.45330494086, -19294.58460743244, -10397.226857808455, 12833.991686581576, -187500.02235174447, 24541.85778401587, -18424.587657998523, 0.676, -0.74, 0.326, 192.0, 0.0, 0.0, 0.0, 0.0, 0.0, 0.0, 0.0, 0.0, 0.0, 1.6635865440947456E9, 0.0, 2022-09-19 16:22:24.094
214.0, 10040.425961068388, 42929.945043318876, -19295.34456674392, -10400.736081687937, 12840.049009328963, -187500.02235174447, 24539.71201654816, -18425.727596965742, 0.676, -0.74, 0.326, 192.0, 0.0, 0.0, 0.0, 0.0, 0.0, 0.0, 0.0, 0.0, 0.0, 1.6635865440978563E9, 0.0, 2022-09-19 16:22:24.097
215.0, 10049.433714083876, 42941.59030218009, -19287.834380606935, -10393.360006017687, 12861.93136715071, -187500.02235174447, 24580.01221180108, -18420.45258527429, 0.676, -0.74, 0.326, 192.0, 0.0, 0.0, 0.0, 0.0, 0.0, 0.0, 0.0, 0.0, 0.0, 1.6635865441017907E9, 0.0, 2022-09-19 16:22:24.101
216.0, 10054.552263564143, 42955.962473864856, -19283.989880560624, -10398.746776431415, 12891.16744889825, -187500.02235174447, 24625.900343167825, -18426.196983599304, 0.676, -0.74, 0.326, 192.0, 0.0, 0.0, 0.0, 0.0, 0.0, 0.0, 0.0, 0.0, 0.0, 1.6635865441067653E9, 0.0, 2022-09-19 16:22:24.106
217.0, 10047.042077427159, 42947.71468016085, -19291.701232397703, -10398.523258986863, 12895.235466389116, -187500.02235174447, 24597.714793409683, -18422.01720738616, 0.676, -0.74, 0.326, 192.0, 0.0, 0.0, 0.0, 0.0, 0.0, 0.0, 0.0, 0.0, 0.0, 1.663586544110906E9, 0.0, 2022-09-19 16:22:24.110
218.0, 10043.018763425203, 42936.650566655466, -19289.510761441084, -10386.408613492085, 12884.953663939676, -187500.02235174447, 24553.61480159936, -18408.31558803506, 0.676, -0.74, 0.326, 192.0, 0.0, 0.0, 0.0, 0.0, 0.0, 0.0, 0.0, 0.0, 0.0, 1.663586544114786E9, 0.0, 2022-09-19 16:22:24.114
219.0, 10042.32585934709, 42937.38817422249, -19288.415525962773, -10388.330863515243, 12882.159695882761, -187500.02235174447, 24552.586621354418, -18411.10955609197, 0.676, -0.74, 0.326, 192.0, 0.0, 0.0, 0.0, 0.0, 0.0, 0.0, 0.0, 0.0, 0.0, 1.663586544118837E9, 0.0, 2022-09-19 16:22:24.118
220.0, 10043.577557036586, 42945.88183711551, -19290.650700408307, -10398.791479920326, 12890.049861675485, -187500.02235174447, 24588.77409562756, -18420.96667539676, 0.664, -0.74, 0.328, 192.0, 20.0, 192.0, 232.0, 224.0, 10.0, 64.0, 0.0, 0.0, 0.0, 1.663586544122812E9, 0.0, 2022-09-19 16:22:24.122
221.0, 10046.729153004784, 42958.28705528821, -19294.741069643627, -10401.116061343679, 12897.224771645639, -187500.02235174447, 24634.706930483215, -18421.436062030323, 0.664, -0.74, 0.328, 192.0, 0.0, 0.0, 0.0, 0.0, 0.0, 0.0, 0.0, 0.0, 0.0, 1.663586544125954E9, 0.0, 2022-09-19 16:22:24.125
222.0, 10043.51050180322, 42950.843924384586, -19303.301787770008, -10397.785651419837, 12876.907035935765, -187500.02235174447, 24607.460153992197, -18417.949189895295, 0.664, -0.74, 0.328, 192.0, 0.0, 0.0, 0.0, 0.0, 0.0, 0.0, 0.0, 0.0, 0.0, 1.6635865441299143E9, 0.0, 2022-09-19 16:22:24.129
223.0, 10032.93812667586, 42935.532979432704, -19314.231790808655, -10407.665122469083, 12851.358992023348, -187500.02235174447, 24557.124025478846, -18428.320399322558, 0.664, -0.74, 0.328, 192.0, 0.0, 0.0, 0.0, 0.0, 0.0, 0.0, 0.0, 0.0, 0.0, 1.6635865441348388E9, 0.0, 2022-09-19 16:22:24.134
224.0, 10034.83802495456, 42934.147171276476, -19313.561238474995, -10411.308456815297, 12845.279317531506, -187500.02235174447, 24552.743083565605, -18425.97346615475, 0.664, -0.74, 0.328, 192.0, 0.0, 0.0, 0.0, 0.0, 0.0, 0.0, 0.0, 0.0, 0.0, 1.663586544138965E9, 0.0, 2022-09-19 16:22:24.138
225.0, 10043.08581865857, 42943.64666266998, -19306.989825605135, -10406.77105269087, 12851.984840868097, -187500.02235174447, 24590.182255528245, -18423.60418124249, 0.664, -0.74, 0.328, 192.0, 0.0, 0.0, 0.0, 0.0, 0.0, 0.0, 0.0, 0.0, 0.0, 1.6635865441428964E9, 0.0, 2022-09-19 16:22:24.142
226.0, 10046.863263471516, 42955.35897676456, -19304.665244181782, -10404.424119523062, 12855.695230447678, -187500.02235174447, 24641.278343353075, -18428.700378978298, 0.664, -0.74, 0.328, 192.0, 0.0, 0.0, 0.0, 0.0, 0.0, 0.0, 0.0, 0.0, 0.0, 1.663586544146846E9, 0.0, 2022-09-19 16:22:24.146
227.0, 10019.236507324757, 42947.98290109431, -19313.82945940846, -10404.871154412169, 12833.902279603753, -187500.02235174447, 24622.97226464418, -18429.5497452676, 0.664, -0.74, 0.328, 192.0, 0.0, 0.0, 0.0, 0.0, 0.0, 0.0, 0.0, 0.0, 0.0, 1.663586544149845E9, 0.0, 2022-09-19 16:22:24.149
228.0, 9997.55531520311, 42934.52715093221, -19315.30467454251, -10404.088843356234, 12817.987837551575, -187500.02235174447, 24580.59335715692, -18428.61097200048, 0.664, -0.74, 0.328, 192.0, 0.0, 0.0, 0.0, 0.0, 0.0, 0.0, 0.0, 0.0, 0.0, 1.66358654415584E9, 0.0, 2022-09-19 16:22:24.155
229.0, 10032.312277831112, 42932.26962474223, -19311.102546584912, -10409.810889936793, 12817.63020964029, -187500.02235174447, 24579.185197256233, -18432.544879024612, 0.664, -0.74, 0.328, 192.0, 0.0, 0.0, 0.0, 0.0, 0.0, 0.0, 0.0, 0.0, 0.0, 1.6635865441588767E9, 0.0, 2022-09-19 16:22:24.158
230.0, 10058.329708377089, 42938.461057956345, -19302.34066275843, -10411.196698093021, 12828.604916167846, -187500.02235174447, 24618.278398308565, -18430.17559411235, 0.654, -0.726, 0.328, 192.0, 20.0, 112.0, 233.0, 80.0, 10.0, 64.0, 0.0, 0.0, 0.0, 1.6635865441629672E9, 0.0, 2022-09-19 16:22:24.162
231.0, 10060.274310144701, 42952.587360452104, -19299.993729590624, -10405.228782323455, 12847.626250699312, -187500.02235174447, 24675.70002981425, -18422.128966108437, 0.654, -0.726, 0.328, 192.0, 0.0, 0.0, 0.0, 0.0, 0.0, 0.0, 0.0, 0.0, 0.0, 1.6635865441678896E9, 0.0, 2022-09-19 16:22:24.167
232.0, 10066.242225914268, 42953.637892441504, -19293.48937195413, -10399.886715398636, 12842.641811685779, -187500.02235174447, 24662.937183730268, -18419.223239329247, 0.654, -0.726, 0.328, 192.0, 0.0, 0.0, 0.0, 0.0, 0.0, 0.0, 0.0, 0.0, 0.0, 1.6635865441720889E9, 0.0, 2022-09-19 16:22:24.172
233.0, 10062.665946801419, 42946.53003770472, -19289.466057952173, -10399.082052598245, 12825.63213415529, -187500.02235174447, 24621.184125087755, -18420.11730910746, 0.654, -0.726, 0.328, 192.0, 0.0, 0.0, 0.0, 0.0, 0.0, 0.0, 0.0, 0.0, 0.0, 1.663586544174892E9, 0.0, 2022-09-19 16:22:24.174
234.0, 10038.481359300777, 42937.49993294477, -19296.730374900148, -10408.62624748066, 12808.264828713516, -187500.02235174447, 24610.522342982575, -18424.6994167208, 0.654, -0.726, 0.328, 192.0, 0.0, 0.0, 0.0, 0.0, 0.0, 0.0, 0.0, 0.0, 0.0, 1.663586544178001E9, 0.0, 2022-09-19 16:22:24.178
235.0, 10041.364734335511, 42937.008194566755, -19295.38927023283, -10413.700093472016, 12807.862497313321, -187500.02235174447, 24642.30652359802, -18430.555573768088, 0.654, -0.726, 0.328, 192.0, 0.0, 0.0, 0.0, 0.0, 0.0, 0.0, 0.0, 0.0, 0.0, 1.663586544181884E9, 0.0, 2022-09-19 16:22:24.181
236.0, 10045.94684194885, 42949.525171461726, -19292.975281831656, -10413.230706838454, 12820.312418974927, -187500.02235174447, 24699.862265570435, -18433.841280203018, 0.654, -0.726, 0.328, 192.0, 0.0, 0.0, 0.0, 0.0, 0.0, 0.0, 0.0, 0.0, 0.0, 1.6635865441859477E9, 0.0, 2022-09-19 16:22:24.185
237.0, 10024.17624284938, 42939.511589945745, -19310.16377331779, -10415.510584772896, 12807.393110679759, -187500.02235174447, 24690.94391953277, -18435.294143592615, 0.654, -0.726, 0.328, 192.0, 0.0, 0.0, 0.0, 0.0, 0.0, 0.0, 0.0, 0.0, 0.0, 1.6635865441899176E9, 0.0, 2022-09-19 16:22:24.189
238.0, 10035.150949376935, 42924.06653452713, -19310.58845646244, -10413.297762071821, 12783.990834235054, -187500.02235174447, 24643.44646256524, -18428.20864060028, 0.654, -0.726, 0.328, 192.0, 0.0, 0.0, 0.0, 0.0, 0.0, 0.0, 0.0, 0.0, 0.0, 1.663586544195022E9, 0.0, 2022-09-19 16:22:24.195
239.0, 10043.264632614211, 42920.154979247454, -19297.02094757807, -10410.079110870256, 12773.329052129871, -187500.02235174447, 24631.041244392545, -18423.425367286847, 0.654, -0.726, 0.328, 192.0, 0.0, 0.0, 0.0, 0.0, 0.0, 0.0, 0.0, 0.0, 0.0, 1.663586544198936E9, 0.0, 2022-09-19 16:22:24.198
240.0, 10040.828292468583, 42929.34154621858, -19287.364993973373, -10407.77688119136, 12775.541874830948, -187500.02235174447, 24666.915794243312, -18424.565306254066, 0.638, -0.704, 0.34, 192.0, 19.0, 240.0, 234.0, 0.0, 10.0, 160.0, 0.0, 0.0, 0.0, 1.6635865442019677E9, 0.0, 2022-09-19 16:22:24.201
241.0, 10055.021650197703, 42940.07038355713, -19281.888816581824, -10408.067453869278, 12781.599197578336, -187500.02235174447, 24727.623132183926, -18423.000684142196, 0.638, -0.704, 0.34, 192.0, 0.0, 0.0, 0.0, 0.0, 0.0, 0.0, 0.0, 0.0, 0.0, 1.6635865442059624E9, 0.0, 2022-09-19 16:22:24.205
242.0, 10047.913795460916, 42931.17438926392, -19288.81785736297, -10406.927514902058, 12764.09778166983, -187500.02235174447, 24716.871943100923, -18418.463280017768, 0.638, -0.704, 0.34, 192.0, 0.0, 0.0, 0.0, 0.0, 0.0, 0.0, 0.0, 0.0, 0.0, 1.663586544209999E9, 0.0, 2022-09-19 16:22:24.209
243.0, 10041.074161657592, 42922.01017403724, -19284.593377660916, -10400.512564243385, 12748.652726251214, -187500.02235174447, 24669.888576255868, -18415.4457945163, 0.638, -0.704, 0.34, 192.0, 0.0, 0.0, 0.0, 0.0, 0.0, 0.0, 0.0, 0.0, 0.0, 1.6635865442140045E9, 0.0, 2022-09-19 16:22:24.214
244.0, 10047.824388483095, 42917.67393561291, -19273.685726366726, -10399.193811320521, 12741.52251976997, -187500.02235174447, 24656.276363882585, -18414.752890438187, 0.638, -0.704, 0.34, 192.0, 0.0, 0.0, 0.0, 0.0, 0.0, 0.0, 0.0, 0.0, 0.0, 1.6635865442179945E9, 0.0, 2022-09-19 16:22:24.217
245.0, 10054.976946708794, 42924.759438605244, -19266.913147796768, -10404.044139867323, 12747.177511117163, -187500.02235174447, 24683.16551246232, -18422.84422193101, 0.638, -0.704, 0.34, 192.0, 0.0, 0.0, 0.0, 0.0, 0.0, 0.0, 0.0, 0.0, 0.0, 1.6635865442229643E9, 0.0, 2022-09-19 16:22:24.222
246.0, 10066.71161254783, 42939.936273090396, -19257.167787214254, -10398.120927586668, 12758.509845556004, -187500.02235174447, 24738.530783478116, -18425.571134754555, 0.638, -0.704, 0.34, 192.0, 0.0, 0.0, 0.0, 0.0, 0.0, 0.0, 0.0, 0.0, 0.0, 1.663586544226997E9, 0.0, 2022-09-19 16:22:24.226
247.0, 10061.950690978849, 42941.187970779894, -19262.15222622779, -10396.310436285787, 12743.176548859663, -187500.02235174447, 24741.88354514641, -18425.97346615475, 0.638, -0.704, 0.34, 192.0, 0.0, 0.0, 0.0, 0.0, 0.0, 0.0, 0.0, 0.0, 0.0, 1.663586544231015E9, 0.0, 2022-09-19 16:22:24.231
248.0, 10051.713592018317, 42932.09081078658, -19265.840264062914, -10399.573790976261, 12716.265048535473, -187500.02235174447, 24705.69607087327, -18417.92683815084, 0.638, -0.704, 0.34, 192.0, 0.0, 0.0, 0.0, 0.0, 0.0, 0.0, 0.0, 0.0, 0.0, 1.6635865442339873E9, 0.0, 2022-09-19 16:22:24.233
249.0, 10049.478417572787, 42933.40956370945, -19265.75085708509, -10399.260866553888, 12706.765557141967, -187500.02235174447, 24703.68441387229, -18412.83064041503, 0.638, -0.704, 0.34, 192.0, 0.0, 0.0, 0.0, 0.0, 0.0, 0.0, 0.0, 0.0, 0.0, 1.6635865442390673E9, 0.0, 2022-09-19 16:22:24.239
250.0, 10048.383182094478, 42934.16952302093, -19265.549691384997, -10401.987779377436, 12704.888010607721, -187500.02235174447, 24736.9885131107, -18414.730538693733, 0.622, -0.684, 0.362, 192.0, 19.0, 112.0, 234.0, 160.0, 11.0, 80.0, 0.0, 0.0, 0.0, 1.663586544244012E9, 0.0, 2022-09-19 16:22:24.244
251.0, 10045.633917526475, 42939.533941690206, -19271.808179832482, -10411.420215537575, 12715.37097875726, -187500.02235174447, 24794.499551594206, -18435.74117848172, 0.622, -0.684, 0.362, 192.0, 0.0, 0.0, 0.0, 0.0, 0.0, 0.0, 0.0, 0.0, 0.0, 1.6635865442481244E9, 0.0, 2022-09-19 16:22:24.248
252.0, 10059.84962700005, 42950.12866856202, -19272.0987525104, -10404.982913134447, 12724.89282189522, -187500.02235174447, 24805.340147655028, -18435.18238487034, 0.622, -0.684, 0.362, 192.0, 0.0, 0.0, 0.0, 0.0, 0.0, 0.0, 0.0, 0.0, 0.0, 1.6635865442510836E9, 0.0, 2022-09-19 16:22:24.251
253.0, 10060.676641544896, 42944.94306384839, -19270.824703076447, -10394.34348277372, 12715.415682246172, -187500.02235174447, 24765.934022180325, -18422.151317852895, 0.622, -0.684, 0.362, 192.0, 0.0, 0.0, 0.0, 0.0, 0.0, 0.0, 0.0, 0.0, 0.0, 1.6635865442550364E9, 0.0, 2022-09-19 16:22:24.255
254.0, 10051.758295507228, 42937.276415500215, -19278.938386313723, -10397.383320019642, 12700.350606483295, -187500.02235174447, 24752.18769934031, -18424.677064976342, 0.622, -0.684, 0.362, 192.0, 0.0, 0.0, 0.0, 0.0, 0.0, 0.0, 0.0, 0.0, 0.0, 1.6635865442580655E9, 0.0, 2022-09-19 16:22:24.258
255.0, 10048.383182094478, 42936.67291839993, -19279.184255502732, -10406.01109337939, 12693.153344768685, -187500.02235174447, 24772.77365598365, -18433.50600403619, 0.622, -0.684, 0.362, 192.0, 0.0, 0.0, 0.0, 0.0, 0.0, 0.0, 0.0, 0.0, 0.0, 1.6635865442630801E9, 0.0, 2022-09-19 16:22:24.263
0.0, 10049.880748972982, 42945.88183711551, -19276.189121745723, -10409.319151558775, 12697.780155870934, -187500.02235174447, 24825.255551964707, -18440.591507028523, 0.622, -0.684, 0.362, 192.0, 0.0, 0.0, 0.0, 0.0, 0.0, 0.0, 0.0, 0.0, 0.0, 1.6635865442671156E9, 0.0, 2022-09-19 16:22:24.267
1.0, 10045.388048337467, 42940.07038355713, -19287.074421295456, -10408.961523647491, 12682.737431852513, -187500.02235174447, 24823.847392064024, -18447.095864665018, 0.622, -0.684, 0.362, 192.0, 0.0, 0.0, 0.0, 0.0, 0.0, 0.0, 0.0, 0.0, 0.0, 1.6635865442701008E9, 0.0, 2022-09-19 16:22:24.270
2.0, 10039.710705245818, 42923.5300926602, -19294.2046277767, -10409.877945170158, 12653.635460571702, -187500.02235174447, 24768.61623151496, -18450.627440288954, 0.622, -0.684, 0.362, 192.0, 0.0, 0.0, 0.0, 0.0, 0.0, 0.0, 0.0, 0.0, 0.0, 1.663586544274094E9, 0.0, 2022-09-19 16:22:24.274
3.0, 10037.900213944939, 42915.50581640075, -19289.600168418907, -10406.301666057308, 12644.583004067303, -187500.02235174447, 24744.968085881246, -18443.564289041078, 0.622, -0.684, 0.362, 192.0, 0.0, 0.0, 0.0, 0.0, 0.0, 0.0, 0.0, 0.0, 0.0, 1.6635865442780557E9, 0.0, 2022-09-19 16:22:24.278
4.0, 10037.27436510019, 42913.94119428888, -19284.66043289428, -10409.453262025507, 12646.795826768379, -187500.02235174447, 24760.18962385531, -18450.493329822224, 0.628, -0.6900000000000001, 0.364, 192.0, 19.0, 160.0, 234.0, 112.0, 11.0, 96.0, 0.0, 0.0, 0.0, 1.6635865442820888E9, 0.0, 2022-09-19 16:22:24.282
5.0, 10045.23158612628, 42924.133589760495, -19280.05597353649, -10412.11311961569, 12665.750106066478, -187500.02235174447, 24811.37511865796, -18455.634231046944, 0.628, -0.6900000000000001, 0.364, 192.0, 0.0, 0.0, 0.0, 0.0, 0.0, 0.0, 0.0, 0.0, 0.0, 1.6635865442861392E9, 0.0, 2022-09-19 16:22:24.286
6.0, 10049.031382683681, 42928.02279329572, -19286.850903850904, -10410.257924825899, 12684.302053964384, -187500.02235174447, 24819.891133295434, -18451.499158322713, 0.628, -0.6900000000000001, 0.364, 192.0, 0.0, 0.0, 0.0, 0.0, 0.0, 0.0, 0.0, 0.0, 0.0, 1.6635865442901442E9, 0.0, 2022-09-19 16:22:24.290
7.0, 10043.063466914115, 42918.053915268654, -19293.064688809478, -10406.525183501863, 12683.27387371944, -187500.02235174447, 24769.91263269337, -18446.604126287, 0.628, -0.6900000000000001, 0.364, 192.0, 0.0, 0.0, 0.0, 0.0, 0.0, 0.0, 0.0, 0.0, 0.0, 1.6635865442951005E9, 0.0, 2022-09-19 16:22:24.295
8.0, 10046.393876837954, 42913.69532509987, -19284.883950338837, -10401.272523554866, 12676.903626549678, -187500.02235174447, 24744.118719591945, -18445.84416697552, 0.628, -0.6900000000000001, 0.364, 192.0, 0.0, 0.0, 0.0, 0.0, 0.0, 0.0, 0.0, 0.0, 0.0, 1.663586544299112E9, 0.0, 2022-09-19 16:22:24.299
9.0, 10050.484246073276, 42917.15984549044, -19283.833418349437, -10405.876982912658, 12681.530437651925, -187500.02235174447, 24757.865042431957, -18452.996725201217, 0.628, -0.6900000000000001, 0.364, 192.0, 0.0, 0.0, 0.0, 0.0, 0.0, 0.0, 0.0, 0.0, 0.0, 1.6635865443021169E9, 0.0, 2022-09-19 16:22:24.302
10.0, 10059.491999088765, 42928.626290396016, -19279.921863069758, -10403.552401489307, 12693.578027913336, -187500.02235174447, 24804.20020868781, -18445.03950417513, 0.628, -0.6900000000000001, 0.364, 192.0, 0.0, 0.0, 0.0, 0.0, 0.0, 0.0, 0.0, 0.0, 0.0, 1.6635865443062136E9, 0.0, 2022-09-19 16:22:24.306
11.0, 10056.273347887201, 42927.128723517504, -19283.207569504688, -10405.139375345632, 12690.98522555652, -187500.02235174447, 24806.994176744724, -18447.297030365113, 0.628, -0.6900000000000001, 0.364, 192.0, 0.0, 0.0, 0.0, 0.0, 0.0, 0.0, 0.0, 0.0, 0.0, 1.663586544312153E9, 0.0, 2022-09-19 16:22:24.312
12.0, 10044.18105413688, 42914.65645011145, -19287.364993973373, -10405.876982912658, 12675.137838737708, -187500.02235174447, 24755.42870228633, -18449.487501321735, 0.628, -0.6900000000000001, 0.364, 192.0, 0.0, 0.0, 0.0, 0.0, 0.0, 0.0, 0.0, 0.0, 0.0, 1.6635865443151617E9, 0.0, 2022-09-19 16:22:24.315
13.0, 10041.096513402046, 42907.7274093303, -19283.498142182605, -10403.977084633958, 12668.208797956562, -187500.02235174447, 24727.98076009521, -18447.252326876205, 0.628, -0.6900000000000001, 0.364, 192.0, 0.0, 0.0, 0.0, 0.0, 0.0, 0.0, 0.0, 0.0, 0.0, 1.6635865443202505E9, 0.0, 2022-09-19 16:22:24.320
14.0, 10045.812731482118, 42911.79542682117, -19276.25617697909, -10400.691378199028, 12676.70246084958, -187500.02235174447, 24742.107062590967, -18442.22318437376, 0.628, -0.6900000000000001, 0.364, 192.0, 0.0, 0.0, 0.0, 0.0, 0.0, 0.0, 0.0, 0.0, 0.0, 1.6635865443231735E9, 0.0, 2022-09-19 16:22:24.323
15.0, 10051.89240597396, 42920.62436588101, -19272.456380421685, -10402.43481426654, 12693.689786635612, -187500.02235174447, 24790.342127125517, -18445.88887046443, 0.634, -0.7000000000000001, 0.36, 192.0, 19.0, 208.0, 234.0, 32.0, 11.0, 64.0, 0.0, 0.0, 0.0, 1.6635865443263235E9, 0.0, 2022-09-19 16:22:24.326
16.0, 10047.623222782997, 42923.26187172674, -19282.313499726475, -10412.20252659351, 12706.407929230683, -187500.02235174447, 24803.797877287612, -18453.17553915686, 0.634, -0.7000000000000001, 0.36, 192.0, 0.0, 0.0, 0.0, 0.0, 0.0, 0.0, 0.0, 0.0, 0.0, 1.6635865443302057E9, 0.0, 2022-09-19 16:22:24.330
17.0, 10041.498844802243, 42916.310479201136, -19290.87421785286, -10411.710788215494, 12711.727644411045, -187500.02235174447, 24759.586126755017, -18452.28146937865, 0.634, -0.7000000000000001, 0.36, 192.0, 0.0, 0.0, 0.0, 0.0, 0.0, 0.0, 0.0, 0.0, 0.0, 1.6635865443341997E9, 0.0, 2022-09-19 16:22:24.334
18.0, 10039.263670356711, 42906.453359896346, -19290.471886452662, -10408.738006202937, 12713.225211289551, -187500.02235174447, 24728.964236851247, -18452.102655423005, 0.634, -0.7000000000000001, 0.36, 192.0, 0.0, 0.0, 0.0, 0.0, 0.0, 0.0, 0.0, 0.0, 0.0, 1.6635865443381958E9, 0.0, 2022-09-19 16:22:24.338
19.0, 10045.23158612628, 42904.978144762295, -19282.0005753041, -10409.833241681248, 12719.573106714859, -187500.02235174447, 24736.273257288132, -18460.931594482852, 0.634, -0.7000000000000001, 0.36, 192.0, 0.0, 0.0, 0.0, 0.0, 0.0, 0.0, 0.0, 0.0, 0.0, 1.6635865443422544E9, 0.0, 2022-09-19 16:22:24.342
20.0, 10054.887539730971, 42916.60105187906, -19273.752781600095, -10412.560154504796, 12736.202804589606, -187500.02235174447, 24783.726010766746, -18458.36114387049, 0.634, -0.7000000000000001, 0.36, 192.0, 0.0, 0.0, 0.0, 0.0, 0.0, 0.0, 0.0, 0.0, 0.0, 1.6635865443462472E9, 0.0, 2022-09-19 16:22:24.346
21.0, 10055.625147297997, 42917.53982514618, -19275.563272900974, -10421.031465653357, 12735.822824933866, -187500.02235174447, 24798.120534195965, -18459.74695202672, 0.634, -0.7000000000000001, 0.36, 192.0, 0.0, 0.0, 0.0, 0.0, 0.0, 0.0, 0.0, 0.0, 0.0, 1.6635865443503103E9, 0.0, 2022-09-19 16:22:24.350
22.0, 10042.437618069365, 42900.239574937776, -19284.571025916463, -10428.340486090241, 12712.308789766883, -187500.02235174447, 24745.437472514808, -18464.75374278471, 0.634, -0.7000000000000001, 0.36, 192.0, 0.0, 0.0, 0.0, 0.0, 0.0, 0.0, 0.0, 0.0, 0.0, 1.6635865443542345E9, 0.0, 2022-09-19 16:22:24.354
23.0, 10041.23062386878, 42893.39994113445, -19279.273662480555, -10425.97120117798, 12709.224249032051, -187500.02235174447, 24718.436565212796, -18454.09196067953, 0.634, -0.7000000000000001, 0.36, 192.0, 0.0, 0.0, 0.0, 0.0, 0.0, 0.0, 0.0, 0.0, 0.0, 1.663586544357336E9, 0.0, 2022-09-19 16:22:24.357
24.0, 10044.404571581432, 42894.8751562685, -19271.67406936575, -10427.357009334208, 12721.964743371576, -187500.02235174447, 24729.56773395154, -18455.36601011348, 0.634, -0.7000000000000001, 0.36, 192.0, 0.0, 0.0, 0.0, 0.0, 0.0, 0.0, 0.0, 0.0, 0.0, 1.6635865443622594E9, 0.0, 2022-09-19 16:22:24.362
25.0, 10050.551301306641, 42911.482502398794, -19267.315479196965, -10423.73602673245, 12751.960784430597, -187500.02235174447, 24784.642432289416, -18450.582736800043, 0.652, -0.712, 0.354, 192.0, 20.0, 96.0, 233.0, 192.0, 11.0, 16.0, 0.0, 0.0, 0.0, 1.6635865443663163E9, 0.0, 2022-09-19 16:22:24.366
26.0, 10052.22768214079, 42920.37849669201, -19274.155113000288, -10422.39492206513, 12768.85870323881, -187500.02235174447, 24809.51992386817, -18450.627440288954, 0.652, -0.712, 0.354, 192.0, 0.0, 0.0, 0.0, 0.0, 0.0, 0.0, 0.0, 0.0, 0.0, 1.663586544370319E9, 0.0, 2022-09-19 16:22:24.370
27.0, 10041.901176202438, 42907.638002352476, -19280.882988081335, -10420.763244719892, 12758.308679855905, -187500.02235174447, 24761.955411667277, -18445.687704764332, 0.652, -0.712, 0.354, 192.0, 0.0, 0.0, 0.0, 0.0, 0.0, 0.0, 0.0, 0.0, 0.0, 1.663586544374368E9, 0.0, 2022-09-19 16:22:24.374
28.0, 10042.929356447383, 42905.08990348457, -19277.28435722403, -10414.035369638845, 12761.303813612916, -187500.02235174447, 24736.250905543675, -18435.54001278162, 0.652, -0.712, 0.354, 192.0, 0.0, 0.0, 0.0, 0.0, 0.0, 0.0, 0.0, 0.0, 0.0, 1.6635865443783238E9, 0.0, 2022-09-19 16:22:24.378
29.0, 10052.026516440692, 42909.604955864546, -19273.95394730019, -10413.364817305186, 12773.776087018978, -187500.02235174447, 24748.834937672014, -18437.015227915672, 0.652, -0.712, 0.354, 192.0, 0.0, 0.0, 0.0, 0.0, 0.0, 0.0, 0.0, 0.0, 0.0, 1.6635865443832884E9, 0.0, 2022-09-19 16:22:24.383
30.0, 10056.250996142746, 42922.36780194852, -19274.37863044484, -10420.517375530884, 12797.804212308432, -187500.02235174447, 24797.226464417752, -18441.686742506834, 0.652, -0.712, 0.354, 192.0, 0.0, 0.0, 0.0, 0.0, 0.0, 0.0, 0.0, 0.0, 0.0, 1.663586544387288E9, 0.0, 2022-09-19 16:22:24.387
31.0, 10063.537664835176, 42932.53784567569, -19277.440819435218, -10420.025637152869, 12822.771110865011, -187500.02235174447, 24826.37313918747, -18438.89277444992, 0.652, -0.712, 0.354, 192.0, 0.0, 0.0, 0.0, 0.0, 0.0, 0.0, 0.0, 0.0, 0.0, 1.6635865443913405E9, 0.0, 2022-09-19 16:22:24.391
32.0, 10054.46285658632, 42922.61367113754, -19286.91795908427, -10417.119910373678, 12817.92078231821, -187500.02235174447, 24781.915519465867, -18436.389379070926, 0.652, -0.712, 0.354, 192.0, 0.0, 0.0, 0.0, 0.0, 0.0, 0.0, 0.0, 0.0, 0.0, 1.6635865443953333E9, 0.0, 2022-09-19 16:22:24.395
33.0, 10046.75150474924, 42918.746819346765, -19284.459267194186, -10407.732177702448, 12810.142375247762, -187500.02235174447, 24753.484100518715, -18427.78395745563, 0.652, -0.712, 0.354, 192.0, 0.0, 0.0, 0.0, 0.0, 0.0, 0.0, 0.0, 0.0, 0.0, 1.6635865443993506E9, 0.0, 2022-09-19 16:22:24.399
34.0, 10054.909891475427, 42921.898415314965, -19280.301842725497, -10407.598067235716, 12809.091843258364, -187500.02235174447, 24762.76007446767, -18432.857803446987, 0.652, -0.712, 0.354, 192.0, 0.0, 0.0, 0.0, 0.0, 0.0, 0.0, 0.0, 0.0, 0.0, 1.6635865444043183E9, 0.0, 2022-09-19 16:22:24.404
35.0, 10064.85641775804, 42934.25892999875, -19276.144418256812, -10413.186003349543, 12823.620477154313, -187500.02235174447, 24808.58115060105, -18436.03175115964, 0.66, -0.716, 0.358, 192.0, 20.0, 160.0, 233.0, 160.0, 11.0, 48.0, 0.0, 0.0, 0.0, 1.6635865444084227E9, 0.0, 2022-09-19 16:22:24.408
36.0, 10066.80101952565, 42939.46688645684, -19281.732354370637, -10416.11408187319, 12830.43775921318, -187500.02235174447, 24835.045616036132, -18437.21639361577, 0.66, -0.716, 0.358, 192.0, 0.0, 0.0, 0.0, 0.0, 0.0, 0.0, 0.0, 0.0, 0.0, 1.6635865444113169E9, 0.0, 2022-09-19 16:22:24.411
37.0, 10054.976946708794, 42927.709868873346, -19291.50006669761, -10414.907087672602, 12815.283276472483, -187500.02235174447, 24793.404316115895, -18432.991913913716, 0.66, -0.716, 0.358, 192.0, 0.0, 0.0, 0.0, 0.0, 0.0, 0.0, 0.0, 0.0, 0.0, 1.6635865444153848E9, 0.0, 2022-09-19 16:22:24.415
38.0, 10050.998336195747, 42917.428066423905, -19288.840209107424, -10407.352198046709, 12806.163764734718, -187500.02235174447, 24760.211975599763, -18424.945285909806, 0.66, -0.716, 0.358, 192.0, 0.0, 0.0, 0.0, 0.0, 0.0, 0.0, 0.0, 0.0, 0.0, 1.6635865444183004E9, 0.0, 2022-09-19 16:22:24.418
39.0, 10049.679583272886, 42916.04225826768, -19284.123991027354, -10404.155898589599, 12811.975218293097, -187500.02235174447, 24769.733818737725, -18415.982236383228, 0.66, -0.716, 0.358, 192.0, 0.0, 0.0, 0.0, 0.0, 0.0, 0.0, 0.0, 0.0, 0.0, 1.6635865444224179E9, 0.0, 2022-09-19 16:22:24.422
40.0, 10052.808827496629, 42925.050011283165, -19284.123991027354, -10409.095634114223, 12831.86827085832, -187500.02235174447, 24818.14769722792, -18423.000684142196, 0.66, -0.716, 0.358, 192.0, 0.0, 0.0, 0.0, 0.0, 0.0, 0.0, 0.0, 0.0, 0.0, 1.6635865444263437E9, 0.0, 2022-09-19 16:22:24.426
41.0, 10055.111057175525, 42927.19577875087, -19282.44761019321, -10414.102424872211, 12840.54074770698, -187500.02235174447, 24848.568421431595, -18427.135756866428, 0.66, -0.716, 0.358, 192.0, 0.0, 0.0, 0.0, 0.0, 0.0, 0.0, 0.0, 0.0, 0.0, 1.663586544430392E9, 0.0, 2022-09-19 16:22:24.430
42.0, 10047.46676057181, 42917.65158386846, -19275.987956045625, -10408.11215735819, 12827.464977200625, -187500.02235174447, 24809.251702934707, -18420.54199225211, 0.66, -0.716, 0.358, 192.0, 0.0, 0.0, 0.0, 0.0, 0.0, 0.0, 0.0, 0.0, 0.0, 1.6635865444344149E9, 0.0, 2022-09-19 16:22:24.434
43.0, 10039.80011222364, 42906.76628431872, -19270.981165287634, -10402.591276477728, 12817.138471262273, -187500.02235174447, 24767.9456791813, -18406.952131623286, 0.66, -0.716, 0.358, 192.0, 0.0, 0.0, 0.0, 0.0, 0.0, 0.0, 0.0, 0.0, 0.0, 1.66358654443743E9, 0.0, 2022-09-19 16:22:24.437
44.0, 10037.028495911181, 42908.15209247495, -19268.18719723072, -10400.266695054377, 12823.15109052075, -187500.02235174447, 24774.517092051163, -18409.857858402476, 0.66, -0.716, 0.358, 192.0, 0.0, 0.0, 0.0, 0.0, 0.0, 0.0, 0.0, 0.0, 0.0, 1.6635865444413304E9, 0.0, 2022-09-19 16:22:24.441
45.0, 10047.757333249729, 42919.28326121369, -19265.080304751435, -10397.830354908749, 12843.06649483043, -187500.02235174447, 24819.62291236197, -18413.16591658186, 0.656, -0.714, 0.358, 192.0, 20.0, 128.0, 233.0, 176.0, 11.0, 48.0, 0.0, 0.0, 0.0, 1.6635865444464157E9, 0.0, 2022-09-19 16:22:24.446
46.0, 10063.4259061129, 42932.873121842524, -19262.219281461155, -10393.851744395703, 12867.184027097706, -187500.02235174447, 24857.62087793599, -18411.891867147908, 0.656, -0.714, 0.358, 192.0, 0.0, 0.0, 0.0, 0.0, 0.0, 0.0, 0.0, 0.0, 0.0, 1.6635865444504387E9, 0.0, 2022-09-19 16:22:24.450
47.0, 10063.872941002004, 42922.12193275952, -19262.643964605806, -10385.805116391793, 12864.412410785248, -187500.02235174447, 24820.181705973355, -18405.141640322407, 0.656, -0.714, 0.358, 192.0, 0.0, 0.0, 0.0, 0.0, 0.0, 0.0, 0.0, 0.0, 0.0, 1.663586544454434E9, 0.0, 2022-09-19 16:22:24.454
48.0, 10053.188807152368, 42911.81777856562, -19263.448627406196, -10380.172476789056, 12851.426047256715, -187500.02235174447, 24780.909690965378, -18397.87732337443, 0.656, -0.714, 0.358, 192.0, 0.0, 0.0, 0.0, 0.0, 0.0, 0.0, 0.0, 0.0, 0.0, 1.663586544458422E9, 0.0, 2022-09-19 16:22:24.458
49.0, 10046.75150474924, 42906.27454594071, -19265.43793266272, -10383.05585182379, 12843.602936697358, -187500.02235174447, 24776.126417651943, -18402.54883796559, 0.656, -0.714, 0.358, 192.0, 0.0, 0.0, 0.0, 0.0, 0.0, 0.0, 0.0, 0.0, 0.0, 1.663586544462404E9, 0.0, 2022-09-19 16:22:24.462
50.0, 10061.36954562301, 42910.63313610949, -19259.84999654889, -10379.233703521932, 12851.49310249008, -187500.02235174447, 24810.77162155767, -18400.112497819962, 0.656, -0.714, 0.358, 192.0, 0.0, 0.0, 0.0, 0.0, 0.0, 0.0, 0.0, 0.0, 0.0, 1.6635865444665234E9, 0.0, 2022-09-19 16:22:24.466
51.0, 10058.75439152174, 42914.09765650006, -19262.599261116895, -10382.675872168049, 12855.73993393659, -187500.02235174447, 24838.15250851542, -18404.515791477657, 0.656, -0.714, 0.358, 192.0, 0.0, 0.0, 0.0, 0.0, 0.0, 0.0, 0.0, 0.0, 0.0, 1.6635865444694278E9, 0.0, 2022-09-19 16:22:24.469
52.0, 10041.498844802243, 42895.76922604671, -19274.28922346702, -10386.408613492085, 12838.30557326145, -187500.02235174447, 24789.023374202654, -18405.432213000324, 0.656, -0.714, 0.358, 192.0, 0.0, 0.0, 0.0, 0.0, 0.0, 0.0, 0.0, 0.0, 0.0, 1.6635865444754438E9, 0.0, 2022-09-19 16:22:24.475
53.0, 10040.336554090567, 42882.335827629075, -19275.026831034047, -10385.693357669516, 12829.431930712693, -187500.02235174447, 24742.822318413535, -18407.82384965704, 0.656, -0.714, 0.358, 192.0, 0.0, 0.0, 0.0, 0.0, 0.0, 0.0, 0.0, 0.0, 0.0, 1.663586544479488E9, 0.0, 2022-09-19 16:22:24.479
54.0, 10060.028440955692, 42886.91793524241, -19270.422371676254, -10380.463049466975, 12834.215204026128, -187500.02235174447, 24740.1401090789, -18404.627550199933, 0.656, -0.714, 0.358, 192.0, 0.0, 0.0, 0.0, 0.0, 0.0, 0.0, 0.0, 0.0, 0.0, 1.6635865444835851E9, 0.0, 2022-09-19 16:22:24.483
55.0, 10070.690223060874, 42901.78184530519, -19258.53124362603, -10371.477648195942, 12846.7321809211, -187500.02235174447, 24776.215824629766, -18394.323396006035, 0.648, -0.71, 0.358, 192.0, 20.0, 64.0, 233.0, 208.0, 11.0, 48.0, 0.0, 0.0, 0.0, 1.6635865444874918E9, 0.0, 2022-09-19 16:22:24.487
56.0, 10074.691185318374, 42913.650621610956, -19255.625516846838, -10367.320223727254, 12851.649564701267, -187500.02235174447, 24815.53254312665, -18393.541084950102, 0.648, -0.71, 0.358, 192.0, 0.0, 0.0, 0.0, 0.0, 0.0, 0.0, 0.0, 0.0, 0.0, 1.6635865444904876E9, 0.0, 2022-09-19 16:22:24.490
57.0, 10058.977908966293, 42896.238612680274, -19264.879139051336, -10365.755601615383, 12823.911049832232, -187500.02235174447, 24774.80766472908, -18386.522637191134, 0.648, -0.71, 0.358, 192.0, 0.0, 0.0, 0.0, 0.0, 0.0, 0.0, 0.0, 0.0, 0.0, 1.6635865444944353E9, 0.0, 2022-09-19 16:22:24.494
58.0, 10047.958498949827, 42880.74885377275, -19260.498197138095, -10362.402839947086, 12803.81683156691, -187500.02235174447, 24726.550248450072, -18382.678137144823, 0.648, -0.71, 0.358, 192.0, 0.0, 0.0, 0.0, 0.0, 0.0, 0.0, 0.0, 0.0, 0.0, 1.66358654449745E9, 0.0, 2022-09-19 16:22:24.497
59.0, 10038.615469767508, 42874.512717069716, -19254.99966800209, -10362.201674246988, 12800.933456532175, -187500.02235174447, 24720.045890813577, -18376.933738819807, 0.648, -0.71, 0.358, 192.0, 0.0, 0.0, 0.0, 0.0, 0.0, 0.0, 0.0, 0.0, 0.0, 1.6635865445014818E9, 0.0, 2022-09-19 16:22:24.501
60.0, 10024.17624284938, 42876.591429304055, -19255.580813357927, -10369.331880728232, 12809.427119425192, -187500.02235174447, 24751.271277817643, -18380.040631299096, 0.648, -0.71, 0.358, 192.0, 0.0, 0.0, 0.0, 0.0, 0.0, 0.0, 0.0, 0.0, 0.0, 1.6635865445065188E9, 0.0, 2022-09-19 16:22:24.506
61.0, 10053.971118208305, 42891.81296727812, -19249.1435109548, -10369.331880728232, 12822.659352142735, -187500.02235174447, 24792.845522504515, -18380.130038276915, 0.648, -0.71, 0.358, 192.0, 0.0, 0.0, 0.0, 0.0, 0.0, 0.0, 0.0, 0.0, 0.0, 1.6635865445105217E9, 0.0, 2022-09-19 16:22:24.510
62.0, 10050.886577473471, 42884.25807765223, -19255.11142672437, -10374.137505786122, 12812.846936326854, -187500.02235174447, 24760.703713977782, -18381.851122599975, 0.648, -0.71, 0.358, 192.0, 0.0, 0.0, 0.0, 0.0, 0.0, 0.0, 0.0, 0.0, 0.0, 1.6635865445145311E9, 0.0, 2022-09-19 16:22:24.514
63.0, 10045.723324504295, 42874.847993236544, -19252.742141812105, -10367.119058027156, 12805.515564145515, -187500.02235174447, 24716.40255646736, -18376.062020786052, 0.648, -0.71, 0.358, 192.0, 0.0, 0.0, 0.0, 0.0, 0.0, 0.0, 0.0, 0.0, 0.0, 1.6635865445175645E9, 0.0, 2022-09-19 16:22:24.517
64.0, 10049.791341995162, 42877.15022291544, -19246.506005109073, -10365.15210451509, 12812.601067137846, -187500.02235174447, 24712.491001187685, -18377.693698131287, 0.648, -0.71, 0.358, 192.0, 0.0, 0.0, 0.0, 0.0, 0.0, 0.0, 0.0, 0.0, 0.0, 1.663586544521531E9, 0.0, 2022-09-19 16:22:24.521
65.0, 10039.688353501362, 42882.98402821828, -19242.77326378504, -10362.693412625005, 12831.7788638805, -187500.02235174447, 24746.309190548563, -18376.665517886344, 0.64, -0.6980000000000001, 0.362, 192.0, 20.0, 0.0, 234.0, 48.0, 11.0, 80.0, 0.0, 0.0, 0.0, 1.663586544525548E9, 0.0, 2022-09-19 16:22:24.525
66.0, 10035.88855694396, 42892.01413297822, -19244.695513808194, -10365.733249870927, 12860.232634572105, -187500.02235174447, 24792.063211448578, -18382.231102255715, 0.64, -0.6980000000000001, 0.362, 192.0, 0.0, 0.0, 0.0, 0.0, 0.0, 0.0, 0.0, 0.0, 0.0, 1.6635865445295308E9, 0.0, 2022-09-19 16:22:24.529
67.0, 10055.066353686614, 42892.93055450089, -19244.159071941267, -10364.705069625983, 12870.670899232735, -187500.02235174447, 24773.399504828394, -18383.34868947848, 0.64, -0.6980000000000001, 0.362, 192.0, 0.0, 0.0, 0.0, 0.0, 0.0, 0.0, 0.0, 0.0, 0.0, 1.6635865445346017E9, 0.0, 2022-09-19 16:22:24.534
68.0, 10045.477455315287, 42879.22893514978, -19248.875290021337, -10367.968424316457, 12856.209320570151, -187500.02235174447, 24725.857344371958, -18381.806419111064, 0.64, -0.6980000000000001, 0.362, 192.0, 0.0, 0.0, 0.0, 0.0, 0.0, 0.0, 0.0, 0.0, 0.0, 1.663586544538541E9, 0.0, 2022-09-19 16:22:24.538
69.0, 10045.432751826376, 42878.29016188266, -19247.33301965392, -10363.565130658762, 12848.20739605515, -187500.02235174447, 24716.08963204499, -18369.490607916192, 0.64, -0.6980000000000001, 0.362, 192.0, 0.0, 0.0, 0.0, 0.0, 0.0, 0.0, 0.0, 0.0, 0.0, 1.6635865445425713E9, 0.0, 2022-09-19 16:22:24.542
70.0, 10049.634879783975, 42889.64484806596, -19246.506005109073, -10370.985909817924, 12852.275413546016, -187500.02235174447, 24748.343199293995, -18382.588730167, 0.64, -0.6980000000000001, 0.362, 192.0, 0.0, 0.0, 0.0, 0.0, 0.0, 0.0, 0.0, 0.0, 0.0, 1.6635865445465732E9, 0.0, 2022-09-19 16:22:24.546
71.0, 10049.590176295063, 42897.557365603134, -19252.943307512203, -10376.395031976108, 12848.721486177623, -187500.02235174447, 24784.553025311594, -18380.4876661882, 0.64, -0.6980000000000001, 0.362, 192.0, 0.0, 0.0, 0.0, 0.0, 0.0, 0.0, 0.0, 0.0, 0.0, 1.6635865445506096E9, 0.0, 2022-09-19 16:22:24.550
72.0, 10043.286984358667, 42890.74008354427, -19256.72075232515, -10366.582616160229, 12825.945058577665, -187500.02235174447, 24757.552118009582, -18363.20976772425, 0.64, -0.6980000000000001, 0.362, 192.0, 0.0, 0.0, 0.0, 0.0, 0.0, 0.0, 0.0, 0.0, 0.0, 1.663586544555617E9, 0.0, 2022-09-19 16:22:24.555
73.0, 10039.37542907899, 42879.83243225008, -19250.506967366575, -10361.754639357881, 12806.186116479174, -187500.02235174447, 24708.378280207908, -18353.01737225263, 0.64, -0.6980000000000001, 0.362, 192.0, 0.0, 0.0, 0.0, 0.0, 0.0, 0.0, 0.0, 0.0, 0.0, 1.6635865445586033E9, 0.0, 2022-09-19 16:22:24.558
74.0, 10040.045981412648, 42875.67500778139, -19246.975391742635, -10367.275520238343, 12800.44171815416, -187500.02235174447, 24695.88365505739, -18356.124264731916, 0.64, -0.6980000000000001, 0.362, 192.0, 0.0, 0.0, 0.0, 0.0, 0.0, 0.0, 0.0, 0.0, 0.0, 1.6635865445635943E9, 0.0, 2022-09-19 16:22:24.563
75.0, 10047.355001849533, 42883.29695264065, -19236.693589293194, -10366.649671393594, 12807.929552546688, -187500.02235174447, 24726.32673100552, -18355.45371239826, 0.632, -0.6900000000000001, 0.37, 192.0, 19.0, 192.0, 234.0, 112.0, 11.0, 144.0, 0.0, 0.0, 0.0, 1.663586544567633E9, 0.0, 2022-09-19 16:22:24.567
76.0, 10053.099400174548, 42889.8236620216, -19229.921010723236, -10362.849874836193, 12811.81875608191, -187500.02235174447, 24769.555004782083, -18353.665572841834, 0.632, -0.6900000000000001, 0.37, 192.0, 0.0, 0.0, 0.0, 0.0, 0.0, 0.0, 0.0, 0.0, 0.0, 1.6635865445705929E9, 0.0, 2022-09-19 16:22:24.570
77.0, 10045.61156578202, 42883.40871136293, -19236.827699759924, -10370.024784806346, 12793.199752950639, -187500.02235174447, 24745.23630681471, -18363.992078780186, 0.632, -0.6900000000000001, 0.37, 192.0, 0.0, 0.0, 0.0, 0.0, 0.0, 0.0, 0.0, 0.0, 0.0, 1.6635865445746472E9, 0.0, 2022-09-19 16:22:24.574
78.0, 10035.106245888024, 42871.11525191251, -19241.94624924019, -10373.690470897016, 12773.150238174228, -187500.02235174447, 24693.626128867403, -18364.081485758004, 0.632, -0.6900000000000001, 0.37, 192.0, 0.0, 0.0, 0.0, 0.0, 0.0, 0.0, 0.0, 0.0, 0.0, 1.663586544577666E9, 0.0, 2022-09-19 16:22:24.577
79.0, 10034.122769131991, 42867.00253093273, -19241.76743528455, -10375.05392730879, 12768.434020094159, -187500.02235174447, 24680.88563452788, -18365.02025902513, 0.632, -0.6900000000000001, 0.37, 192.0, 0.0, 0.0, 0.0, 0.0, 0.0, 0.0, 0.0, 0.0, 0.0, 1.6635865445816636E9, 0.0, 2022-09-19 16:22:24.581
80.0, 10044.203405881335, 42877.91018222692, -19237.677066049226, -10378.563151188273, 12779.67694755518, -187500.02235174447, 24712.334538976498, -18373.15629400686, 0.632, -0.6900000000000001, 0.37, 192.0, 0.0, 0.0, 0.0, 0.0, 0.0, 0.0, 0.0, 0.0, 0.0, 1.6635865445856469E9, 0.0, 2022-09-19 16:22:24.585
81.0, 10054.909891475427, 42894.4728248683, -19236.715941037648, -10377.1996947765, 12796.999549508042, -187500.02235174447, 24765.308173335576, -18366.227253225716, 0.632, -0.6900000000000001, 0.37, 192.0, 0.0, 0.0, 0.0, 0.0, 0.0, 0.0, 0.0, 0.0, 0.0, 1.6635865445896375E9, 0.0, 2022-09-19 16:22:24.589
82.0, 10041.096513402046, 42885.06274045262, -19252.540976112006, -10383.301721012798, 12783.856723768322, -187500.02235174447, 24747.0915016045, -18371.278747472614, 0.632, -0.6900000000000001, 0.37, 192.0, 0.0, 0.0, 0.0, 0.0, 0.0, 0.0, 0.0, 0.0, 0.0, 1.6635865445946343E9, 0.0, 2022-09-19 16:22:24.594
83.0, 10033.541623776153, 42874.11038566952, -19254.91026102427, -10376.86441860967, 12770.780953261967, -187500.02235174447, 24698.722326603216, -18364.573224136024, 0.632, -0.6900000000000001, 0.37, 192.0, 0.0, 0.0, 0.0, 0.0, 0.0, 0.0, 0.0, 0.0, 0.0, 1.6635865445977488E9, 0.0, 2022-09-19 16:22:24.597
84.0, 10035.46387379931, 42877.75372001573, -19249.52349061054, -10374.38337497513, 12778.67111905469, -187500.02235174447, 24691.36860267742, -18363.410933424348, 0.632, -0.6900000000000001, 0.37, 192.0, 0.0, 0.0, 0.0, 0.0, 0.0, 0.0, 0.0, 0.0, 0.0, 1.6635865446017013E9, 0.0, 2022-09-19 16:22:24.601
85.0, 10039.330725590078, 42888.482557354284, -19241.76743528455, -10370.427116206542, 12798.67593034219, -187500.02235174447, 24724.069204815532, -18351.363343162935, 0.634, -0.6940000000000001, 0.362, 192.0, 19.0, 208.0, 234.0, 80.0, 11.0, 80.0, 0.0, 0.0, 0.0, 1.6635865446056468E9, 0.0, 2022-09-19 16:22:24.605
86.0, 10046.66209777142, 42906.810987807636, -19238.52643233853, -10367.364927216164, 12832.181195280695, -187500.02235174447, 24785.491798578718, -18351.49745362967, 0.634, -0.6940000000000001, 0.362, 192.0, 0.0, 0.0, 0.0, 0.0, 0.0, 0.0, 0.0, 0.0, 0.0, 1.6635865446096935E9, 0.0, 2022-09-19 16:22:24.609
87.0, 10043.17522563639, 42910.499025642755, -19244.449644619184, -10367.923720827546, 12845.301669275961, -187500.02235174447, 24786.654089290394, -18352.257412941148, 0.634, -0.6940000000000001, 0.362, 192.0, 0.0, 0.0, 0.0, 0.0, 0.0, 0.0, 0.0, 0.0, 0.0, 1.6635865446137168E9, 0.0, 2022-09-19 16:22:24.613
88.0, 10031.485263286266, 42898.697304570356, -19250.506967366575, -10370.337709228721, 12830.571869679914, -187500.02235174447, 24741.637675957405, -18352.52563387461, 0.634, -0.6940000000000001, 0.362, 192.0, 0.0, 0.0, 0.0, 0.0, 0.0, 0.0, 0.0, 0.0, 0.0, 1.6635865446176891E9, 0.0, 2022-09-19 16:22:24.617
89.0, 10030.926469674881, 42900.06076098213, -19249.434083632717, -10370.628281906638, 12824.983933566087, -187500.02235174447, 24737.256734044164, -18356.25837519865, 0.634, -0.6940000000000001, 0.362, 192.0, 0.0, 0.0, 0.0, 0.0, 0.0, 0.0, 0.0, 0.0, 0.0, 1.663586544622694E9, 0.0, 2022-09-19 16:22:24.622
90.0, 10033.005181909226, 42906.69922908536, -19248.182385943222, -10371.969386573957, 12829.811910368433, -187500.02235174447, 24767.744513481204, -18353.77733156411, 0.634, -0.6940000000000001, 0.362, 192.0, 0.0, 0.0, 0.0, 0.0, 0.0, 0.0, 0.0, 0.0, 0.0, 1.6635865446266823E9, 0.0, 2022-09-19 16:22:24.626
91.0, 10036.290888344156, 42918.23272922429, -19248.13768245431, -10378.406688977086, 12840.92072736272, -187500.02235174447, 24823.15448798591, -18361.309869445548, 0.634, -0.6940000000000001, 0.362, 192.0, 0.0, 0.0, 0.0, 0.0, 0.0, 0.0, 0.0, 0.0, 0.0, 1.663586544629773E9, 0.0, 2022-09-19 16:22:24.629
92.0, 10036.246184855245, 42917.60688037955, -19254.798502301994, -10378.853723866192, 12833.991686581576, -187500.02235174447, 24821.67927285186, -18357.152444976862, 0.634, -0.6940000000000001, 0.362, 192.0, 0.0, 0.0, 0.0, 0.0, 0.0, 0.0, 0.0, 0.0, 0.0, 1.6635865446347194E9, 0.0, 2022-09-19 16:22:24.634
93.0, 10033.005181909226, 42910.074342498105, -19258.1959674592, -10378.697261655005, 12817.361988706827, -187500.02235174447, 24776.86402521897, -18356.973631021217, 0.634, -0.6940000000000001, 0.362, 192.0, 0.0, 0.0, 0.0, 0.0, 0.0, 0.0, 0.0, 0.0, 0.0, 1.6635865446377473E9, 0.0, 2022-09-19 16:22:24.637
94.0, 10031.105283630524, 42907.77211281921, -19263.023944261546, -10382.541761701317, 12811.684645615178, -187500.02235174447, 24765.531690780128, -18362.606270623957, 0.634, -0.6940000000000001, 0.362, 192.0, 0.0, 0.0, 0.0, 0.0, 0.0, 0.0, 0.0, 0.0, 0.0, 1.6635865446417372E9, 0.0, 2022-09-19 16:22:24.641
95.0, 10038.347248834045, 42916.82456932361, -19263.71684833966, -10381.67004366756, 12821.430006197692, -187500.02235174447, 24795.39362137242, -18363.790913080087, 0.642, -0.706, 0.362, 192.0, 20.0, 16.0, 233.0, 240.0, 11.0, 80.0, 0.0, 0.0, 0.0, 1.6635865446478136E9, 0.0, 2022-09-19 16:22:24.647
96.0, 10042.83994946956, 42928.961566562844, -19261.772246572047, -10389.895485627114, 12840.808968640444, -187500.02235174447, 24851.988238333255, -18371.39050619489, 0.642, -0.706, 0.362, 192.0, 0.0, 0.0, 0.0, 0.0, 0.0, 0.0, 0.0, 0.0, 0.0, 1.6635865446508412E9, 0.0, 2022-09-19 16:22:24.650
97.0, 10044.113998903513, 42934.79537186568, -19265.01324951807, -10390.923665872058, 12858.466846760137, -187500.02235174447, 24858.24672678074, -18373.715087618242, 0.642, -0.706, 0.362, 192.0, 0.0, 0.0, 0.0, 0.0, 0.0, 0.0, 0.0, 0.0, 0.0, 1.6635865446547115E9, 0.0, 2022-09-19 16:22:24.654
98.0, 10038.570766278597, 42925.92172931692, -19271.71877285466, -10389.269636782365, 12855.851692658865, -187500.02235174447, 24811.308063424596, -18371.05523002806, 0.642, -0.706, 0.362, 192.0, 0.0, 0.0, 0.0, 0.0, 0.0, 0.0, 0.0, 0.0, 0.0, 1.663586544657734E9, 0.0, 2022-09-19 16:22:24.657
99.0, 10037.475530800288, 42920.11027575854, -19274.602147889396, -10389.984892604934, 12853.437704257693, -187500.02235174447, 24795.639490561425, -18365.757866592154, 0.642, -0.706, 0.362, 192.0, 0.0, 0.0, 0.0, 0.0, 0.0, 0.0, 0.0, 0.0, 0.0, 1.663586544661833E9, 0.0, 2022-09-19 16:22:24.661
100.0, 10041.878824457983, 42922.54661590417, -19271.71877285466, -10394.321131029265, 12861.014945628041, -187500.02235174447, 24815.86781929348, -18371.524616661623, 0.642, -0.706, 0.362, 192.0, 0.0, 0.0, 0.0, 0.0, 0.0, 0.0, 0.0, 0.0, 0.0, 1.663586544665769E9, 0.0, 2022-09-19 16:22:24.665
101.0, 10049.724286761795, 42934.19187476538, -19268.90245305329, -10402.01013112189, 12881.712660993655, -187500.02235174447, 24867.9697356188, -18380.822942355033, 0.642, -0.706, 0.362, 192.0, 0.0, 0.0, 0.0, 0.0, 0.0, 0.0, 0.0, 0.0, 0.0, 1.6635865446697657E9, 0.0, 2022-09-19 16:22:24.669
102.0, 10043.152873891935, 42933.11899103153, -19276.457342679187, -10403.1053666002, 12883.925483694731, -187500.02235174447, 24871.367200776007, -18376.486703930703, 0.642, -0.706, 0.362, 192.0, 0.0, 0.0, 0.0, 0.0, 0.0, 0.0, 0.0, 0.0, 0.0, 1.6635865446738212E9, 0.0, 2022-09-19 16:22:24.673
103.0, 10027.707818473318, 42917.38336293499, -19281.687650881726, -10399.283218298342, 12870.760306210555, -187500.02235174447, 24823.042729263634, -18372.843369584487, 0.642, -0.706, 0.362, 192.0, 0.0, 0.0, 0.0, 0.0, 0.0, 0.0, 0.0, 0.0, 0.0, 1.6635865446768415E9, 0.0, 2022-09-19 16:22:24.676
104.0, 10042.03528666917, 42914.99172627828, -19270.221205976155, -10393.29295078432, 12874.068364389941, -187500.02235174447, 24809.698737823815, -18373.044535284585, 0.642, -0.706, 0.362, 192.0, 0.0, 0.0, 0.0, 0.0, 0.0, 0.0, 0.0, 0.0, 0.0, 1.663586544680828E9, 0.0, 2022-09-19 16:22:24.680
105.0, 10022.879841670972, 42915.7293338453, -19275.786790345526, -10404.938209645536, 12880.058631903963, -187500.02235174447, 24830.418804933885, -18377.604291153468, 0.648, -0.716, 0.35000000000000003, 192.0, 20.0, 64.0, 233.0, 160.0, 10.0, 240.0, 0.0, 0.0, 0.0, 1.6635865446848197E9, 0.0, 2022-09-19 16:22:24.684
106.0, 10036.357943577523, 42928.15690376245, -19272.031697277034, -10407.06162536879, 12894.117879166351, -187500.02235174447, 24888.712154473324, -18381.49349468869, 0.648, -0.716, 0.35000000000000003, 192.0, 0.0, 0.0, 0.0, 0.0, 0.0, 0.0, 0.0, 0.0, 0.0, 1.6635865446898327E9, 0.0, 2022-09-19 16:22:24.689
107.0, 10052.428847840887, 42932.20256950886, -19275.406810689787, -10397.360968275187, 12892.285036121017, -187500.02235174447, 24902.771401735714, -18376.15142776387, 0.648, -0.716, 0.35000000000000003, 192.0, 0.0, 0.0, 0.0, 0.0, 0.0, 0.0, 0.0, 0.0, 0.0, 1.663586544693848E9, 0.0, 2022-09-19 16:22:24.693
108.0, 10054.328746119589, 42923.82066533812, -19275.63032813434, -10386.319206514265, 12868.994518398586, -187500.02235174447, 24855.16218604591, -18370.228215483217, 0.648, -0.716, 0.35000000000000003, 192.0, 0.0, 0.0, 0.0, 0.0, 0.0, 0.0, 0.0, 0.0, 0.0, 1.6635865446977863E9, 0.0, 2022-09-19 16:22:24.697
109.0, 10051.355964107033, 42922.74778160427, -19271.13762749882, -10379.971311088957, 12865.239425330094, -187500.02235174447, 24836.230258492265, -18365.891977058887, 0.648, -0.716, 0.35000000000000003, 192.0, 0.0, 0.0, 0.0, 0.0, 0.0, 0.0, 0.0, 0.0, 0.0, 1.66358654470191E9, 0.0, 2022-09-19 16:22:24.701
110.0, 10059.559054322131, 42932.7837148647, -19261.19110121621, -10375.076279053244, 12878.136381880806, -187500.02235174447, 24861.241860537753, -18361.60044212347, 0.648, -0.716, 0.35000000000000003, 192.0, 0.0, 0.0, 0.0, 0.0, 0.0, 0.0, 0.0, 0.0, 0.0, 1.6635865447048311E9, 0.0, 2022-09-19 16:22:24.704
111.0, 10060.922510733904, 42949.01108133925, -19259.022982004044, -10378.183171532533, 12906.07606244994, -187500.02235174447, 24920.764556022234, -18361.935718290297, 0.648, -0.716, 0.35000000000000003, 192.0, 0.0, 0.0, 0.0, 0.0, 0.0, 0.0, 0.0, 0.0, 0.0, 1.6635865447088728E9, 0.0, 2022-09-19 16:22:24.708
112.0, 10048.561996050119, 42951.603883696065, -19271.048220521, -10375.746831386905, 12922.281077180038, -187500.02235174447, 24939.31650392014, -18363.165064235338, 0.648, -0.716, 0.35000000000000003, 192.0, 0.0, 0.0, 0.0, 0.0, 0.0, 0.0, 0.0, 0.0, 0.0, 1.6635865447128377E9, 0.0, 2022-09-19 16:22:24.712
113.0, 10041.811769224616, 42939.936273090396, -19275.29505196751, -10369.600101661696, 12915.93318175473, -187500.02235174447, 24898.144590633463, -18359.141750233382, 0.648, -0.716, 0.35000000000000003, 192.0, 0.0, 0.0, 0.0, 0.0, 0.0, 0.0, 0.0, 0.0, 0.0, 1.6635865447178571E9, 0.0, 2022-09-19 16:22:24.717
114.0, 10047.019725682703, 42929.54271191868, -19265.728505340638, -10366.33674697122, 12901.292789136505, -187500.02235174447, 24871.63542170947, -18354.492587386678, 0.648, -0.716, 0.35000000000000003, 192.0, 0.0, 0.0, 0.0, 0.0, 0.0, 0.0, 0.0, 0.0, 0.0, 1.663586544722839E9, 0.0, 2022-09-19 16:22:24.722
115.0, 10050.41719083991, 42928.7827526072, -19262.263984950067, -10376.797363376303, 12898.141193168307, -187500.02235174447, 24885.292337571664, -18363.05330551306, 0.648, -0.716, 0.35000000000000003, 192.0, 0.0, 0.0, 0.0, 0.0, 0.0, 0.0, 0.0, 0.0, 0.0, 1.6635865447268925E9, 0.0, 2022-09-19 16:22:24.726
116.0, 10051.579481551586, 42942.26085451375, -19262.196929716698, -10383.949921602001, 12907.663036306267, -187500.02235174447, 24940.210573698354, -18367.948337548773, 0.648, -0.716, 0.356, 192.0, 20.0, 64.0, 233.0, 160.0, 11.0, 32.0, 0.0, 0.0, 0.0, 1.6635865447308908E9, 0.0, 2022-09-19 16:22:24.730
117.0, 10054.12758041949, 42948.87697087252, -19257.860691292368, -10375.05392730879, 12901.739824025612, -187500.02235174447, 24959.65659137447, -18362.315697946036, 0.648, -0.716, 0.356, 192.0, 0.0, 0.0, 0.0, 0.0, 0.0, 0.0, 0.0, 0.0, 0.0, 1.6635865447338624E9, 0.0, 2022-09-19 16:22:24.733
118.0, 10049.768990250706, 42935.86825559953, -19260.18527271572, -10373.131677285633, 12875.856503946365, -187500.02235174447, 24914.439012341383, -18367.72482010422, 0.648, -0.716, 0.356, 192.0, 0.0, 0.0, 0.0, 0.0, 0.0, 0.0, 0.0, 0.0, 0.0, 1.663586544736888E9, 0.0, 2022-09-19 16:22:24.736
119.0, 10044.069295414603, 42932.09081078658, -19261.369915171854, -10378.071412810257, 12865.418239285736, -187500.02235174447, 24897.11641038852, -18368.037744526595, 0.648, -0.716, 0.356, 192.0, 0.0, 0.0, 0.0, 0.0, 0.0, 0.0, 0.0, 0.0, 0.0, 1.6635865447410605E9, 0.0, 2022-09-19 16:22:24.741
120.0, 10048.249071627746, 42941.00915682425, -19259.84999654889, -10378.965482588468, 12865.954681152663, -187500.02235174447, 24921.07748044461, -18367.814227082043, 0.648, -0.716, 0.356, 192.0, 0.0, 0.0, 0.0, 0.0, 0.0, 0.0, 0.0, 0.0, 0.0, 1.6635865447448895E9, 0.0, 2022-09-19 16:22:24.744
121.0, 10051.780647251684, 42951.179200551414, -19259.022982004044, -10379.233703521932, 12873.487219034103, -187500.02235174447, 24973.35821072557, -18372.664555628846, 0.648, -0.716, 0.356, 192.0, 0.0, 0.0, 0.0, 0.0, 0.0, 0.0, 0.0, 0.0, 0.0, 1.6635865447499073E9, 0.0, 2022-09-19 16:22:24.749
122.0, 10053.211158896824, 42953.88376163051, -19263.58273787293, -10381.893561112114, 12878.136381880806, -187500.02235174447, 24998.168647070965, -18373.715087618242, 0.648, -0.716, 0.356, 192.0, 0.0, 0.0, 0.0, 0.0, 0.0, 0.0, 0.0, 0.0, 0.0, 1.6635865447539299E9, 0.0, 2022-09-19 16:22:24.753
123.0, 10055.401629853444, 42949.234598783805, -19266.95785128568, -10377.132639543133, 12881.287977849004, -187500.02235174447, 24966.026838544232, -18366.808398581554, 0.648, -0.716, 0.356, 192.0, 0.0, 0.0, 0.0, 0.0, 0.0, 0.0, 0.0, 0.0, 0.0, 1.6635865447579365E9, 0.0, 2022-09-19 16:22:24.757
124.0, 10058.195597910357, 42955.44838374238, -19256.51958662505, -10365.420325448553, 12894.900190222286, -187500.02235174447, 24957.577879140124, -18357.286555443592, 0.648, -0.716, 0.356, 192.0, 0.0, 0.0, 0.0, 0.0, 0.0, 0.0, 0.0, 0.0, 0.0, 1.6635865447609212E9, 0.0, 2022-09-19 16:22:24.760
125.0, 10072.2771969172, 42964.1432123355, -19250.864595277857, -10366.984947560424, 12904.869068249354, -187500.02235174447, 24985.204635286886, -18365.82492182552, 0.648, -0.716, 0.356, 192.0, 0.0, 0.0, 0.0, 0.0, 0.0, 0.0, 0.0, 0.0, 0.0, 1.6635865447649128E9, 0.0, 2022-09-19 16:22:24.764
126.0, 10079.273292931712, 42982.94102942241, -19252.205699945178, -10368.795438861303, 12924.873879536854, -187500.02235174447, 25050.561136074204, -18363.768561335633, 0.65, -0.71, 0.354, 192.0, 20.0, 80.0, 233.0, 208.0, 11.0, 16.0, 0.0, 0.0, 0.0, 1.6635865447689345E9, 0.0, 2022-09-19 16:22:24.768
127.0, 10076.56873185262, 42990.13829113702, -19258.687705837216, -10365.196808003999, 12930.640629606323, -187500.02235174447, 25089.006136537333, -18353.375000163913, 0.65, -0.71, 0.354, 192.0, 0.0, 0.0, 0.0, 0.0, 0.0, 0.0, 0.0, 0.0, 0.0, 1.6635865447729752E9, 0.0, 2022-09-19 16:22:24.772
128.0, 10062.665946801419, 42975.67671247444, -19264.32034543995, -10365.688546382016, 12910.658170063278, -187500.02235174447, 25052.796310519734, -18358.650011855367, 0.65, -0.71, 0.354, 192.0, 0.0, 0.0, 0.0, 0.0, 0.0, 0.0, 0.0, 0.0, 0.0, 1.663586544777942E9, 0.0, 2022-09-19 16:22:24.777
129.0, 10059.693164788863, 42971.184011838915, -19260.47584539364, -10362.112267269167, 12903.282094393027, -187500.02235174447, 25032.81385097669, -18355.230194953703, 0.65, -0.71, 0.354, 192.0, 0.0, 0.0, 0.0, 0.0, 0.0, 0.0, 0.0, 0.0, 0.0, 1.663586544781963E9, 0.0, 2022-09-19 16:22:24.781
130.0, 10055.80396125364, 42974.76029095177, -19260.76641807156, -10364.995642303902, 12905.807841516476, -187500.02235174447, 25049.28708664025, -18362.941546790786, 0.65, -0.71, 0.354, 192.0, 0.0, 0.0, 0.0, 0.0, 0.0, 0.0, 0.0, 0.0, 0.0, 1.66358654478597E9, 0.0, 2022-09-19 16:22:24.785
131.0, 10056.787438009673, 42986.09262539061, -19262.733371583625, -10368.638976650116, 12925.924411526254, -187500.02235174447, 25101.63487215458, -18366.92015730383, 0.65, -0.71, 0.354, 192.0, 0.0, 0.0, 0.0, 0.0, 0.0, 0.0, 0.0, 0.0, 0.0, 1.663586544790017E9, 0.0, 2022-09-19 16:22:24.790
132.0, 10070.690223060874, 42996.84381447361, -19255.022019746546, -10361.553473657785, 12947.471493181169, -187500.02235174447, 25136.391834782582, -18357.644183354878, 0.65, -0.71, 0.354, 192.0, 0.0, 0.0, 0.0, 0.0, 0.0, 0.0, 0.0, 0.0, 0.0, 1.6635865447940092E9, 0.0, 2022-09-19 16:22:24.794
133.0, 10066.219874169812, 42984.70681723438, -19256.184310458222, -10353.305679953775, 12936.094455253418, -187500.02235174447, 25095.935177318475, -18353.48675888619, 0.65, -0.71, 0.354, 192.0, 0.0, 0.0, 0.0, 0.0, 0.0, 0.0, 0.0, 0.0, 0.0, 1.6635865447970164E9, 0.0, 2022-09-19 16:22:24.797
134.0, 10060.31901363361, 42972.592171739605, -19254.440874390708, -10354.356211943175, 12920.60469634589, -187500.02235174447, 25063.77101704729, -18356.63835485439, 0.65, -0.71, 0.354, 192.0, 0.0, 0.0, 0.0, 0.0, 0.0, 0.0, 0.0, 0.0, 0.0, 1.66358654480102E9, 0.0, 2022-09-19 16:22:24.801
135.0, 10055.17811240889, 42966.579552481126, -19255.178481957733, -10360.726459112939, 12917.654266077789, -187500.02235174447, 25069.62717409458, -18355.87839554291, 0.65, -0.71, 0.354, 192.0, 0.0, 0.0, 0.0, 0.0, 0.0, 0.0, 0.0, 0.0, 0.0, 1.6635865448070295E9, 0.0, 2022-09-19 16:22:24.807
136.0, 10054.284042630678, 42974.78264269622, -19257.413656403263, -10369.331880728232, 12928.137234227328, -187500.02235174447, 25113.995386838364, -18365.66845961433, 0.652, -0.71, 0.354, 192.0, 20.0, 96.0, 233.0, 208.0, 11.0, 16.0, 0.0, 0.0, 0.0, 1.663586544811027E9, 0.0, 2022-09-19 16:22:24.811
137.0, 10055.602795553541, 42982.6951602334, -19257.436008147717, -10369.108363283678, 12934.351019185904, -187500.02235174447, 25142.06917787423, -18367.076619515017, 0.652, -0.71, 0.354, 192.0, 0.0, 0.0, 0.0, 0.0, 0.0, 0.0, 0.0, 0.0, 0.0, 1.6635865448140256E9, 0.0, 2022-09-19 16:22:24.814
138.0, 10046.349173349045, 42973.30742756217, -19263.828607061936, -10367.610796405173, 12917.6989695667, -187500.02235174447, 25099.802029109243, -18366.339011947992, 0.652, -0.71, 0.354, 192.0, 0.0, 0.0, 0.0, 0.0, 0.0, 0.0, 0.0, 0.0, 0.0, 1.663586544817016E9, 0.0, 2022-09-19 16:22:24.817
139.0, 10042.504673302732, 42961.12572683403, -19262.10752273888, -10361.978156802435, 12898.923504224242, -187500.02235174447, 25060.8652902681, -18355.543119376078, 0.652, -0.71, 0.354, 192.0, 0.0, 0.0, 0.0, 0.0, 0.0, 0.0, 0.0, 0.0, 0.0, 1.6635865448210511E9, 0.0, 2022-09-19 16:22:24.821
140.0, 10045.164530892913, 42962.39977626798, -19257.458359892174, -10363.47572368094, 12898.051786190485, -187500.02235174447, 25065.24623218134, -18360.10287524496, 0.652, -0.71, 0.354, 192.0, 0.0, 0.0, 0.0, 0.0, 0.0, 0.0, 0.0, 0.0, 0.0, 1.6635865448250613E9, 0.0, 2022-09-19 16:22:24.825
141.0, 10053.099400174548, 42969.55233449368, -19253.837377290416, -10367.38727896062, 12906.165469427762, -187500.02235174447, 25104.562950678224, -18364.43911366929, 0.652, -0.71, 0.354, 192.0, 0.0, 0.0, 0.0, 0.0, 0.0, 0.0, 0.0, 0.0, 0.0, 1.6635865448290513E9, 0.0, 2022-09-19 16:22:24.829
