%OpenBCI Raw EEG Data
%Number of channels = 8
%Sample Rate = 250 Hz
%Board = OpenBCI_GUI$BoardCytonSerial
Sample Index, EXG Channel 0, EXG Channel 1, EXG Channel 2, EXG Channel 3, EXG Channel 4, EXG Channel 5, EXG Channel 6, EXG Channel 7, Accel Channel 0, Accel Channel 1, Accel Channel 2, Other, Other, Other, Other, Other, Other, Other, Analog Channel 0, Analog Channel 1, Analog Channel 2, Timestamp, Other, Timestamp (Formatted)
25.0, -7545.5018932225585, -28922.48677283368, -32630.909398902586, -14759.952099317563, -9509.88495467722, 187500.0, -44115.749790161826, -10856.421095898282, 0.0, 0.0, 0.0, 192.0, 0.0, 0.0, 0.0, 0.0, 0.0, 0.0, 0.0, 0.0, 0.0, 1.6635895685408387E9, 0.0, 2022-09-19 17:12:48.540
26.0, -7555.873102649821, -28932.030967716095, -32625.522628488856, -14758.92391907262, -9522.200765872094, 187500.0, -44117.09089482915, -10879.085764775964, 0.0, 0.0, 0.0, 192.0, 0.0, 0.0, 0.0, 0.0, 0.0, 0.0, 0.0, 0.0, 0.0, 1.663589568540871E9, 0.0, 2022-09-19 17:12:48.540
27.0, -7574.246236592083, -28934.91434275083, -32618.03479409633, -14754.699439370566, -9523.854794961786, 187500.0, -44113.44756048293, -10888.853477102934, 0.0, 0.0, 0.0, 192.0, 0.0, 0.0, 0.0, 0.0, 0.0, 0.0, 0.0, 0.0, 0.0, 1.6635895685408869E9, 0.0, 2022-09-19 17:12:48.540
0.0, 0.0, 0.0, 0.0, 0.0, 0.0, 0.0, 0.0, 0.0, 0.0, 0.0, 0.0, 192.0, 0.0, 0.0, 0.0, 0.0, 0.0, 0.0, 0.0, 0.0, 0.0, 1.6635895686176898E9, 0.0, 2022-09-19 17:12:48.617
1.0, -9666.77184900902, -24174.46216040399, -31893.748866766557, -13961.614842607361, -7638.954536790197, 187500.0, -42625.201359415216, -12396.679806313492, 0.596, -0.6960000000000001, 0.422, 192.0, 18.0, 160.0, 234.0, 64.0, 13.0, 48.0, 0.0, 0.0, 0.0, 1.6635895686347327E9, 0.0, 2022-09-19 17:12:48.634
2.0, -9650.38802032328, -24124.550715035286, -31892.161892910233, -13964.632328108828, -7614.859356267376, 187500.0, -42624.41904835928, -12392.522381844805, 0.596, -0.6960000000000001, 0.422, 192.0, 0.0, 0.0, 0.0, 0.0, 0.0, 0.0, 0.0, 0.0, 0.0, 1.6635895686377316E9, 0.0, 2022-09-19 17:12:48.637
3.0, -9615.206374550626, -24047.906583298038, -31890.55256730945, -13973.863598568869, -7598.341417114904, 187500.0, -42622.34033612494, -12405.732262817892, 0.596, -0.6960000000000001, 0.422, 192.0, 0.0, 0.0, 0.0, 0.0, 0.0, 0.0, 0.0, 0.0, 0.0, 1.6635895686417973E9, 0.0, 2022-09-19 17:12:48.641
4.0, -9595.358025474314, -23984.293518578233, -31889.83731148688, -13976.255235225588, -7613.384141133326, 187500.0, -42618.65229828982, -12419.612696124637, 0.596, -0.6960000000000001, 0.422, 192.0, 0.0, 0.0, 0.0, 0.0, 0.0, 0.0, 0.0, 0.0, 0.0, 1.6635895686448073E9, 0.0, 2022-09-19 17:12:48.644
5.0, -9632.28310731448, -23964.422817757466, -31870.59245951086, -13952.76355180306, -7620.201423192195, 187500.0, -42610.35980109689, -12388.387309120573, 0.596, -0.6960000000000001, 0.422, 192.0, 0.0, 0.0, 0.0, 0.0, 0.0, 0.0, 0.0, 0.0, 0.0, 1.6635895686488008E9, 0.0, 2022-09-19 17:12:48.648
6.0, -9640.217976596115, -23918.378224179534, -31861.048264628444, -13937.296144639988, -7600.084853182418, 187500.0, -42603.38605682684, -12372.83049497968, 0.596, -0.6960000000000001, 0.422, 192.0, 0.0, 0.0, 0.0, 0.0, 0.0, 0.0, 0.0, 0.0, 0.0, 1.6635895686528022E9, 0.0, 2022-09-19 17:12:48.652
7.0, -9621.755435676032, -23859.190804861882, -31870.815976955415, -13942.325287142432, -7587.076137909429, 187500.0, -42611.41033308629, -12381.279454383786, 0.596, -0.6960000000000001, 0.422, 192.0, 0.0, 0.0, 0.0, 0.0, 0.0, 0.0, 0.0, 0.0, 0.0, 1.6635895686567483E9, 0.0, 2022-09-19 17:12:48.656
8.0, -9597.526144686479, -23810.8216298606, -31884.45054107315, -13952.987069247612, -7591.233562378116, 187500.0, -42621.513321580096, -12385.705099785937, 0.616, -0.708, 0.402, 192.0, 19.0, 64.0, 233.0, 224.0, 12.0, 144.0, 0.0, 0.0, 0.0, 1.6635895686618383E9, 0.0, 2022-09-19 17:12:48.661
9.0, -9568.915911783686, -23769.157978195904, -31887.155102152243, -13963.179464719233, -7595.88272522482, 187500.0, -42617.19943490022, -12396.702158057948, 0.616, -0.708, 0.402, 192.0, 0.0, 0.0, 0.0, 0.0, 0.0, 0.0, 0.0, 0.0, 0.0, 1.6635895686647787E9, 0.0, 2022-09-19 17:12:48.664
10.0, -9595.268618496493, -23786.27941444867, -31894.106494677842, -13983.743069618115, -7625.632897094834, 187500.0, -42628.88939725034, -12439.885728345602, 0.616, -0.708, 0.402, 192.0, 0.0, 0.0, 0.0, 0.0, 0.0, 0.0, 0.0, 0.0, 0.0, 1.6635895686677868E9, 0.0, 2022-09-19 17:12:48.667
11.0, -9608.322037258391, -23804.361975713015, -31887.400971341252, -13975.584682891928, -7628.806844807487, 187500.0, -42630.99046122914, -12438.99165856739, 0.616, -0.708, 0.402, 192.0, 0.0, 0.0, 0.0, 0.0, 0.0, 0.0, 0.0, 0.0, 0.0, 1.6635895686728313E9, 0.0, 2022-09-19 17:12:48.672
12.0, -9607.919705858196, -23813.86146710652, -31889.34557310886, -13972.902473557291, -7642.866092069876, 187500.0, -42625.000193715125, -12430.162719507542, 0.616, -0.708, 0.402, 192.0, 0.0, 0.0, 0.0, 0.0, 0.0, 0.0, 0.0, 0.0, 0.0, 1.6635895686768093E9, 0.0, 2022-09-19 17:12:48.676
13.0, -9581.075260767373, -23792.001461029227, -31894.397067355763, -13973.036584024023, -7676.818391897487, 187500.0, -42621.40156285782, -12427.234640983897, 0.616, -0.708, 0.402, 192.0, 0.0, 0.0, 0.0, 0.0, 0.0, 0.0, 0.0, 0.0, 0.0, 1.6635895686807916E9, 0.0, 2022-09-19 17:12:48.680
14.0, -9554.320222654369, -23765.067608960584, -31887.98211669709, -13960.229034451133, -7691.503488004624, 187500.0, -42620.95452796871, -12414.069463499722, 0.616, -0.708, 0.402, 192.0, 0.0, 0.0, 0.0, 0.0, 0.0, 0.0, 0.0, 0.0, 0.0, 1.663589568684782E9, 0.0, 2022-09-19 17:12:48.684
15.0, -9576.940188043141, -23781.13851322395, -31886.93158470769, -13971.606072378883, -7708.736682979666, 187500.0, -42629.69406005074, -12441.785626624302, 0.616, -0.708, 0.402, 192.0, 0.0, 0.0, 0.0, 0.0, 0.0, 0.0, 0.0, 0.0, 0.0, 1.663589568688965E9, 0.0, 2022-09-19 17:12:48.688
16.0, -9596.877944097274, -23799.176370999383, -31873.654648501237, -13949.209624434665, -7694.275104317082, 187500.0, -42620.14986516832, -12426.474681672416, 0.616, -0.708, 0.402, 192.0, 0.0, 0.0, 0.0, 0.0, 0.0, 0.0, 0.0, 0.0, 0.0, 1.6635895686918828E9, 0.0, 2022-09-19 17:12:48.691
17.0, -9593.905162084719, -23804.98782455776, -31873.408779312227, -13948.069685467444, -7687.435470513758, 187500.0, -42616.327716866464, -12423.501899659861, 0.616, -0.708, 0.402, 192.0, 0.0, 0.0, 0.0, 0.0, 0.0, 0.0, 0.0, 0.0, 0.0, 1.6635895686968713E9, 0.0, 2022-09-19 17:12:48.696
18.0, -9582.192847990138, -23805.814839102608, -31880.181357882186, -13948.986106990113, -7696.622037484889, 187500.0, -42621.513321580096, -12418.204536223953, 0.624, -0.708, 0.394, 192.0, 19.0, 128.0, 233.0, 224.0, 12.0, 80.0, 0.0, 0.0, 0.0, 1.6635895687008023E9, 0.0, 2022-09-19 17:12:48.700
19.0, -9557.784743044942, -23760.776074025165, -31893.391238855274, -13953.612918092362, -7697.225534585183, 187500.0, -42632.80095253002, -12421.736111847891, 0.624, -0.708, 0.394, 192.0, 0.0, 0.0, 0.0, 0.0, 0.0, 0.0, 0.0, 0.0, 0.0, 1.6635895687048748E9, 0.0, 2022-09-19 17:12:48.704
20.0, -9556.734211055544, -23686.568282433545, -31875.711008991126, -13948.919051756748, -7702.09821487644, 187500.0, -42616.99826920012, -12441.740923135392, 0.624, -0.708, 0.394, 192.0, 0.0, 0.0, 0.0, 0.0, 0.0, 0.0, 0.0, 0.0, 0.0, 1.6635895687088552E9, 0.0, 2022-09-19 17:12:48.708
21.0, -9554.744905799022, -23600.692880236256, -31861.383540795272, -13933.697513782683, -7699.393653797348, 187500.0, -42606.62705977286, -12433.068446286732, 0.624, -0.708, 0.394, 192.0, 0.0, 0.0, 0.0, 0.0, 0.0, 0.0, 0.0, 0.0, 0.0, 1.6635895687128687E9, 0.0, 2022-09-19 17:12:48.712
22.0, -9534.091893922317, -23504.446268611704, -31866.703255975637, -13930.255345136566, -7697.918438663297, 187500.0, -42604.81656847198, -12433.64959164257, 0.624, -0.708, 0.394, 192.0, 0.0, 0.0, 0.0, 0.0, 0.0, 0.0, 0.0, 0.0, 0.0, 1.6635895687168813E9, 0.0, 2022-09-19 17:12:48.716
23.0, -9489.231942800516, -23393.35809866883, -31894.575881311404, -13947.242670922598, -7725.321677365503, 187500.0, -42629.49289435064, -12454.771990152836, 0.624, -0.708, 0.394, 192.0, 0.0, 0.0, 0.0, 0.0, 0.0, 0.0, 0.0, 0.0, 0.0, 1.6635895687218935E9, 0.0, 2022-09-19 17:12:48.721
24.0, -9451.368087693225, -23288.908396829178, -31903.36011688234, -13953.098827969889, -7785.49257343919, 187500.0, -42646.27905443657, -12465.478475746928, 0.624, -0.708, 0.394, 192.0, 0.0, 0.0, 0.0, 0.0, 0.0, 0.0, 0.0, 0.0, 0.0, 1.6635895687248857E9, 0.0, 2022-09-19 17:12:48.724
25.0, -9444.081419000795, -23197.40035502915, -31869.474872288094, -13939.084284196411, -7810.97356211824, 187500.0, -42605.91180395029, -12447.84294937169, 0.624, -0.708, 0.394, 192.0, 0.0, 0.0, 0.0, 0.0, 0.0, 0.0, 0.0, 0.0, 0.0, 1.6635895687298427E9, 0.0, 2022-09-19 17:12:48.729
26.0, -9417.90752624363, -23093.509446800883, -31858.835441927367, -13985.19593300771, -7813.409902263868, 187500.0, -42593.57364101096, -12427.771082850824, 0.624, -0.708, 0.394, 192.0, 0.0, 0.0, 0.0, 0.0, 0.0, 0.0, 0.0, 0.0, 0.0, 1.6635895687329345E9, 0.0, 2022-09-19 17:12:48.732
27.0, -9374.791011189343, -22986.10931469313, -31869.40781705473, -14038.929526678268, -7819.35546628898, 187500.0, -42605.19654812772, -12423.837175826691, 0.624, -0.708, 0.394, 192.0, 0.0, 0.0, 0.0, 0.0, 0.0, 0.0, 0.0, 0.0, 0.0, 1.6635895687379465E9, 0.0, 2022-09-19 17:12:48.737
28.0, -9308.138109223617, -22868.42738013594, -31870.525404277494, -14050.59713728394, -7817.477919754734, 187500.0, -42614.8077982435, -12418.204536223953, 0.626, -0.6960000000000001, 0.396, 192.0, 19.0, 144.0, 234.0, 64.0, 12.0, 96.0, 0.0, 0.0, 0.0, 1.6635895687419405E9, 0.0, 2022-09-19 17:12:48.741
29.0, -9255.812675453744, -22759.194404982856, -31875.196918868653, -14063.605852556928, -7823.155262846382, 187500.0, -42621.781542513556, -12425.401797938563, 0.626, -0.6960000000000001, 0.396, 192.0, 0.0, 0.0, 0.0, 0.0, 0.0, 0.0, 0.0, 0.0, 0.0, 1.6635895687448907E9, 0.0, 2022-09-19 17:12:48.744
30.0, -9235.517291488326, -22670.167406817367, -31865.69742747515, -14068.45618110373, -7818.841376166508, 187500.0, -42629.62700481737, -12440.735094634903, 0.626, -0.6960000000000001, 0.396, 192.0, 0.0, 0.0, 0.0, 0.0, 0.0, 0.0, 0.0, 0.0, 0.0, 1.6635895687479615E9, 0.0, 2022-09-19 17:12:48.747
31.0, -9225.7272274169, -22610.17532469932, -31853.672188958193, -14050.865358217403, -7800.177669546327, 187500.0, -42625.15665592631, -12424.463024671439, 0.626, -0.6960000000000001, 0.396, 192.0, 0.0, 0.0, 0.0, 0.0, 0.0, 0.0, 0.0, 0.0, 0.0, 1.663589568751952E9, 0.0, 2022-09-19 17:12:48.751
32.0, -9194.05480552373, -22561.47087353121, -31862.59053499586, -14054.486340819161, -7792.73453864271, 187500.0, -42625.894263493334, -12422.563126392739, 0.626, -0.6960000000000001, 0.396, 192.0, 0.0, 0.0, 0.0, 0.0, 0.0, 0.0, 0.0, 0.0, 0.0, 1.6635895687559772E9, 0.0, 2022-09-19 17:12:48.755
33.0, -9142.28816536524, -22536.392216252356, -31865.898593175247, -14053.301698363031, -7795.997893333184, 187500.0, -42623.4132198588, -12419.746806591369, 0.626, -0.6960000000000001, 0.396, 192.0, 0.0, 0.0, 0.0, 0.0, 0.0, 0.0, 0.0, 0.0, 0.0, 1.6635895687609744E9, 0.0, 2022-09-19 17:12:48.760
34.0, -9099.037539844221, -22558.02870488509, -31878.482625303583, -14055.715686764204, -7803.664541681354, 187500.0, -42644.692080580244, -12425.60296363866, 0.626, -0.6960000000000001, 0.396, 192.0, 0.0, 0.0, 0.0, 0.0, 0.0, 0.0, 0.0, 0.0, 0.0, 1.663589568765042E9, 0.0, 2022-09-19 17:12:48.765
35.0, -9096.109461320575, -22622.021749260635, -31870.92773567769, -14059.627242043882, -7816.405036020879, 187500.0, -42646.86019979241, -12451.46393197345, 0.626, -0.6960000000000001, 0.396, 192.0, 0.0, 0.0, 0.0, 0.0, 0.0, 0.0, 0.0, 0.0, 0.0, 1.6635895687689965E9, 0.0, 2022-09-19 17:12:48.768
36.0, -9083.45837395887, -22668.558081216586, -31857.36022679332, -14063.73996302366, -7812.292315041103, 187500.0, -42622.42974310276, -12465.9925658694, 0.626, -0.6960000000000001, 0.396, 192.0, 0.0, 0.0, 0.0, 0.0, 0.0, 0.0, 0.0, 0.0, 0.0, 1.6635895687719336E9, 0.0, 2022-09-19 17:12:48.771
37.0, -9058.9385102914, -22696.833037952547, -31841.0658050854, -14056.83327398697, -7802.21167829176, 187500.0, -42615.210129643696, -12449.116998805643, 0.626, -0.6960000000000001, 0.396, 192.0, 0.0, 0.0, 0.0, 0.0, 0.0, 0.0, 0.0, 0.0, 0.0, 1.663589568775988E9, 0.0, 2022-09-19 17:12:48.775
38.0, -9025.366190119528, -22715.1614684059, -31849.090081344853, -14059.135503665866, -7801.518774213645, 187500.0, -42633.71737405269, -12429.93920206299, 0.622, -0.6960000000000001, 0.392, 192.0, 19.0, 112.0, 234.0, 64.0, 12.0, 64.0, 0.0, 0.0, 0.0, 1.6635895687801163E9, 0.0, 2022-09-19 17:12:48.780
39.0, -8976.05824185112, -22709.0594421696, -31846.92196213269, -14053.905195463323, -7793.583904932011, 187500.0, -42631.079868206965, -12411.275495442807, 0.622, -0.6960000000000001, 0.392, 192.0, 0.0, 0.0, 0.0, 0.0, 0.0, 0.0, 0.0, 0.0, 0.0, 1.66358956878403E9, 0.0, 2022-09-19 17:12:48.784
40.0, -8947.62682290397, -22728.25959065671, -31843.882124886768, -14069.618471815405, -7794.254457265671, 187500.0, -42636.15371419832, -12438.321106233729, 0.622, -0.6960000000000001, 0.392, 192.0, 0.0, 0.0, 0.0, 0.0, 0.0, 0.0, 0.0, 0.0, 0.0, 1.6635895687889764E9, 0.0, 2022-09-19 17:12:48.788
41.0, -8955.047602063132, -22791.537379209683, -31864.624543741294, -14108.018768789623, -7821.568288990055, 187500.0, -42672.78822336057, -12471.669908961048, 0.622, -0.6960000000000001, 0.392, 192.0, 0.0, 0.0, 0.0, 0.0, 0.0, 0.0, 0.0, 0.0, 0.0, 1.663589568793069E9, 0.0, 2022-09-19 17:12:48.793
42.0, -8928.806654072601, -22841.918211211945, -31859.327180305387, -14074.200579428743, -7824.161091346871, 187500.0, -42664.04869127854, -12430.27447822982, 0.622, -0.6960000000000001, 0.392, 192.0, 0.0, 0.0, 0.0, 0.0, 0.0, 0.0, 0.0, 0.0, 0.0, 1.6635895687970572E9, 0.0, 2022-09-19 17:12:48.797
43.0, -8862.779600951624, -22868.38267664703, -31846.20670631012, -14071.987756727667, -7810.615934206955, 187500.0, -42639.37236539988, -12406.626332596104, 0.622, -0.6960000000000001, 0.392, 192.0, 0.0, 0.0, 0.0, 0.0, 0.0, 0.0, 0.0, 0.0, 0.0, 1.6635895688000648E9, 0.0, 2022-09-19 17:12:48.800
44.0, -8823.775806877115, -22918.517639460282, -31838.62946493977, -14074.73702129567, -7811.554707474078, 187500.0, -42636.7125078097, -12392.187105677976, 0.622, -0.6960000000000001, 0.392, 192.0, 0.0, 0.0, 0.0, 0.0, 0.0, 0.0, 0.0, 0.0, 0.0, 1.6635895688040388E9, 0.0, 2022-09-19 17:12:48.804
45.0, -8843.534748975606, -23015.390099929584, -31839.523534717984, -14076.100477707443, -7814.415730764357, 187500.0, -42655.8679528079, -12408.928562275001, 0.622, -0.6960000000000001, 0.392, 192.0, 0.0, 0.0, 0.0, 0.0, 0.0, 0.0, 0.0, 0.0, 0.0, 1.6635895688080964E9, 0.0, 2022-09-19 17:12:48.808
46.0, -8840.025525096122, -23096.214007879975, -31821.619787409283, -14066.332765380475, -7796.266114266648, 187500.0, -42651.57641787248, -12409.152079719554, 0.622, -0.6960000000000001, 0.392, 192.0, 0.0, 0.0, 0.0, 0.0, 0.0, 0.0, 0.0, 0.0, 0.0, 1.6635895688120084E9, 0.0, 2022-09-19 17:12:48.812
47.0, -8816.802062607057, -23169.997116326944, -31831.365147991797, -14073.753544539637, -7799.462413723757, 187500.0, -42657.41022317532, -12420.663228114037, 0.622, -0.6960000000000001, 0.392, 192.0, 0.0, 0.0, 0.0, 0.0, 0.0, 0.0, 0.0, 0.0, 0.0, 1.6635895688170702E9, 0.0, 2022-09-19 17:12:48.817
48.0, -8773.976120230689, -23241.232125906008, -31834.002653837524, -14075.318166651508, -7802.122271313939, 187500.0, -42651.419955661295, -12428.531042162305, 0.628, -0.71, 0.392, 192.0, 19.0, 160.0, 233.0, 208.0, 12.0, 64.0, 0.0, 0.0, 0.0, 1.6635895688210273E9, 0.0, 2022-09-19 17:12:48.821
49.0, -8738.25803259111, -23335.020045640475, -31831.25338926952, -14078.469762619707, -7805.251515537681, 187500.0, -42646.83784804796, -12428.620449140126, 0.628, -0.71, 0.392, 192.0, 0.0, 0.0, 0.0, 0.0, 0.0, 0.0, 0.0, 0.0, 0.0, 1.663589568824126E9, 0.0, 2022-09-19 17:12:48.824
50.0, -8767.762335272115, -23483.055649167974, -31830.493429958038, -14066.757448525126, -7814.25926855317, 187500.0, -42656.33733944146, -12435.303620732264, 0.628, -0.71, 0.392, 192.0, 0.0, 0.0, 0.0, 0.0, 0.0, 0.0, 0.0, 0.0, 0.0, 1.6635895688281E9, 0.0, 2022-09-19 17:12:48.828
51.0, -8779.429945877784, -23593.47326677719, -31830.716947402594, -14051.02182042859, -7806.302047527081, 187500.0, -42659.91361855431, -12424.999466538367, 0.628, -0.71, 0.392, 192.0, 0.0, 0.0, 0.0, 0.0, 0.0, 0.0, 0.0, 0.0, 0.0, 1.6635895688320577E9, 0.0, 2022-09-19 17:12:48.832
52.0, -8763.873131736891, -23661.98136353271, -31831.566313691896, -14051.245337873142, -7805.5420882156, 187500.0, -42669.72603437019, -12415.36586467813, 0.628, -0.71, 0.392, 192.0, 0.0, 0.0, 0.0, 0.0, 0.0, 0.0, 0.0, 0.0, 0.0, 1.663589568836152E9, 0.0, 2022-09-19 17:12:48.836
53.0, -8734.994677900635, -23708.048308855094, -31830.672243913683, -14053.25699487412, -7820.853033167486, 187500.0, -42663.15462150033, -12418.428053668506, 0.628, -0.71, 0.392, 192.0, 0.0, 0.0, 0.0, 0.0, 0.0, 0.0, 0.0, 0.0, 0.0, 1.6635895688401003E9, 0.0, 2022-09-19 17:12:48.840
54.0, -8725.696352207226, -23767.638059572942, -31835.05318582692, -14051.290041362054, -7857.5545975631, 187500.0, -42667.51321166912, -12416.058768756244, 0.628, -0.71, 0.392, 192.0, 0.0, 0.0, 0.0, 0.0, 0.0, 0.0, 0.0, 0.0, 0.0, 1.6635895688451233E9, 0.0, 2022-09-19 17:12:48.845
55.0, -8739.0626953915, -23832.18989755987, -31831.58866543635, -14049.457198316717, -7890.813993312597, 187500.0, -42670.91067682632, -12429.022780540321, 0.628, -0.71, 0.392, 192.0, 0.0, 0.0, 0.0, 0.0, 0.0, 0.0, 0.0, 0.0, 0.0, 1.6635895688490496E9, 0.0, 2022-09-19 17:12:48.849
56.0, -8750.842064719447, -23884.738848774297, -31826.783040378457, -14035.107378376411, -7900.626409128477, 187500.0, -42664.78629884557, -12434.878937587613, 0.628, -0.71, 0.392, 192.0, 0.0, 0.0, 0.0, 0.0, 0.0, 0.0, 0.0, 0.0, 0.0, 1.6635895688521533E9, 0.0, 2022-09-19 17:12:48.852
57.0, -8748.1151518959, -23922.937980048417, -31829.599360179825, -14037.342552821941, -7911.444653444845, 187500.0, -42667.37910120239, -12425.379446194107, 0.628, -0.71, 0.392, 192.0, 0.0, 0.0, 0.0, 0.0, 0.0, 0.0, 0.0, 0.0, 0.0, 1.6635895688561163E9, 0.0, 2022-09-19 17:12:48.856
58.0, -8726.590421985438, -23949.69301816142, -31834.472040471082, -14030.25704982961, -7918.753673881731, 187500.0, -42673.525830927596, -12398.713815058925, 0.626, -0.714, 0.396, 192.0, 19.0, 144.0, 233.0, 176.0, 12.0, 96.0, 0.0, 0.0, 0.0, 1.6635895688601248E9, 0.0, 2022-09-19 17:12:48.860
59.0, -8703.501069963106, -23961.181814811447, -31827.744165390035, -14024.333837548953, -7913.992752312751, 187500.0, -42673.25760999413, -12400.658416826536, 0.626, -0.714, 0.396, 192.0, 0.0, 0.0, 0.0, 0.0, 0.0, 0.0, 0.0, 0.0, 0.0, 1.6635895688640897E9, 0.0, 2022-09-19 17:12:48.864
60.0, -8715.883936391347, -23981.678364476964, -31822.178581020664, -14022.188070081243, -7919.312467493113, 187500.0, -42673.01174080512, -12419.0315507688, 0.626, -0.714, 0.396, 192.0, 0.0, 0.0, 0.0, 0.0, 0.0, 0.0, 0.0, 0.0, 0.0, 1.6635895688682668E9, 0.0, 2022-09-19 17:12:48.868
61.0, -8737.20750060171, -24004.566550799198, -31827.990034579045, -14022.277477059064, -7931.605926943533, 187500.0, -42672.38589196037, -12431.973210808423, 0.626, -0.714, 0.396, 192.0, 0.0, 0.0, 0.0, 0.0, 0.0, 0.0, 0.0, 0.0, 0.0, 1.6635895688731742E9, 0.0, 2022-09-19 17:12:48.873
62.0, -8733.653573233316, -24004.47714382138, -31842.898648130737, -14027.954820150713, -7929.0354763311725, 187500.0, -42676.230392006684, -12434.141330020588, 0.626, -0.714, 0.396, 192.0, 0.0, 0.0, 0.0, 0.0, 0.0, 0.0, 0.0, 0.0, 0.0, 1.6635895688772087E9, 0.0, 2022-09-19 17:12:48.877
63.0, -8697.24258151562, -23980.024335387272, -31837.847153883835, -14024.423244526773, -7908.762444110209, 187500.0, -42663.31108371152, -12436.577670166216, 0.626, -0.714, 0.396, 192.0, 0.0, 0.0, 0.0, 0.0, 0.0, 0.0, 0.0, 0.0, 0.0, 1.6635895688801205E9, 0.0, 2022-09-19 17:12:48.880
64.0, -8671.359261436375, -23958.767826410276, -31841.11050857431, -14022.657456714805, -7903.37567369648, 187500.0, -42672.69881638275, -12425.759425849847, 0.626, -0.714, 0.396, 192.0, 0.0, 0.0, 0.0, 0.0, 0.0, 0.0, 0.0, 0.0, 0.0, 1.6635895688842227E9, 0.0, 2022-09-19 17:12:48.884
65.0, -8685.507915676584, -23954.766864152774, -31835.433165482664, -14016.309561289498, -7913.053979045628, 187500.0, -42683.91939209931, -12419.8809170581, 0.626, -0.714, 0.396, 192.0, 0.0, 0.0, 0.0, 0.0, 0.0, 0.0, 0.0, 0.0, 0.0, 1.663589568888156E9, 0.0, 2022-09-19 17:12:48.888
66.0, -8699.745976894616, -23936.41608195497, -31849.67122670069, -14018.947067135225, -7919.558336682122, 187500.0, -42694.64822943786, -12433.56018466475, 0.626, -0.714, 0.396, 192.0, 0.0, 0.0, 0.0, 0.0, 0.0, 0.0, 0.0, 0.0, 0.0, 1.6635895688921838E9, 0.0, 2022-09-19 17:12:48.892
67.0, -8677.058956272478, -23893.88071225652, -31849.268895300498, -14020.15406133581, -7909.343589466047, 187500.0, -42683.584115932485, -12438.119940533632, 0.626, -0.714, 0.396, 192.0, 0.0, 0.0, 0.0, 0.0, 0.0, 0.0, 0.0, 0.0, 0.0, 1.663589568896124E9, 0.0, 2022-09-19 17:12:48.896
68.0, -8626.61106903685, -23867.77387473272, -31839.232962040063, -14014.588476966439, -7886.030719999161, 187500.0, -42667.64732213585, -12435.41537945454, 0.626, -0.714, 0.396, 192.0, 0.0, 0.0, 0.0, 0.0, 0.0, 0.0, 0.0, 0.0, 0.0, 1.6635895689011912E9, 0.0, 2022-09-19 17:12:48.901
69.0, -8603.789937947982, -23899.178075692427, -31834.49439221554, -14004.977226850657, -7874.407812882401, 187500.0, -42669.41310994782, -12419.813861824736, 0.616, -0.712, 0.398, 192.0, 19.0, 64.0, 233.0, 192.0, 12.0, 112.0, 0.0, 0.0, 0.0, 1.6635895689052448E9, 0.0, 2022-09-19 17:12:48.905
70.0, -8622.096016656878, -23966.74739918082, -31836.72956666107, -14018.63414271285, -7869.93746399134, 187500.0, -42683.852336865944, -12433.135501520099, 0.616, -0.712, 0.398, 192.0, 0.0, 0.0, 0.0, 0.0, 0.0, 0.0, 0.0, 0.0, 0.0, 1.663589568908208E9, 0.0, 2022-09-19 17:12:48.908
71.0, -8626.007571936558, -24009.75215551283, -31834.941427104644, -14002.138555304833, -7847.295146858114, 187500.0, -42684.701703155246, -12435.862414343646, 0.616, -0.712, 0.398, 192.0, 0.0, 0.0, 0.0, 0.0, 0.0, 0.0, 0.0, 0.0, 0.0, 1.663589568912217E9, 0.0, 2022-09-19 17:12:48.912
72.0, -8611.970676418625, -24038.675312837997, -31823.72085138808, -13992.572008677962, -7827.200928592793, 187500.0, -42664.04869127854, -12420.439710669483, 0.616, -0.712, 0.398, 192.0, 0.0, 0.0, 0.0, 0.0, 0.0, 0.0, 0.0, 0.0, 0.0, 1.6635895689161773E9, 0.0, 2022-09-19 17:12:48.916
73.0, -8573.972710844602, -24051.304048455248, -31826.58187467836, -14001.758575649093, -7816.941477887807, 187500.0, -42652.738708584155, -12412.97422802141, 0.616, -0.712, 0.398, 192.0, 0.0, 0.0, 0.0, 0.0, 0.0, 0.0, 0.0, 0.0, 0.0, 1.6635895689202719E9, 0.0, 2022-09-19 17:12:48.920
74.0, -8553.36440245681, -24070.61595566463, -31847.994845866546, -14031.732264963659, -7835.783998463631, 187500.0, -42692.41305499233, -12441.584460924205, 0.616, -0.712, 0.398, 192.0, 0.0, 0.0, 0.0, 0.0, 0.0, 0.0, 0.0, 0.0, 0.0, 1.66358956892425E9, 0.0, 2022-09-19 17:12:48.924
75.0, -8548.379963443276, -24080.540130202786, -31818.69170888564, -14002.29501751602, -7836.78982696412, 187500.0, -42674.66576989481, -12427.614620639637, 0.616, -0.712, 0.398, 192.0, 0.0, 0.0, 0.0, 0.0, 0.0, 0.0, 0.0, 0.0, 0.0, 1.663589568928274E9, 0.0, 2022-09-19 17:12:48.928
76.0, -8554.83961759086, -24098.667394956043, -31805.14655174572, -13989.95685457669, -7841.573100277556, 187500.0, -42664.22750523419, -12420.50676590285, 0.616, -0.712, 0.398, 192.0, 0.0, 0.0, 0.0, 0.0, 0.0, 0.0, 0.0, 0.0, 0.0, 1.6635895689332366E9, 0.0, 2022-09-19 17:12:48.933
77.0, -8540.40039067273, -24101.2378455684, -31809.39338319223, -13992.795526122514, -7834.554652518589, 187500.0, -42667.89319132485, -12416.50580364535, 0.616, -0.712, 0.398, 192.0, 0.0, 0.0, 0.0, 0.0, 0.0, 0.0, 0.0, 0.0, 0.0, 1.6635895689362624E9, 0.0, 2022-09-19 17:12:48.936
78.0, -8511.119605436279, -24093.414735009042, -31822.40209846522, -14003.613770438884, -7837.728600231243, 187500.0, -42678.35380772994, -12414.225925710909, 0.616, -0.712, 0.398, 192.0, 0.0, 0.0, 0.0, 0.0, 0.0, 0.0, 0.0, 0.0, 0.0, 1.6635895689402697E9, 0.0, 2022-09-19 17:12:48.940
79.0, -8489.952503437104, -24093.2359210534, -31825.888970600245, -13992.572008677962, -7840.902547943896, 187500.0, -42687.629781678894, -12385.570989319205, 0.616, -0.708, 0.402, 192.0, 19.0, 64.0, 233.0, 224.0, 12.0, 144.0, 0.0, 0.0, 0.0, 1.6635895689442616E9, 0.0, 2022-09-19 17:12:48.944
80.0, -8497.77561399646, -24116.034700397817, -31810.24274948153, -13986.179409763743, -7841.014306666173, 187500.0, -42678.10793854093, -12387.962625975922, 0.616, -0.708, 0.402, 192.0, 0.0, 0.0, 0.0, 0.0, 0.0, 0.0, 0.0, 0.0, 0.0, 1.6635895689482317E9, 0.0, 2022-09-19 17:12:48.948
81.0, -8511.343122880831, -24161.87812827565, -31812.746144860525, -13995.991825579624, -7841.953079933296, 187500.0, -42676.05157805104, -12405.419338395517, 0.616, -0.708, 0.402, 192.0, 0.0, 0.0, 0.0, 0.0, 0.0, 0.0, 0.0, 0.0, 0.0, 1.663589568952351E9, 0.0, 2022-09-19 17:12:48.952
82.0, -8496.814488984883, -24199.183189771556, -31809.661604125693, -13997.24352326912, -7824.362257046969, 187500.0, -42671.44711869325, -12411.946047776468, 0.616, -0.708, 0.402, 192.0, 0.0, 0.0, 0.0, 0.0, 0.0, 0.0, 0.0, 0.0, 0.0, 1.66358956895637E9, 0.0, 2022-09-19 17:12:48.956
83.0, -8459.576482722341, -24227.301684296333, -31814.377822205763, -14002.406776238297, -7803.038692836606, 187500.0, -42676.63272340688, -12406.715739573925, 0.616, -0.708, 0.402, 192.0, 0.0, 0.0, 0.0, 0.0, 0.0, 0.0, 0.0, 0.0, 0.0, 1.6635895689603355E9, 0.0, 2022-09-19 17:12:48.960
84.0, -8430.005124807969, -24259.532899800888, -31829.15232529072, -14017.807128168002, -7801.384663746913, 187500.0, -42692.524813714605, -12414.292980944274, 0.616, -0.708, 0.402, 192.0, 0.0, 0.0, 0.0, 0.0, 0.0, 0.0, 0.0, 0.0, 0.0, 1.6635895689633584E9, 0.0, 2022-09-19 17:12:48.963
85.0, -8470.10415436079, -24340.401511240187, -31835.410813738206, -14030.078235873967, -7824.384608791424, 187500.0, -42704.50534874265, -12441.785626624302, 0.616, -0.708, 0.402, 192.0, 0.0, 0.0, 0.0, 0.0, 0.0, 0.0, 0.0, 0.0, 0.0, 1.6635895689673746E9, 0.0, 2022-09-19 17:12:48.967
86.0, -8501.955390209603, -24405.86977074978, -31824.59256942184, -14013.627351954861, -7802.882230625419, 187500.0, -42700.23616555169, -12423.837175826691, 0.616, -0.708, 0.402, 192.0, 0.0, 0.0, 0.0, 0.0, 0.0, 0.0, 0.0, 0.0, 0.0, 1.663589568972365E9, 0.0, 2022-09-19 17:12:48.972
87.0, -8483.314035333877, -24431.395462917742, -31823.25146475452, -14008.933485619245, -7763.431401661802, 187500.0, -42698.24686029516, -12412.706007087947, 0.616, -0.708, 0.402, 192.0, 0.0, 0.0, 0.0, 0.0, 0.0, 0.0, 0.0, 0.0, 0.0, 1.6635895689763563E9, 0.0, 2022-09-19 17:12:48.976
88.0, -8452.848607641294, -24449.16509975971, -31854.566258736406, -14025.20555558271, -7764.0348987620955, 187500.0, -42722.74437221818, -12425.692370616482, 0.616, -0.708, 0.402, 192.0, 0.0, 0.0, 0.0, 0.0, 0.0, 0.0, 0.0, 0.0, 0.0, 1.6635895689803083E9, 0.0, 2022-09-19 17:12:48.980
89.0, -8446.724229660538, -24484.19028332118, -31856.39910178174, -14033.006314397611, -7775.724861112221, 187500.0, -42725.73950597519, -12437.65055390007, 0.618, -0.706, 0.406, 192.0, 19.0, 80.0, 233.0, 240.0, 12.0, 176.0, 0.0, 0.0, 0.0, 1.663589568984462E9, 0.0, 2022-09-19 17:12:48.984
90.0, -8469.277139815944, -24524.915161718745, -31814.33311871685, -14012.174488565266, -7770.405145931858, 187500.0, -42683.53941244357, -12430.922678819023, 0.618, -0.706, 0.406, 192.0, 0.0, 0.0, 0.0, 0.0, 0.0, 0.0, 0.0, 0.0, 0.0, 1.6635895689873433E9, 0.0, 2022-09-19 17:12:48.987
91.0, -8500.189602397633, -24561.035580758522, -31812.366165204785, -14001.736223904638, -7792.73453864271, 187500.0, -42688.97088634621, -12417.511632145839, 0.618, -0.706, 0.406, 192.0, 0.0, 0.0, 0.0, 0.0, 0.0, 0.0, 0.0, 0.0, 0.0, 1.6635895689913268E9, 0.0, 2022-09-19 17:12:48.991
92.0, -8495.160459895189, -24558.308667934976, -31822.670319398683, -13994.874238356859, -7817.008533121173, 187500.0, -42691.51898521411, -12411.811937309736, 0.618, -0.706, 0.406, 192.0, 0.0, 0.0, 0.0, 0.0, 0.0, 0.0, 0.0, 0.0, 0.0, 1.6635895689963617E9, 0.0, 2022-09-19 17:12:48.996
93.0, -8466.974910137047, -24532.76062402256, -31825.10665954431, -13986.693499886216, -7822.507062257178, 187500.0, -42694.15649105984, -12399.45142262595, 0.618, -0.706, 0.406, 192.0, 0.0, 0.0, 0.0, 0.0, 0.0, 0.0, 0.0, 0.0, 0.0, 1.663589569000363E9, 0.0, 2022-09-19 17:12:49.000
94.0, -8450.680488429129, -24512.57699877942, -31830.82870612487, -13990.828572610448, -7830.710152472277, 187500.0, -42702.20311906375, -12405.575800606704, 0.618, -0.706, 0.406, 192.0, 0.0, 0.0, 0.0, 0.0, 0.0, 0.0, 0.0, 0.0, 0.0, 1.6635895690043912E9, 0.0, 2022-09-19 17:12:49.004
95.0, -8473.881599173737, -24508.285463844, -31820.92688333117, -13987.431107453242, -7843.204777622793, 187500.0, -42698.35861901744, -12418.539812390783, 0.618, -0.706, 0.406, 192.0, 0.0, 0.0, 0.0, 0.0, 0.0, 0.0, 0.0, 0.0, 0.0, 1.6635895690083835E9, 0.0, 2022-09-19 17:12:49.008
96.0, -8499.29553261942, -24496.215521838134, -31835.88020037177, -13999.47869771465, -7851.854902726996, 187500.0, -42709.73565694519, -12445.071333059232, 0.618, -0.706, 0.406, 192.0, 0.0, 0.0, 0.0, 0.0, 0.0, 0.0, 0.0, 0.0, 0.0, 1.6635895690123937E9, 0.0, 2022-09-19 17:12:49.012
97.0, -8503.475308832563, -24465.593631934364, -31843.792717908946, -14003.166735549778, -7855.989975451229, 187500.0, -42713.11077035794, -12444.601946425671, 0.618, -0.706, 0.406, 192.0, 0.0, 0.0, 0.0, 0.0, 0.0, 0.0, 0.0, 0.0, 0.0, 1.6635895690164232E9, 0.0, 2022-09-19 17:12:49.016
98.0, -8488.656102258696, -24418.54320985594, -31827.744165390035, -13984.793601607515, -7856.437010340334, 187500.0, -42697.68806668378, -12394.39992837905, 0.618, -0.706, 0.406, 192.0, 0.0, 0.0, 0.0, 0.0, 0.0, 0.0, 0.0, 0.0, 0.0, 1.663589569019411E9, 0.0, 2022-09-19 17:12:49.019
99.0, -8479.91657017667, -24372.610375000284, -31819.42931645266, -13976.38934569232, -7857.599301052011, 187500.0, -42693.41888349281, -12391.941236488967, 0.624, -0.704, 0.402, 192.0, 19.0, 128.0, 234.0, 0.0, 12.0, 144.0, 0.0, 0.0, 0.0, 1.663589569023384E9, 0.0, 2022-09-19 17:12:49.023
100.0, -8517.82512877287, -24360.07104636086, -31818.423487952172, -13978.401002693297, -7874.810144282597, 187500.0, -42714.831854681004, -12404.212344194932, 0.624, -0.704, 0.402, 192.0, 0.0, 0.0, 0.0, 0.0, 0.0, 0.0, 0.0, 0.0, 0.0, 1.6635895690283625E9, 0.0, 2022-09-19 17:12:49.028
101.0, -8539.528672638973, -24334.366540237254, -31823.653796154715, -13980.39030794982, -7880.487487374246, 187500.0, -42718.85516868295, -12409.152079719554, 0.624, -0.704, 0.402, 192.0, 0.0, 0.0, 0.0, 0.0, 0.0, 0.0, 0.0, 0.0, 0.0, 1.6635895690325005E9, 0.0, 2022-09-19 17:12:49.032
102.0, -8533.940736525146, -24286.46675186953, -31821.016290308988, -13983.363089962375, -7877.89468501743, 187500.0, -42692.56951720351, -12418.428053668506, 0.624, -0.704, 0.402, 192.0, 0.0, 0.0, 0.0, 0.0, 0.0, 0.0, 0.0, 0.0, 0.0, 1.6635895690364428E9, 0.0, 2022-09-19 17:12:49.036
103.0, -8516.260506661, -24228.665140708108, -31827.230075267566, -13983.117220773367, -7886.678920588365, 187500.0, -42689.70849391323, -12417.422225168017, 0.624, -0.704, 0.402, 192.0, 0.0, 0.0, 0.0, 0.0, 0.0, 0.0, 0.0, 0.0, 0.0, 1.663589569040492E9, 0.0, 2022-09-19 17:12:49.040
104.0, -8519.032122973458, -24188.186131499548, -31830.895761358235, -13989.331005731941, -7909.097720277038, 187500.0, -42698.179805061794, -12417.042245512277, 0.624, -0.704, 0.402, 192.0, 0.0, 0.0, 0.0, 0.0, 0.0, 0.0, 0.0, 0.0, 0.0, 1.6635895690444527E9, 0.0, 2022-09-19 17:12:49.044
105.0, -8548.603480887828, -24163.040418987326, -31820.166924019686, -13981.753764361592, -7910.751749366731, 187500.0, -42703.58892721998, -12412.706007087947, 0.624, -0.704, 0.402, 192.0, 0.0, 0.0, 0.0, 0.0, 0.0, 0.0, 0.0, 0.0, 0.0, 1.663589569047433E9, 0.0, 2022-09-19 17:12:49.047
106.0, -8566.84250436336, -24135.39131109611, -31823.452630454616, -13985.19593300771, -7912.942220323351, 187500.0, -42717.73758146019, -12409.353245419652, 0.624, -0.704, 0.402, 192.0, 0.0, 0.0, 0.0, 0.0, 0.0, 0.0, 0.0, 0.0, 0.0, 1.6635895690514705E9, 0.0, 2022-09-19 17:12:49.051
107.0, -8576.051423078945, -24108.166886349547, -31813.707269872102, -13979.853866082893, -7910.237659244259, 187500.0, -42704.058313853544, -12407.878030285601, 0.624, -0.704, 0.402, 192.0, 0.0, 0.0, 0.0, 0.0, 0.0, 0.0, 0.0, 0.0, 0.0, 1.663589569056491E9, 0.0, 2022-09-19 17:12:49.056
108.0, -8558.013565303512, -24060.445911937466, -31819.764592619493, -13979.451534682696, -7898.435938171857, 187500.0, -42701.59962196346, -12409.21913495292, 0.624, -0.704, 0.402, 192.0, 0.0, 0.0, 0.0, 0.0, 0.0, 0.0, 0.0, 0.0, 0.0, 1.663589569060488E9, 0.0, 2022-09-19 17:12:49.060
109.0, -8531.526748123973, -24008.299292123236, -31818.758764119004, -13989.599226665405, -7893.049167758128, 187500.0, -42703.723037686716, -12432.621411397626, 0.63, -0.7020000000000001, 0.41200000000000003, 192.0, 19.0, 176.0, 234.0, 16.0, 12.0, 224.0, 0.0, 0.0, 0.0, 1.6635895690645509E9, 0.0, 2022-09-19 17:12:49.064
110.0, -8570.418783476209, -24014.244856148347, -31815.83068559536, -13987.028776053045, -7905.566144653099, 187500.0, -42715.100075614464, -12439.215176011941, 0.63, -0.7020000000000001, 0.41200000000000003, 192.0, 0.0, 0.0, 0.0, 0.0, 0.0, 0.0, 0.0, 0.0, 0.0, 1.663589569068494E9, 0.0, 2022-09-19 17:12:49.068
111.0, -8609.869612439825, -24020.168068429004, -31817.529418173963, -13978.557464904485, -7908.784795854664, 187500.0, -42713.87072966942, -12416.014065267333, 0.63, -0.7020000000000001, 0.41200000000000003, 192.0, 0.0, 0.0, 0.0, 0.0, 0.0, 0.0, 0.0, 0.0, 0.0, 1.6635895690714948E9, 0.0, 2022-09-19 17:12:49.071
112.0, -8612.261249096544, -23995.13411463906, -31827.140668289743, -13988.39223246482, -7906.013179542206, 187500.0, -42712.26140406864, -12420.88674555859, 0.63, -0.7020000000000001, 0.41200000000000003, 192.0, 0.0, 0.0, 0.0, 0.0, 0.0, 0.0, 0.0, 0.0, 0.0, 1.663589569075506E9, 0.0, 2022-09-19 17:12:49.075
113.0, -8579.65005393625, -23942.696922146908, -31820.748069375524, -13986.447630697206, -7886.075423488072, 187500.0, -42702.940726630775, -12423.010161281843, 0.63, -0.7020000000000001, 0.41200000000000003, 192.0, 0.0, 0.0, 0.0, 0.0, 0.0, 0.0, 0.0, 0.0, 0.0, 1.663589569079538E9, 0.0, 2022-09-19 17:12:49.079
114.0, -8569.79293463146, -23910.957445020373, -31822.20093276512, -13976.523456159051, -7878.989920495739, 187500.0, -42712.239052324185, -12394.869315012613, 0.63, -0.7020000000000001, 0.41200000000000003, 192.0, 0.0, 0.0, 0.0, 0.0, 0.0, 0.0, 0.0, 0.0, 0.0, 1.6635895690845425E9, 0.0, 2022-09-19 17:12:49.084
115.0, -8604.214621092633, -23913.706709588376, -31827.63240666776, -13974.467095669163, -7884.42139439838, 187500.0, -42722.54320651808, -12396.635102824583, 0.63, -0.7020000000000001, 0.41200000000000003, 192.0, 0.0, 0.0, 0.0, 0.0, 0.0, 0.0, 0.0, 0.0, 0.0, 1.6635895690885372E9, 0.0, 2022-09-19 17:12:49.088
116.0, -8618.653848010761, -23901.525008860233, -31825.0619560554, -13989.643930154316, -7880.062804229594, 187500.0, -42710.36150578994, -12425.066521771732, 0.63, -0.7020000000000001, 0.41200000000000003, 192.0, 0.0, 0.0, 0.0, 0.0, 0.0, 0.0, 0.0, 0.0, 0.0, 1.663589569092592E9, 0.0, 2022-09-19 17:12:49.092
117.0, -8616.016342165034, -23876.938089959396, -31841.602246952327, -14001.445651226719, -7888.779984567164, 187500.0, -42722.31968907353, -12442.679696402514, 0.63, -0.7020000000000001, 0.41200000000000003, 192.0, 0.0, 0.0, 0.0, 0.0, 0.0, 0.0, 0.0, 0.0, 0.0, 1.6635895690955708E9, 0.0, 2022-09-19 17:12:49.095
118.0, -8604.549897259461, -23845.75740644424, -31830.649892169225, -13992.460249955684, -7888.489411889245, 187500.0, -42709.512139500635, -12421.199669980964, 0.63, -0.7020000000000001, 0.41200000000000003, 192.0, 0.0, 0.0, 0.0, 0.0, 0.0, 0.0, 0.0, 0.0, 0.0, 1.6635895690995257E9, 0.0, 2022-09-19 17:12:49.099
119.0, -8608.37204556132, -23821.46106022132, -31809.482790170052, -13975.808200336482, -7876.732394305754, 187500.0, -42699.520909729115, -12391.74007078887, 0.626, -0.6940000000000001, 0.41600000000000004, 192.0, 19.0, 144.0, 234.0, 80.0, 13.0, 0.0, 0.0, 0.0, 0.0, 1.6635895691035326E9, 0.0, 2022-09-19 17:12:49.103
120.0, -8637.563423819951, -23810.441650204855, -31814.71309837259, -13981.150267261299, -7877.246484428226, 187500.0, -42711.21087207924, -12393.684672556481, 0.626, -0.6940000000000001, 0.41600000000000004, 192.0, 0.0, 0.0, 0.0, 0.0, 0.0, 0.0, 0.0, 0.0, 0.0, 1.663589569107606E9, 0.0, 2022-09-19 17:12:49.107
121.0, -8651.779133293527, -23786.32411793758, -31816.411830951194, -13988.48163944264, -7871.636196569943, 187500.0, -42706.651116210356, -12401.328969160197, 0.626, -0.6940000000000001, 0.41600000000000004, 192.0, 0.0, 0.0, 0.0, 0.0, 0.0, 0.0, 0.0, 0.0, 0.0, 1.663589569111672E9, 0.0, 2022-09-19 17:12:49.111
122.0, -8645.431237868219, -23747.52148956317, -31818.49054318554, -13995.924770346257, -7863.321347632569, 187500.0, -42707.29931679956, -12398.535001103282, 0.626, -0.6940000000000001, 0.41600000000000004, 192.0, 0.0, 0.0, 0.0, 0.0, 0.0, 0.0, 0.0, 0.0, 0.0, 1.663589569116604E9, 0.0, 2022-09-19 17:12:49.116
123.0, -8639.932708732213, -23724.65565498539, -31831.76747939199, -14007.368863507374, -7870.8091820250975, 187500.0, -42718.34107856049, -12397.17154469151, 0.626, -0.6940000000000001, 0.41600000000000004, 192.0, 0.0, 0.0, 0.0, 0.0, 0.0, 0.0, 0.0, 0.0, 0.0, 1.663589569120607E9, 0.0, 2022-09-19 17:12:49.120
124.0, -8631.841377239392, -23707.578922221535, -31833.64502592624, -14009.000540852612, -7870.429202369357, 187500.0, -42725.15836061935, -12398.803222036746, 0.626, -0.6940000000000001, 0.41600000000000004, 192.0, 0.0, 0.0, 0.0, 0.0, 0.0, 0.0, 0.0, 0.0, 0.0, 1.6635895691236534E9, 0.0, 2022-09-19 17:12:49.123
125.0, -8660.697479331193, -23724.208620096284, -31836.30488351642, -14014.72258743317, -7876.46417337229, 187500.0, -42735.57427353552, -12421.400835681063, 0.626, -0.6940000000000001, 0.41600000000000004, 192.0, 0.0, 0.0, 0.0, 0.0, 0.0, 0.0, 0.0, 0.0, 0.0, 1.6635895691276248E9, 0.0, 2022-09-19 17:12:49.127
126.0, -8689.173601767254, -23745.755701751197, -31827.96768283459, -14007.413566996285, -7876.330062905558, 187500.0, -42722.49850302917, -12426.921716561523, 0.626, -0.6940000000000001, 0.41600000000000004, 192.0, 0.0, 0.0, 0.0, 0.0, 0.0, 0.0, 0.0, 0.0, 0.0, 1.6635895691316104E9, 0.0, 2022-09-19 17:12:49.131
127.0, -8697.264933260076, -23758.496196090724, -31835.455517227118, -14009.20170655271, -7868.976338979762, 187500.0, -42724.9348431748, -12432.196728252975, 0.626, -0.6940000000000001, 0.41600000000000004, 192.0, 0.0, 0.0, 0.0, 0.0, 0.0, 0.0, 0.0, 0.0, 0.0, 1.6635895691355796E9, 0.0, 2022-09-19 17:12:49.135
128.0, -8678.601226639894, -23756.41748385638, -31842.1163370748, -14010.29694203102, -7862.807257510097, 187500.0, -42737.45182006977, -12417.690446101482, 0.626, -0.6940000000000001, 0.41600000000000004, 192.0, 0.0, 0.0, 0.0, 0.0, 0.0, 0.0, 0.0, 0.0, 0.0, 1.6635895691396756E9, 0.0, 2022-09-19 17:12:49.139
129.0, -8649.834531525914, -23743.69934126131, -31823.229113010064, -13992.169677277767, -7847.049277669106, 187500.0, -42726.96885192023, -12400.345492404163, 0.622, -0.706, 0.41200000000000003, 192.0, 19.0, 112.0, 233.0, 240.0, 12.0, 224.0, 0.0, 0.0, 0.0, 1.663589569144614E9, 0.0, 2022-09-19 17:12:49.144
130.0, -8675.695499860705, -23771.79548404163, -31805.705345357102, -13986.022947552556, -7849.642080025921, 187500.0, -42703.8794998979, -12400.88193427109, 0.622, -0.706, 0.41200000000000003, 192.0, 0.0, 0.0, 0.0, 0.0, 0.0, 0.0, 0.0, 0.0, 0.0, 1.6635895691486409E9, 0.0, 2022-09-19 17:12:49.148
131.0, -8701.735282151138, -23797.81291458761, -31813.953139061112, -13979.943273060713, -7846.311670102081, 187500.0, -42709.936822645286, -12387.381480620084, 0.622, -0.706, 0.41200000000000003, 192.0, 0.0, 0.0, 0.0, 0.0, 0.0, 0.0, 0.0, 0.0, 0.0, 1.663589569151615E9, 0.0, 2022-09-19 17:12:49.151
132.0, -8699.343645494419, -23798.371708198993, -31826.224246767077, -13988.325177231452, -7842.042486911117, 187500.0, -42722.96788966273, -12386.934445730978, 0.622, -0.706, 0.41200000000000003, 192.0, 0.0, 0.0, 0.0, 0.0, 0.0, 0.0, 0.0, 0.0, 0.0, 1.6635895691556377E9, 0.0, 2022-09-19 17:12:49.155
133.0, -8673.035642270523, -23782.83724580255, -31833.64502592624, -13998.04818606951, -7846.892815457919, 187500.0, -42722.92318617382, -12392.008291722334, 0.622, -0.706, 0.41200000000000003, 192.0, 0.0, 0.0, 0.0, 0.0, 0.0, 0.0, 0.0, 0.0, 0.0, 1.6635895691596076E9, 0.0, 2022-09-19 17:12:49.159
134.0, -8648.783999536516, -23766.095789205527, -31838.517706217495, -14001.57976169345, -7854.224187639259, 187500.0, -42722.56555826254, -12407.162774463031, 0.622, -0.706, 0.41200000000000003, 192.0, 0.0, 0.0, 0.0, 0.0, 0.0, 0.0, 0.0, 0.0, 0.0, 1.6635895691636107E9, 0.0, 2022-09-19 17:12:49.163
135.0, -8659.66929908625, -23770.65554507441, -31828.168848534686, -13997.95877909169, -7859.454495841801, 187500.0, -42716.21766283723, -12421.020856025321, 0.622, -0.706, 0.41200000000000003, 192.0, 0.0, 0.0, 0.0, 0.0, 0.0, 0.0, 0.0, 0.0, 0.0, 1.6635895691677473E9, 0.0, 2022-09-19 17:12:49.167
136.0, -8703.299904263009, -23807.491219936757, -31824.279644999464, -13995.0530523125, -7870.295091902625, 187500.0, -42710.137988345385, -12399.920809259513, 0.622, -0.706, 0.41200000000000003, 192.0, 0.0, 0.0, 0.0, 0.0, 0.0, 0.0, 0.0, 0.0, 0.0, 1.6635895691726587E9, 0.0, 2022-09-19 17:12:49.172
137.0, -8720.443692260229, -23822.064557321617, -31827.25242701202, -14002.29501751602, -7868.12697269046, 187500.0, -42710.24974706766, -12394.645797568059, 0.622, -0.706, 0.41200000000000003, 192.0, 0.0, 0.0, 0.0, 0.0, 0.0, 0.0, 0.0, 0.0, 0.0, 1.6635895691766636E9, 0.0, 2022-09-19 17:12:49.176
138.0, -8696.326159992954, -23800.27160647769, -31837.48952597255, -13996.595322679917, -7856.347603362514, 187500.0, -42713.580156991506, -12385.682748041481, 0.622, -0.706, 0.41200000000000003, 192.0, 0.0, 0.0, 0.0, 0.0, 0.0, 0.0, 0.0, 0.0, 0.0, 1.6635895691796973E9, 0.0, 2022-09-19 17:12:49.179
139.0, -8678.712985362172, -23785.47475164828, -31844.10564233132, -13998.227000025154, -7864.953024977806, 187500.0, -42715.83768318149, -12391.158925433032, 0.614, -0.714, 0.41400000000000003, 192.0, 19.0, 48.0, 233.0, 176.0, 12.0, 240.0, 0.0, 0.0, 0.0, 1.6635895691836855E9, 0.0, 2022-09-19 17:12:49.183
140.0, -8706.809128142491, -23803.780830357176, -31829.241732268543, -13997.981130836146, -7872.776135537164, 187500.0, -42708.34984878896, -12409.59911460866, 0.614, -0.714, 0.41400000000000003, 192.0, 0.0, 0.0, 0.0, 0.0, 0.0, 0.0, 0.0, 0.0, 0.0, 1.6635895691876776E9, 0.0, 2022-09-19 17:12:49.187
141.0, -8752.16081764231, -23828.166583557915, -31835.522572460482, -13998.562276191984, -7875.435993127346, 187500.0, -42713.37899129141, -12414.516498388828, 0.614, -0.714, 0.41400000000000003, 192.0, 0.0, 0.0, 0.0, 0.0, 0.0, 0.0, 0.0, 0.0, 0.0, 1.6635895691916993E9, 0.0, 2022-09-19 17:12:49.191
142.0, -8750.193864130242, -23802.909112323418, -31831.611017180803, -13993.53313368954, -7860.817952253575, 187500.0, -42702.381933019395, -12400.524306359805, 0.614, -0.714, 0.41400000000000003, 192.0, 0.0, 0.0, 0.0, 0.0, 0.0, 0.0, 0.0, 0.0, 0.0, 1.663589569195714E9, 0.0, 2022-09-19 17:12:49.195
143.0, -8720.130767837854, -23752.193004154327, -31818.44583969663, -13973.595377635405, -7844.232957867737, 187500.0, -42684.008799077135, -12361.766381474303, 0.614, -0.714, 0.41400000000000003, 192.0, 0.0, 0.0, 0.0, 0.0, 0.0, 0.0, 0.0, 0.0, 0.0, 1.663589569199689E9, 0.0, 2022-09-19 17:12:49.199
144.0, -8712.754692167604, -23717.234875826227, -31834.20381953762, -13977.596339892905, -7855.319423117569, 187500.0, -42705.332363287496, -12362.816913463703, 0.614, -0.714, 0.41400000000000003, 192.0, 0.0, 0.0, 0.0, 0.0, 0.0, 0.0, 0.0, 0.0, 0.0, 1.6635895692047367E9, 0.0, 2022-09-19 17:12:49.204
145.0, -8747.936337940257, -23708.87532339994, -31842.988055108555, -13992.951988333702, -7875.659510571899, 187500.0, -42731.59566302248, -12399.674940070503, 0.614, -0.714, 0.41400000000000003, 192.0, 0.0, 0.0, 0.0, 0.0, 0.0, 0.0, 0.0, 0.0, 0.0, 1.663589569207708E9, 0.0, 2022-09-19 17:12:49.207
146.0, -8763.359041614418, -23681.78500912011, -31838.40594749522, -13995.29892150151, -7873.491391359734, 187500.0, -42726.23124435321, -12411.320198931719, 0.614, -0.714, 0.41400000000000003, 192.0, 0.0, 0.0, 0.0, 0.0, 0.0, 0.0, 0.0, 0.0, 0.0, 1.663589569211759E9, 0.0, 2022-09-19 17:12:49.211
147.0, -8754.910082210312, -23639.29434291057, -31836.30488351642, -13987.632273153338, -7863.142533676927, 187500.0, -42718.117561115934, -12385.503934085838, 0.614, -0.714, 0.41400000000000003, 192.0, 0.0, 0.0, 0.0, 0.0, 0.0, 0.0, 0.0, 0.0, 0.0, 1.6635895692157416E9, 0.0, 2022-09-19 17:12:49.215
148.0, -8732.692448221738, -23588.466476019203, -31847.59251446635, -13994.136630789833, -7858.0686876855725, 187500.0, -42713.982488391695, -12371.824666479191, 0.614, -0.714, 0.41400000000000003, 192.0, 0.0, 0.0, 0.0, 0.0, 0.0, 0.0, 0.0, 0.0, 0.0, 1.6635895692197187E9, 0.0, 2022-09-19 17:12:49.219
149.0, -8717.672075947772, -23547.160452265794, -31849.31359878941, -14001.24448552662, -7861.533208076145, 187500.0, -42714.22835758071, -12384.229884651886, 0.61, -0.7020000000000001, 0.41000000000000003, 192.0, 19.0, 16.0, 234.0, 16.0, 12.0, 208.0, 0.0, 0.0, 0.0, 1.663589569223803E9, 0.0, 2022-09-19 17:12:49.223
150.0, -8738.638012246849, -23534.866992815376, -31846.050244098933, -14009.894610630825, -7874.877199515963, 187500.0, -42722.56555826254, -12415.298809444763, 0.61, -0.7020000000000001, 0.41000000000000003, 192.0, 0.0, 0.0, 0.0, 0.0, 0.0, 0.0, 0.0, 0.0, 0.0, 1.6635895692287512E9, 0.0, 2022-09-19 17:12:49.228
151.0, -8751.758486242114, -23518.729033318643, -31841.892819630248, -14002.160907049289, -7868.2834349016475, 187500.0, -42717.51406401564, -12410.560239620238, 0.61, -0.7020000000000001, 0.41000000000000003, 192.0, 0.0, 0.0, 0.0, 0.0, 0.0, 0.0, 0.0, 0.0, 0.0, 1.6635895692318172E9, 0.0, 2022-09-19 17:12:49.231
152.0, -8746.997564673135, -23490.275262627038, -31845.9161336322, -13994.069575556467, -7865.265949400181, 187500.0, -42718.117561115934, -12396.568047591216, 0.61, -0.7020000000000001, 0.41000000000000003, 192.0, 0.0, 0.0, 0.0, 0.0, 0.0, 0.0, 0.0, 0.0, 0.0, 1.6635895692348204E9, 0.0, 2022-09-19 17:12:49.234
153.0, -8723.639991717338, -23455.40654127676, -31842.9657033641, -13990.15802027679, -7854.939443461829, 187500.0, -42704.348886531465, -12381.480620083883, 0.61, -0.7020000000000001, 0.41000000000000003, 192.0, 0.0, 0.0, 0.0, 0.0, 0.0, 0.0, 0.0, 0.0, 0.0, 1.66358956923976E9, 0.0, 2022-09-19 17:12:49.239
154.0, -8713.849927645913, -23443.090730081884, -31851.10173834583, -13997.712909902682, -7848.770361992164, 187500.0, -42716.21766283723, -12386.934445730978, 0.61, -0.7020000000000001, 0.41000000000000003, 192.0, 0.0, 0.0, 0.0, 0.0, 0.0, 0.0, 0.0, 0.0, 0.0, 1.663589569243766E9, 0.0, 2022-09-19 17:12:49.243
155.0, -8732.513634266095, -23451.986724375096, -31846.653741199225, -13985.374746963353, -7855.051202184106, 187500.0, -42725.27011934163, -12385.235713152375, 0.61, -0.7020000000000001, 0.41000000000000003, 192.0, 0.0, 0.0, 0.0, 0.0, 0.0, 0.0, 0.0, 0.0, 0.0, 1.6635895692478511E9, 0.0, 2022-09-19 17:12:49.247
156.0, -8741.700201237227, -23460.011000634553, -31846.363168521308, -13983.944235318213, -7856.146437662415, 187500.0, -42728.01938390963, -12387.537942831272, 0.61, -0.7020000000000001, 0.41000000000000003, 192.0, 0.0, 0.0, 0.0, 0.0, 0.0, 0.0, 0.0, 0.0, 0.0, 1.663589569251818E9, 0.0, 2022-09-19 17:12:49.251
157.0, -8718.879070148358, -23451.204413319163, -31844.887953387257, -13990.806220865992, -7840.83549271053, 187500.0, -42717.80463669356, -12393.237637667375, 0.61, -0.7020000000000001, 0.41000000000000003, 192.0, 0.0, 0.0, 0.0, 0.0, 0.0, 0.0, 0.0, 0.0, 0.0, 1.6635895692568223E9, 0.0, 2022-09-19 17:12:49.256
158.0, -8679.204723740188, -23435.178212544706, -31840.596418451838, -13990.470944699162, -7824.40696053588, 187500.0, -42712.77549419111, -12385.16865791901, 0.61, -0.7020000000000001, 0.41000000000000003, 192.0, 0.0, 0.0, 0.0, 0.0, 0.0, 0.0, 0.0, 0.0, 0.0, 1.6635895692598507E9, 0.0, 2022-09-19 17:12:49.259
159.0, -8654.349583905887, -23435.24526777807, -31848.911267389212, -13999.836325625936, -7827.938536159818, 187500.0, -42732.06504965604, -12387.917922487011, 0.616, -0.7000000000000001, 0.41000000000000003, 192.0, 19.0, 64.0, 234.0, 32.0, 12.0, 208.0, 0.0, 0.0, 0.0, 1.6635895692628527E9, 0.0, 2022-09-19 17:12:49.262
160.0, -8658.1940839522, -23452.813738919944, -31857.427282026685, -13991.968511577668, -7831.961850161773, 187500.0, -42740.22343638223, -12383.536980573772, 0.616, -0.7000000000000001, 0.41000000000000003, 192.0, 0.0, 0.0, 0.0, 0.0, 0.0, 0.0, 0.0, 0.0, 0.0, 1.6635895692678692E9, 0.0, 2022-09-19 17:12:49.267
161.0, -8656.115371717855, -23460.36862854584, -31838.361244006308, -13975.875255569847, -7820.338943045014, 187500.0, -42709.62389822291, -12369.321271100196, 0.616, -0.7000000000000001, 0.41000000000000003, 192.0, 0.0, 0.0, 0.0, 0.0, 0.0, 0.0, 0.0, 0.0, 0.0, 1.6635895692718685E9, 0.0, 2022-09-19 17:12:49.271
162.0, -8620.46433931164, -23436.25109627856, -31816.411830951194, -13968.186255477221, -7796.713149155754, 187500.0, -42676.45390945124, -12364.180369875476, 0.616, -0.7000000000000001, 0.41000000000000003, 192.0, 0.0, 0.0, 0.0, 0.0, 0.0, 0.0, 0.0, 0.0, 0.0, 1.663589569275875E9, 0.0, 2022-09-19 17:12:49.275
163.0, -8579.426536491697, -23410.747755855056, -31839.88116262927, -13986.067651041467, -7794.947361343785, 187500.0, -42706.33819178798, -12383.78284976278, 0.616, -0.7000000000000001, 0.41000000000000003, 192.0, 0.0, 0.0, 0.0, 0.0, 0.0, 0.0, 0.0, 0.0, 0.0, 1.6635895692799475E9, 0.0, 2022-09-19 17:12:49.279
164.0, -8564.339108984364, -23407.037366275476, -31840.43995624065, -13982.513723673073, -7796.623742177933, 187500.0, -42708.461607511235, -12365.186198375965, 0.616, -0.7000000000000001, 0.41000000000000003, 192.0, 0.0, 0.0, 0.0, 0.0, 0.0, 0.0, 0.0, 0.0, 0.0, 1.6635895692849042E9, 0.0, 2022-09-19 17:12:49.284
165.0, -8583.315740026921, -23424.628189161802, -31839.545886462438, -13978.378650948842, -7807.151413816383, 187500.0, -42711.188520334785, -12365.812047220714, 0.616, -0.7000000000000001, 0.41000000000000003, 192.0, 0.0, 0.0, 0.0, 0.0, 0.0, 0.0, 0.0, 0.0, 0.0, 1.6635895692878585E9, 0.0, 2022-09-19 17:12:49.287
166.0, -8601.80063269146, -23445.057683593954, -31849.470061000597, -13982.491371928618, -7826.150396603393, 187500.0, -42721.62678499542, -12369.701250755938, 0.616, -0.7000000000000001, 0.41000000000000003, 192.0, 0.0, 0.0, 0.0, 0.0, 0.0, 0.0, 0.0, 0.0, 0.0, 1.6635895692928765E9, 0.0, 2022-09-19 17:12:49.292
167.0, -8585.662673194727, -23435.960523600643, -31850.833517412368, -13982.893703328813, -7831.939498417319, 187500.0, -42715.18948259229, -12378.060803182221, 0.616, -0.7000000000000001, 0.41000000000000003, 192.0, 0.0, 0.0, 0.0, 0.0, 0.0, 0.0, 0.0, 0.0, 0.0, 1.6635895692968948E9, 0.0, 2022-09-19 17:12:49.296
168.0, -8555.510169924519, -23419.24141874807, -31863.50695651853, -13990.403889465797, -7833.235899595726, 187500.0, -42730.85805545546, -12378.865465982613, 0.616, -0.7000000000000001, 0.41000000000000003, 192.0, 0.0, 0.0, 0.0, 0.0, 0.0, 0.0, 0.0, 0.0, 0.0, 1.6635895692998133E9, 0.0, 2022-09-19 17:12:49.299
169.0, -8533.091370235845, -23407.886732564777, -31857.606095982326, -13980.680880627739, -7825.12221635845, 187500.0, -42728.533474032105, -12359.888834940057, 0.616, -0.7000000000000001, 0.41000000000000003, 192.0, 0.0, 0.0, 0.0, 0.0, 0.0, 0.0, 0.0, 0.0, 0.0, 1.6635895693038805E9, 0.0, 2022-09-19 17:12:49.303
170.0, -8534.611288858807, -23404.91395055222, -31851.705235446127, -13967.158075232277, -7825.591602992011, 187500.0, -42724.97954666371, -12362.34752683014, 0.622, -0.71, 0.40800000000000003, 192.0, 19.0, 112.0, 233.0, 208.0, 12.0, 192.0, 0.0, 0.0, 0.0, 1.6635895693098533E9, 0.0, 2022-09-19 17:12:49.309
171.0, -8532.644335346738, -23397.00143301504, -31843.05511034192, -13957.457418138674, -7823.110559357472, 187500.0, -42722.81142745155, -12357.653660494527, 0.622, -0.71, 0.40800000000000003, 192.0, 0.0, 0.0, 0.0, 0.0, 0.0, 0.0, 0.0, 0.0, 0.0, 1.6635895693129196E9, 0.0, 2022-09-19 17:12:49.312
172.0, -8517.333390394853, -23384.015069486508, -31855.192107581155, -13976.434049181229, -7842.6012805225, 187500.0, -42721.827950695515, -12370.528265300783, 0.622, -0.71, 0.40800000000000003, 192.0, 0.0, 0.0, 0.0, 0.0, 0.0, 0.0, 0.0, 0.0, 0.0, 1.6635895693159463E9, 0.0, 2022-09-19 17:12:49.315
173.0, -8479.894218432215, -23355.494243561538, -31865.183337352675, -13982.603130650894, -7849.9103009593855, 187500.0, -42721.537378017594, -12366.907282699023, 0.622, -0.71, 0.40800000000000003, 192.0, 0.0, 0.0, 0.0, 0.0, 0.0, 0.0, 0.0, 0.0, 0.0, 1.663589569319907E9, 0.0, 2022-09-19 17:12:49.319
174.0, -8449.428790739632, -23332.650760728215, -31878.84025321487, -13996.125936046355, -7906.281400475669, 187500.0, -42739.17290439283, -12369.92476820049, 0.622, -0.71, 0.40800000000000003, 192.0, 0.0, 0.0, 0.0, 0.0, 0.0, 0.0, 0.0, 0.0, 0.0, 1.6635895693229296E9, 0.0, 2022-09-19 17:12:49.322
175.0, -8442.656212169673, -23323.173621079164, -31868.40198855424, -13990.605055165894, -8036.525015416743, 187500.0, -42737.74239274769, -12377.412602593018, 0.622, -0.71, 0.40800000000000003, 192.0, 0.0, 0.0, 0.0, 0.0, 0.0, 0.0, 0.0, 0.0, 0.0, 1.6635895693279412E9, 0.0, 2022-09-19 17:12:49.327
176.0, -8426.182976506112, -23303.794658636412, -31857.047302370946, -13975.741145103115, -8100.585115025654, 187500.0, -42724.77838096361, -12361.006422162822, 0.622, -0.71, 0.40800000000000003, 192.0, 0.0, 0.0, 0.0, 0.0, 0.0, 0.0, 0.0, 0.0, 0.0, 1.663589569331918E9, 0.0, 2022-09-19 17:12:49.331
177.0, -8399.60675234875, -23280.88412056972, -31846.005540610022, -13963.693554841704, -8128.591850828154, 187500.0, -42705.667639454325, -12328.10465432461, 0.622, -0.71, 0.40800000000000003, 192.0, 0.0, 0.0, 0.0, 0.0, 0.0, 0.0, 0.0, 0.0, 0.0, 1.6635895693359034E9, 0.0, 2022-09-19 17:12:49.335
178.0, -8361.027641418892, -23250.0387132214, -31860.10949136132, -13967.76157233257, -8149.870711549606, 187500.0, -42725.60539550846, -12318.202831530909, 0.622, -0.71, 0.40800000000000003, 192.0, 0.0, 0.0, 0.0, 0.0, 0.0, 0.0, 0.0, 0.0, 0.0, 1.6635895693399832E9, 0.0, 2022-09-19 17:12:49.339
179.0, -8332.059780604814, -23223.149564641662, -31868.916078676713, -13973.327156701942, -8174.345871728167, 187500.0, -42745.96783470724, -12324.0589885782, 0.622, -0.71, 0.40800000000000003, 192.0, 0.0, 0.0, 0.0, 0.0, 0.0, 0.0, 0.0, 0.0, 0.0, 1.6635895693440104E9, 0.0, 2022-09-19 17:12:49.344
180.0, -8340.084056864269, -23219.26036110644, -31876.873299702802, -13981.552598661496, -8205.05716860976, 187500.0, -42769.928904763336, -12350.769323202292, 0.626, -0.714, 0.418, 192.0, 19.0, 144.0, 233.0, 176.0, 13.0, 16.0, 0.0, 0.0, 0.0, 1.663589569346959E9, 0.0, 2022-09-19 17:12:49.346
181.0, -8329.869309648193, -23201.691889964568, -31884.249375373052, -13997.847020369414, -8223.810282207762, 187500.0, -42746.705442274266, -12374.216303135909, 0.626, -0.714, 0.418, 192.0, 0.0, 0.0, 0.0, 0.0, 0.0, 0.0, 0.0, 0.0, 0.0, 1.66358956935096E9, 0.0, 2022-09-19 17:12:49.350
182.0, -8280.963692779982, -23157.658953387614, -31857.606095982326, -13982.24550273961, -8210.935677401505, 187500.0, -42708.68512495579, -12359.44180005095, 0.626, -0.714, 0.418, 192.0, 0.0, 0.0, 0.0, 0.0, 0.0, 0.0, 0.0, 0.0, 0.0, 1.6635895693560321E9, 0.0, 2022-09-19 17:12:49.356
183.0, -8228.10181714318, -23117.157592434596, -31854.20863082512, -13970.443781667207, -8198.99984586237, 187500.0, -42713.982488391695, -12336.866538151091, 0.626, -0.714, 0.418, 192.0, 0.0, 0.0, 0.0, 0.0, 0.0, 0.0, 0.0, 0.0, 0.0, 1.6635895693599825E9, 0.0, 2022-09-19 17:12:49.359
184.0, -8182.839534621184, -23075.449237280995, -31867.239697842564, -13974.131819502332, -8209.48281401191, 187500.0, -42725.62774725291, -12342.63328822056, 0.626, -0.714, 0.418, 192.0, 0.0, 0.0, 0.0, 0.0, 0.0, 0.0, 0.0, 0.0, 0.0, 1.6635895693639858E9, 0.0, 2022-09-19 17:12:49.363
185.0, -8166.1204297686145, -23042.055731064767, -31878.88495670378, -13980.747935861104, -8225.48666304191, 187500.0, -42739.731698004216, -12354.591471504149, 0.626, -0.714, 0.418, 192.0, 0.0, 0.0, 0.0, 0.0, 0.0, 0.0, 0.0, 0.0, 0.0, 1.663589569367022E9, 0.0, 2022-09-19 17:12:49.367
186.0, -8155.056316263237, -23016.194762729974, -31893.41359059973, -13981.664357383772, -8241.53521556082, 187500.0, -42752.56159932156, -12356.089038382655, 0.626, -0.714, 0.418, 192.0, 0.0, 0.0, 0.0, 0.0, 0.0, 0.0, 0.0, 0.0, 0.0, 1.6635895693711343E9, 0.0, 2022-09-19 17:12:49.371
187.0, -8122.758045525318, -22974.128779665087, -31878.326163092395, -13958.887929783814, -8235.366134091155, 187500.0, -42731.97564267822, -12340.711038197403, 0.626, -0.714, 0.418, 192.0, 0.0, 0.0, 0.0, 0.0, 0.0, 0.0, 0.0, 0.0, 0.0, 1.6635895693750403E9, 0.0, 2022-09-19 17:12:49.375
188.0, -8064.285882030235, -22905.464220698384, -31868.379636809786, -13944.113426698856, -8221.061017639759, 187500.0, -42721.49267452868, -12334.005514860812, 0.626, -0.714, 0.418, 192.0, 0.0, 0.0, 0.0, 0.0, 0.0, 0.0, 0.0, 0.0, 0.0, 1.6635895693790526E9, 0.0, 2022-09-19 17:12:49.379
189.0, -8038.06728578416, -22849.65191479348, -31858.34370354935, -13938.011400462558, -8229.174700877036, 187500.0, -42726.27594784212, -12339.213471318899, 0.626, -0.714, 0.418, 192.0, 0.0, 0.0, 0.0, 0.0, 0.0, 0.0, 0.0, 0.0, 0.0, 1.6635895693840852E9, 0.0, 2022-09-19 17:12:49.384
190.0, -8063.078887829649, -22826.316693582143, -31862.568183251406, -13945.298069154987, -8253.649861055597, 187500.0, -42728.84639845448, -12368.047221666244, 0.624, -0.7000000000000001, 0.422, 192.0, 19.0, 128.0, 234.0, 32.0, 13.0, 48.0, 0.0, 0.0, 0.0, 1.6635895693880415E9, 0.0, 2022-09-19 17:12:49.388
191.0, -8082.010815383293, -22799.13697232449, -31871.330067077884, -13938.123159184834, -8257.047326212803, 187500.0, -42730.634538010905, -12373.92573045799, 0.624, -0.7000000000000001, 0.422, 192.0, 0.0, 0.0, 0.0, 0.0, 0.0, 0.0, 0.0, 0.0, 0.0, 1.663589569391071E9, 0.0, 2022-09-19 17:12:49.391
192.0, -8068.711527432386, -22752.108901990523, -31868.133767620777, -13936.960868473157, -8247.436076097021, 187500.0, -42724.71132573025, -12378.038451437766, 0.624, -0.7000000000000001, 0.422, 192.0, 0.0, 0.0, 0.0, 0.0, 0.0, 0.0, 0.0, 0.0, 0.0, 1.6635895693950093E9, 0.0, 2022-09-19 17:12:49.395
193.0, -8054.607576681087, -22717.35193936252, -31859.93067740568, -13920.509984554052, -8235.701410257985, 187500.0, -42719.436314038794, -12359.508855284317, 0.624, -0.7000000000000001, 0.422, 192.0, 0.0, 0.0, 0.0, 0.0, 0.0, 0.0, 0.0, 0.0, 0.0, 1.6635895694000907E9, 0.0, 2022-09-19 17:12:49.400
194.0, -8065.604634953098, -22709.081793914058, -31858.9695523941, -13913.692702495182, -8234.181491635025, 187500.0, -42721.93970941779, -12336.665372450992, 0.624, -0.7000000000000001, 0.422, 192.0, 0.0, 0.0, 0.0, 0.0, 0.0, 0.0, 0.0, 0.0, 0.0, 1.6635895694040518E9, 0.0, 2022-09-19 17:12:49.404
195.0, -8105.658961017009, -22717.374291106975, -31855.527383747984, -13918.565382786439, -8249.358326120178, 187500.0, -42724.64427049688, -12346.410733033506, 0.624, -0.7000000000000001, 0.422, 192.0, 0.0, 0.0, 0.0, 0.0, 0.0, 0.0, 0.0, 0.0, 0.0, 1.663589569408082E9, 0.0, 2022-09-19 17:12:49.408
196.0, -8135.163263698014, -22723.49866908773, -31857.87431691579, -13930.65767653676, -8259.058983213781, 187500.0, -42731.662718255844, -12365.879102454079, 0.624, -0.7000000000000001, 0.422, 192.0, 0.0, 0.0, 0.0, 0.0, 0.0, 0.0, 0.0, 0.0, 0.0, 1.6635895694111233E9, 0.0, 2022-09-19 17:12:49.411
197.0, -8135.252670675835, -22714.759137005705, -31864.557488507926, -13938.592545818396, -8255.30389014529, 187500.0, -42731.662718255844, -12374.417468836007, 0.624, -0.7000000000000001, 0.422, 192.0, 0.0, 0.0, 0.0, 0.0, 0.0, 0.0, 0.0, 0.0, 0.0, 1.6635895694151132E9, 0.0, 2022-09-19 17:12:49.415
198.0, -8110.755158752819, -22688.24996808171, -31847.77132842199, -13933.250478893577, -8236.640183525107, 187500.0, -42716.7317529597, -12360.313518084708, 0.624, -0.7000000000000001, 0.422, 192.0, 0.0, 0.0, 0.0, 0.0, 0.0, 0.0, 0.0, 0.0, 0.0, 1.6635895694190779E9, 0.0, 2022-09-19 17:12:49.419
199.0, -8114.063216932204, -22687.132380858944, -31862.07644487339, -13949.85782502387, -8240.797607993794, 187500.0, -42739.53053230412, -12378.910169471523, 0.624, -0.7000000000000001, 0.422, 192.0, 0.0, 0.0, 0.0, 0.0, 0.0, 0.0, 0.0, 0.0, 0.0, 1.6635895694231048E9, 0.0, 2022-09-19 17:12:49.423
200.0, -8146.428542903489, -22708.97003519178, -31856.68967445966, -13947.130912200322, -8240.462331826966, 187500.0, -42737.27300611413, -12382.799373006746, 0.622, -0.6920000000000001, 0.41600000000000004, 192.0, 19.0, 112.0, 234.0, 96.0, 13.0, 0.0, 0.0, 0.0, 0.0, 1.663589569428126E9, 0.0, 2022-09-19 17:12:49.428
201.0, -8170.031985048293, -22722.135212675956, -31835.701386416127, -13928.243688135588, -8222.022142651336, 187500.0, -42715.8823866704, -12365.476771053884, 0.622, -0.6920000000000001, 0.41600000000000004, 192.0, 0.0, 0.0, 0.0, 0.0, 0.0, 0.0, 0.0, 0.0, 0.0, 1.6635895694321065E9, 0.0, 2022-09-19 17:12:49.432
202.0, -8175.128182784103, -22724.459794099308, -31856.667322715202, -13944.560461587962, -8226.716008986952, 187500.0, -42733.87554095692, -12389.415489365518, 0.622, -0.6920000000000001, 0.41600000000000004, 192.0, 0.0, 0.0, 0.0, 0.0, 0.0, 0.0, 0.0, 0.0, 0.0, 1.663589569436132E9, 0.0, 2022-09-19 17:12:49.436
203.0, -8167.081554780192, -22723.20809640981, -31885.858700973837, -13961.726601329638, -8236.416666080555, 187500.0, -42772.65581758688, -12393.63996906757, 0.622, -0.6920000000000001, 0.41600000000000004, 192.0, 0.0, 0.0, 0.0, 0.0, 0.0, 0.0, 0.0, 0.0, 0.0, 1.6635895694391365E9, 0.0, 2022-09-19 17:12:49.439
204.0, -8171.484848437888, -22732.953456992323, -31873.78875896797, -13950.774246546538, -8241.065828927258, 187500.0, -42751.19814290979, -12383.40287010704, 0.622, -0.6920000000000001, 0.41600000000000004, 192.0, 0.0, 0.0, 0.0, 0.0, 0.0, 0.0, 0.0, 0.0, 0.0, 1.663589569443198E9, 0.0, 2022-09-19 17:12:49.443
205.0, -8217.685904227008, -22772.828969100592, -31847.570162721895, -13939.196042918687, -8253.225177910947, 187500.0, -42713.133122102394, -12383.894608485058, 0.622, -0.6920000000000001, 0.41600000000000004, 192.0, 0.0, 0.0, 0.0, 0.0, 0.0, 0.0, 0.0, 0.0, 0.0, 1.6635895694471688E9, 0.0, 2022-09-19 17:12:49.447
206.0, -8239.948241704493, -22786.99997508526, -31828.05708981241, -13914.832641462404, -8230.269936355346, 187500.0, -42688.769720646116, -12353.183311603465, 0.622, -0.6920000000000001, 0.41600000000000004, 192.0, 0.0, 0.0, 0.0, 0.0, 0.0, 0.0, 0.0, 0.0, 0.0, 1.663589569451157E9, 0.0, 2022-09-19 17:12:49.451
207.0, -8238.338916103712, -22758.501500904742, -31843.815069653403, -13924.108615411356, -8213.729645458418, 187500.0, -42698.671543439814, -12354.278547081774, 0.622, -0.6920000000000001, 0.41600000000000004, 192.0, 0.0, 0.0, 0.0, 0.0, 0.0, 0.0, 0.0, 0.0, 0.0, 1.6635895694551575E9, 0.0, 2022-09-19 17:12:49.455
208.0, -8220.47987228392, -22700.342261832033, -31863.46225302962, -13934.099845182878, -8213.640238480597, 187500.0, -42714.78715119209, -12367.980166432879, 0.622, -0.6920000000000001, 0.41600000000000004, 192.0, 0.0, 0.0, 0.0, 0.0, 0.0, 0.0, 0.0, 0.0, 0.0, 1.66358956946016E9, 0.0, 2022-09-19 17:12:49.460
209.0, -8220.546927517287, -22658.00805783368, -31867.887898431767, -13931.685856781705, -8221.10572112867, 187500.0, -42730.209854866254, -12368.82953272218, 0.622, -0.6920000000000001, 0.41600000000000004, 192.0, 0.0, 0.0, 0.0, 0.0, 0.0, 0.0, 0.0, 0.0, 0.0, 1.6635895694632711E9, 0.0, 2022-09-19 17:12:49.463
210.0, -8270.950111264005, -22655.19173803231, -31876.314506091418, -13948.33790640091, -8241.401105094088, 187500.0, -42746.16900040734, -12405.732262817892, 0.612, -0.6980000000000001, 0.41400000000000003, 192.0, 19.0, 32.0, 234.0, 48.0, 12.0, 240.0, 0.0, 0.0, 0.0, 1.6635895694672341E9, 0.0, 2022-09-19 17:12:49.467
211.0, -8312.770225139884, -22648.463862951263, -31861.919982662203, -13943.018191220546, -8236.148445147091, 187500.0, -42728.35466007646, -12402.334797660686, 0.612, -0.6980000000000001, 0.41400000000000003, 192.0, 0.0, 0.0, 0.0, 0.0, 0.0, 0.0, 0.0, 0.0, 0.0, 1.6635895694712064E9, 0.0, 2022-09-19 17:12:49.471
212.0, -8327.500024735931, -22622.491135894197, -31867.194994353653, -13926.924935212724, -8229.398218321589, 187500.0, -42726.94650017578, -12387.0238527088, 0.612, -0.6980000000000001, 0.41400000000000003, 192.0, 0.0, 0.0, 0.0, 0.0, 0.0, 0.0, 0.0, 0.0, 0.0, 1.6635895694752655E9, 0.0, 2022-09-19 17:12:49.475
213.0, -8308.948076838025, -22574.189016126278, -31862.88110767378, -13914.318551339931, -8211.96385764645, 187500.0, -42717.335250059994, -12371.44468682345, 0.612, -0.6980000000000001, 0.41400000000000003, 192.0, 0.0, 0.0, 0.0, 0.0, 0.0, 0.0, 0.0, 0.0, 0.0, 1.6635895694791963E9, 0.0, 2022-09-19 17:12:49.479
214.0, -8309.640980916141, -22544.550602978543, -31859.93067740568, -13915.972580429625, -8213.640238480597, 187500.0, -42722.40909605135, -12371.623500779093, 0.612, -0.6980000000000001, 0.41400000000000003, 192.0, 0.0, 0.0, 0.0, 0.0, 0.0, 0.0, 0.0, 0.0, 0.0, 1.6635895694832444E9, 0.0, 2022-09-19 17:12:49.483
215.0, -8357.920748939605, -22563.57193751001, -31856.466157015107, -13914.832641462404, -8219.205822849968, 187500.0, -42721.91735767333, -12367.220207121398, 0.612, -0.6980000000000001, 0.41400000000000003, 192.0, 0.0, 0.0, 0.0, 0.0, 0.0, 0.0, 0.0, 0.0, 0.0, 1.6635895694894907E9, 0.0, 2022-09-19 17:12:49.489
216.0, -8387.849734765261, -22582.883844719392, -31851.72758719058, -13916.330208340909, -8202.352607530667, 187500.0, -42720.68801172829, -12369.813009478214, 0.612, -0.6980000000000001, 0.41400000000000003, 192.0, 0.0, 0.0, 0.0, 0.0, 0.0, 0.0, 0.0, 0.0, 0.0, 1.6635895694912949E9, 0.0, 2022-09-19 17:12:49.491
217.0, -8386.978016731504, -22580.671022018316, -31851.72758719058, -13916.687836252195, -8186.751089900862, 187500.0, -42717.558767504546, -12368.337794344163, 0.612, -0.6980000000000001, 0.41400000000000003, 192.0, 0.0, 0.0, 0.0, 0.0, 0.0, 0.0, 0.0, 0.0, 0.0, 1.663589569495412E9, 0.0, 2022-09-19 17:12:49.495
218.0, -8374.908074725638, -22561.381466553386, -31862.38936929576, -13931.104711425867, -8184.918246855527, 187500.0, -42721.805598951054, -12367.376669332585, 0.612, -0.6980000000000001, 0.41400000000000003, 192.0, 0.0, 0.0, 0.0, 0.0, 0.0, 0.0, 0.0, 0.0, 0.0, 1.6635895694992762E9, 0.0, 2022-09-19 17:12:49.499
219.0, -8386.441574864575, -22539.02972209808, -31859.461290772117, -13930.635324792305, -8184.471211966421, 187500.0, -42730.09809614398, -12358.525378528284, 0.612, -0.6980000000000001, 0.41400000000000003, 192.0, 0.0, 0.0, 0.0, 0.0, 0.0, 0.0, 0.0, 0.0, 0.0, 1.6635895695032203E9, 0.0, 2022-09-19 17:12:49.503
220.0, -8430.273345741432, -22524.724605646683, -31849.69357844515, -13929.316571869442, -8187.555752701253, 187500.0, -42728.175846120816, -12371.712907756915, 0.61, -0.7020000000000001, 0.426, 192.0, 19.0, 16.0, 234.0, 16.0, 13.0, 80.0, 0.0, 0.0, 0.0, 1.6635895695073426E9, 0.0, 2022-09-19 17:12:49.507
221.0, -8455.352003020287, -22501.12116350188, -31863.46225302962, -13936.335019628408, -8189.589761446687, 187500.0, -42733.87554095692, -12371.221169378898, 0.61, -0.7020000000000001, 0.426, 192.0, 0.0, 0.0, 0.0, 0.0, 0.0, 0.0, 0.0, 0.0, 0.0, 1.6635895695113273E9, 0.0, 2022-09-19 17:12:49.511
222.0, -8453.519159974952, -22475.662526567285, -31854.45450001413, -13948.85199652338, -8178.659758408041, 187500.0, -42725.583043764, -12357.139570372054, 0.61, -0.7020000000000001, 0.426, 192.0, 0.0, 0.0, 0.0, 0.0, 0.0, 0.0, 0.0, 0.0, 0.0, 1.6635895695162797E9, 0.0, 2022-09-19 17:12:49.516
223.0, -8430.496863185987, -22442.470186051152, -31842.563371963905, -13952.42827563623, -8151.949423783949, 187500.0, -42697.95628761724, -12337.425331762473, 0.61, -0.7020000000000001, 0.426, 192.0, 0.0, 0.0, 0.0, 0.0, 0.0, 0.0, 0.0, 0.0, 0.0, 1.6635895695193083E9, 0.0, 2022-09-19 17:12:49.519
224.0, -8431.078008541825, -22436.144642370302, -31853.918058147203, -13966.465171154163, -8164.913435568027, 187500.0, -42714.36246804744, -12355.418486048995, 0.61, -0.7020000000000001, 0.426, 192.0, 0.0, 0.0, 0.0, 0.0, 0.0, 0.0, 0.0, 0.0, 0.0, 1.6635895695234053E9, 0.0, 2022-09-19 17:12:49.523
225.0, -8474.127468362745, -22462.2514798941, -31851.615828468304, -13968.096848499401, -8177.206895018447, 187500.0, -42721.93970941779, -12357.251329094332, 0.61, -0.7020000000000001, 0.426, 192.0, 0.0, 0.0, 0.0, 0.0, 0.0, 0.0, 0.0, 0.0, 0.0, 1.6635895695273416E9, 0.0, 2022-09-19 17:12:49.527
226.0, -8508.68326529065, -22484.78203830505, -31854.722720947593, -13971.270796212053, -8171.842476349173, 187500.0, -42722.230282095705, -12357.072515138689, 0.61, -0.7020000000000001, 0.426, 192.0, 0.0, 0.0, 0.0, 0.0, 0.0, 0.0, 0.0, 0.0, 0.0, 1.6635895695313568E9, 0.0, 2022-09-19 17:12:49.531
227.0, -8514.405311871209, -22490.34762267442, -31861.383540795272, -13969.214435722166, -8166.343947213167, 187500.0, -42725.42658155282, -12358.30186108373, 0.61, -0.7020000000000001, 0.426, 192.0, 0.0, 0.0, 0.0, 0.0, 0.0, 0.0, 0.0, 0.0, 0.0, 1.6635895695353563E9, 0.0, 2022-09-19 17:12:49.535
228.0, -8499.004959941502, -22484.938500516237, -31876.82859621389, -13977.238711981621, -8169.47319143691, 187500.0, -42741.69865151628, -12357.653660494527, 0.61, -0.7020000000000001, 0.426, 192.0, 0.0, 0.0, 0.0, 0.0, 0.0, 0.0, 0.0, 0.0, 0.0, 1.6635895695393968E9, 0.0, 2022-09-19 17:12:49.539
229.0, -8487.762032480483, -22480.49050336963, -31869.564279265916, -13961.212511207166, -8165.628691390597, 187500.0, -42756.629616812425, -12344.15320684352, 0.61, -0.7020000000000001, 0.426, 192.0, 0.0, 0.0, 0.0, 0.0, 0.0, 0.0, 0.0, 0.0, 0.0, 1.663589569544415E9, 0.0, 2022-09-19 17:12:49.544
230.0, -8503.408253599198, -22490.012346507592, -31848.39717726674, -13944.605165076873, -8154.229301718391, 187500.0, -42727.326479831514, -12343.907337654513, 0.612, -0.706, 0.426, 192.0, 19.0, 32.0, 233.0, 240.0, 13.0, 80.0, 0.0, 0.0, 0.0, 1.6635895695472894E9, 0.0, 2022-09-19 17:12:49.547
231.0, -8517.892184006236, -22495.443820410233, -31837.9142091172, -13950.930708757724, -8149.848359805151, 187500.0, -42694.491767226675, -12357.184273860965, 0.612, -0.706, 0.426, 192.0, 0.0, 0.0, 0.0, 0.0, 0.0, 0.0, 0.0, 0.0, 0.0, 1.6635895695513427E9, 0.0, 2022-09-19 17:12:49.551
232.0, -8522.317829408388, -22495.06384075449, -31837.623636439283, -13953.814083792458, -8147.2779091927905, 187500.0, -42699.14093007337, -12354.524416270784, 0.612, -0.706, 0.426, 192.0, 0.0, 0.0, 0.0, 0.0, 0.0, 0.0, 0.0, 0.0, 0.0, 1.6635895695553846E9, 0.0, 2022-09-19 17:12:49.555
233.0, -8521.513166607996, -22496.717869844186, -31850.25237205653, -13950.886005268814, -8142.561691112721, 187500.0, -42716.75410470416, -12336.464206750896, 0.612, -0.706, 0.426, 192.0, 0.0, 0.0, 0.0, 0.0, 0.0, 0.0, 0.0, 0.0, 0.0, 1.6635895695593045E9, 0.0, 2022-09-19 17:12:49.559
234.0, -8519.859137518304, -22498.662471611795, -31858.947200649643, -13959.759647817571, -8147.546130126254, 187500.0, -42724.35369781896, -12336.508910239805, 0.612, -0.706, 0.426, 192.0, 0.0, 0.0, 0.0, 0.0, 0.0, 0.0, 0.0, 0.0, 0.0, 1.663589569563336E9, 0.0, 2022-09-19 17:12:49.563
235.0, -8542.680268607171, -22519.293131744045, -31845.044415598444, -13960.027868751034, -8156.308013952735, 187500.0, -42700.012648107135, -12347.573023745183, 0.612, -0.706, 0.426, 192.0, 0.0, 0.0, 0.0, 0.0, 0.0, 0.0, 0.0, 0.0, 0.0, 1.6635895695673983E9, 0.0, 2022-09-19 17:12:49.567
236.0, -8550.995117544546, -22526.37863473638, -31848.68774994466, -13961.547787373995, -8152.351755184145, 187500.0, -42701.130235329896, -12349.91995691299, 0.612, -0.706, 0.426, 192.0, 0.0, 0.0, 0.0, 0.0, 0.0, 0.0, 0.0, 0.0, 0.0, 1.6635895695714145E9, 0.0, 2022-09-19 17:12:49.571
237.0, -8535.728876081572, -22513.79460260804, -31864.959819908123, -13973.215397979666, -8149.401324916044, 187500.0, -42718.45283728276, -12358.123047128087, 0.612, -0.706, 0.426, 192.0, 0.0, 0.0, 0.0, 0.0, 0.0, 0.0, 0.0, 0.0, 0.0, 1.6635895695743353E9, 0.0, 2022-09-19 17:12:49.574
238.0, -8503.497660577019, -22490.41467790779, -31867.59732575385, -13971.226092723144, -8145.333307425179, 187500.0, -42716.30706981505, -12342.074494609178, 0.612, -0.706, 0.426, 192.0, 0.0, 0.0, 0.0, 0.0, 0.0, 0.0, 0.0, 0.0, 0.0, 1.6635895695793169E9, 0.0, 2022-09-19 17:12:49.579
239.0, -8497.06035817389, -22488.335965673443, -31855.952066892634, -13956.228072193631, -8147.4567231484325, 187500.0, -42700.75025567416, -12322.002628088312, 0.612, -0.706, 0.426, 192.0, 0.0, 0.0, 0.0, 0.0, 0.0, 0.0, 0.0, 0.0, 0.0, 1.663589569583338E9, 0.0, 2022-09-19 17:12:49.583
240.0, -8522.317829408388, -22506.373823448877, -31859.77421519449, -13957.166845460755, -8153.2681767068125, 187500.0, -42716.64234598188, -12330.540994470239, 0.606, -0.7000000000000001, 0.428, 192.0, 18.0, 240.0, 234.0, 32.0, 13.0, 96.0, 0.0, 0.0, 0.0, 1.6635895695873532E9, 0.0, 2022-09-19 17:12:49.587
241.0, -8541.897957551237, -22518.242599754645, -31865.67507573069, -13967.694517099204, -8154.653984863042, 187500.0, -42721.1350466174, -12348.35533480112, 0.606, -0.7000000000000001, 0.428, 192.0, 0.0, 0.0, 0.0, 0.0, 0.0, 0.0, 0.0, 0.0, 0.0, 1.6635895695913723E9, 0.0, 2022-09-19 17:12:49.591
242.0, -8527.816358544393, -22505.859733326404, -31851.571124979393, -13959.826703050936, -8144.1710167135025, 187500.0, -42700.21381380723, -12343.39324753204, 0.606, -0.7000000000000001, 0.428, 192.0, 0.0, 0.0, 0.0, 0.0, 0.0, 0.0, 0.0, 0.0, 0.0, 1.6635895695954585E9, 0.0, 2022-09-19 17:12:49.595
243.0, -8501.977741954059, -22490.59349186343, -31850.431186012174, -13957.770342561049, -8134.291545664257, 187500.0, -42699.31974402902, -12336.955945128911, 0.606, -0.7000000000000001, 0.428, 192.0, 0.0, 0.0, 0.0, 0.0, 0.0, 0.0, 0.0, 0.0, 0.0, 1.6635895695993893E9, 0.0, 2022-09-19 17:12:49.599
244.0, -8493.327616849854, -22491.711079086195, -31856.801433181936, -13961.950118774192, -8131.296411907246, 187500.0, -42709.75800868965, -12343.505006254318, 0.606, -0.7000000000000001, 0.428, 192.0, 0.0, 0.0, 0.0, 0.0, 0.0, 0.0, 0.0, 0.0, 0.0, 1.6635895696023843E9, 0.0, 2022-09-19 17:12:49.602
245.0, -8507.878602490258, -22508.139611260845, -31844.463270242606, -13965.973432776145, -8127.921298494494, 187500.0, -42711.14381684588, -12354.613823248605, 0.606, -0.7000000000000001, 0.428, 192.0, 0.0, 0.0, 0.0, 0.0, 0.0, 0.0, 0.0, 0.0, 0.0, 1.663589569606387E9, 0.0, 2022-09-19 17:12:49.606
246.0, -8522.988381742047, -22525.998655080635, -31850.408834267717, -13968.074496754945, -8131.721095051897, 187500.0, -42718.13991286039, -12369.142457144555, 0.606, -0.7000000000000001, 0.428, 192.0, 0.0, 0.0, 0.0, 0.0, 0.0, 0.0, 0.0, 0.0, 0.0, 1.663589569611414E9, 0.0, 2022-09-19 17:12:49.611
247.0, -8515.835823516349, -22530.044320827048, -31834.896723615733, -13958.820874550447, -8126.647249060542, 187500.0, -42688.85912762393, -12362.682802996971, 0.606, -0.7000000000000001, 0.428, 192.0, 0.0, 0.0, 0.0, 0.0, 0.0, 0.0, 0.0, 0.0, 0.0, 1.6635895696154027E9, 0.0, 2022-09-19 17:12:49.615
248.0, -8504.414082099687, -22536.503974974632, -31837.57893295037, -13933.876327738326, -8115.1137489216035, 187500.0, -42691.206060791745, -12309.843279104625, 0.606, -0.7000000000000001, 0.428, 192.0, 0.0, 0.0, 0.0, 0.0, 0.0, 0.0, 0.0, 0.0, 0.0, 1.6635895696213846E9, 0.0, 2022-09-19 17:12:49.621
249.0, -8513.377131626265, -22559.302754319044, -31854.521555247495, -13946.683877311216, -8122.109844936114, 187500.0, -42714.31776455853, -12318.87338386457, 0.606, -0.7000000000000001, 0.428, 192.0, 0.0, 0.0, 0.0, 0.0, 0.0, 0.0, 0.0, 0.0, 0.0, 1.6635895696244004E9, 0.0, 2022-09-19 17:12:49.624
250.0, -8536.064152248402, -22586.057792432046, -31854.298037802942, -13950.215452935154, -8129.150644439536, 187500.0, -42718.6316512384, -12338.699381196426, 0.614, -0.7020000000000001, 0.424, 192.0, 19.0, 48.0, 234.0, 16.0, 13.0, 64.0, 0.0, 0.0, 0.0, 1.6635895696275232E9, 0.0, 2022-09-19 17:12:49.627
251.0, -8536.93587028216, -22595.087897191992, -31857.628447726784, -13952.383572147319, -8129.441217117455, 187500.0, -42728.399363565375, -12342.946212642933, 0.614, -0.7020000000000001, 0.424, 192.0, 0.0, 0.0, 0.0, 0.0, 0.0, 0.0, 0.0, 0.0, 0.0, 1.663589569631501E9, 0.0, 2022-09-19 17:12:49.631
252.0, -8522.384884641753, -22595.1326006809, -31855.549735492437, -13952.227109936131, -8119.002952456827, 187500.0, -42726.857093197956, -12343.795578932237, 0.614, -0.7020000000000001, 0.424, 192.0, 0.0, 0.0, 0.0, 0.0, 0.0, 0.0, 0.0, 0.0, 0.0, 1.663589569634421E9, 0.0, 2022-09-19 17:12:49.634
253.0, -8504.101157677313, -22591.08693493449, -31839.992921351546, -13948.650830823282, -8111.582173297665, 187500.0, -42692.88244162589, -12339.369933530084, 0.614, -0.7020000000000001, 0.424, 192.0, 0.0, 0.0, 0.0, 0.0, 0.0, 0.0, 0.0, 0.0, 0.0, 1.663589569639465E9, 0.0, 2022-09-19 17:12:49.639
254.0, -8507.11864317878, -22599.71470829424, -31839.88116262927, -13958.485598383619, -8122.489824591855, 187500.0, -42693.30712477054, -12359.553558773227, 0.614, -0.7020000000000001, 0.424, 192.0, 0.0, 0.0, 0.0, 0.0, 0.0, 0.0, 0.0, 0.0, 0.0, 1.663589569643463E9, 0.0, 2022-09-19 17:12:49.643
255.0, -8544.669573863695, -22632.90704881037, -31848.553639477926, -13967.314537443464, -8141.488807378866, 187500.0, -42712.84254942448, -12386.68857654197, 0.614, -0.7020000000000001, 0.424, 192.0, 0.0, 0.0, 0.0, 0.0, 0.0, 0.0, 0.0, 0.0, 0.0, 1.6635895696474884E9, 0.0, 2022-09-19 17:12:49.647
0.0, -8588.099013340356, -22673.319002785567, -31858.097834360342, -13968.454476410685, -8147.56848187071, 187500.0, -42723.437276296296, -12374.238654880364, 0.614, -0.7020000000000001, 0.424, 192.0, 0.0, 0.0, 0.0, 0.0, 0.0, 0.0, 0.0, 0.0, 0.0, 1.6635895696514788E9, 0.0, 2022-09-19 17:12:49.651
1.0, -8592.658769209238, -22674.123665585957, -31856.533212248472, -13963.045354252501, -8136.571423598698, 187500.0, -42716.35177330396, -12357.072515138689, 0.614, -0.7020000000000001, 0.424, 192.0, 0.0, 0.0, 0.0, 0.0, 0.0, 0.0, 0.0, 0.0, 0.0, 1.6635895696554725E9, 0.0, 2022-09-19 17:12:49.655
2.0, -8569.41295497572, -22650.2967059966, -31852.15227033523, -13959.960813517668, -8129.687086306463, 187500.0, -42701.823139408014, -12353.809160448214, 0.614, -0.7020000000000001, 0.424, 192.0, 0.0, 0.0, 0.0, 0.0, 0.0, 0.0, 0.0, 0.0, 0.0, 1.6635895696584537E9, 0.0, 2022-09-19 17:12:49.658
3.0, -8562.573321172396, -22639.724330869238, -31843.90447663122, -13958.127970472333, -8125.730827537875, 187500.0, -42697.95628761724, -12354.658526737516, 0.614, -0.7020000000000001, 0.424, 192.0, 0.0, 0.0, 0.0, 0.0, 0.0, 0.0, 0.0, 0.0, 0.0, 1.663589569662457E9, 0.0, 2022-09-19 17:12:49.662
4.0, -8602.381778047298, -22657.53867120012, -31845.804374909923, -13954.842264037403, -8129.709438050919, 187500.0, -42710.137988345385, -12358.190102361454, 0.618, -0.7020000000000001, 0.426, 192.0, 19.0, 80.0, 234.0, 16.0, 13.0, 80.0, 0.0, 0.0, 0.0, 1.6635895696675353E9, 0.0, 2022-09-19 17:12:49.667
5.0, -8633.562461562451, -22662.456054980285, -31844.10564233132, -13946.974449989135, -8131.721095051897, 187500.0, -42701.30904928554, -12356.692535482947, 0.618, -0.7020000000000001, 0.426, 192.0, 0.0, 0.0, 0.0, 0.0, 0.0, 0.0, 0.0, 0.0, 0.0, 1.6635895696715221E9, 0.0, 2022-09-19 17:12:49.671
6.0, -8645.006554723568, -22653.58241243153, -31850.49824124554, -13958.597357105895, -8134.358600897623, 187500.0, -42700.16911031832, -12354.971451159889, 0.618, -0.7020000000000001, 0.426, 192.0, 0.0, 0.0, 0.0, 0.0, 0.0, 0.0, 0.0, 0.0, 0.0, 1.66358956967553E9, 0.0, 2022-09-19 17:12:49.675
7.0, -8631.394342350286, -22627.564981885553, -31857.203764582133, -13961.033697251523, -8126.066103704704, 187500.0, -42703.20894756424, -12343.795578932237, 0.618, -0.7020000000000001, 0.426, 192.0, 0.0, 0.0, 0.0, 0.0, 0.0, 0.0, 0.0, 0.0, 0.0, 1.6635895696794887E9, 0.0, 2022-09-19 17:12:49.679
8.0, -8642.90549074477, -22624.48044115072, -31867.59732575385, -13967.470999654652, -8138.068990477203, 187500.0, -42714.22835758071, -12359.128875628576, 0.618, -0.7020000000000001, 0.426, 192.0, 0.0, 0.0, 0.0, 0.0, 0.0, 0.0, 0.0, 0.0, 0.0, 1.6635895696825573E9, 0.0, 2022-09-19 17:12:49.682
9.0, -8686.267874988065, -22638.58439190202, -31869.921907177202, -13967.783924077026, -8148.70842083793, 187500.0, -42724.331346074505, -12383.469925340405, 0.618, -0.7020000000000001, 0.426, 192.0, 0.0, 0.0, 0.0, 0.0, 0.0, 0.0, 0.0, 0.0, 0.0, 1.6635895696885407E9, 0.0, 2022-09-19 17:12:49.688
10.0, -8719.951953882213, -22644.306438482578, -31878.393218325764, -13977.931616059735, -8155.771572085807, 187500.0, -42729.96398567724, -12405.352283162152, 0.618, -0.7020000000000001, 0.426, 192.0, 0.0, 0.0, 0.0, 0.0, 0.0, 0.0, 0.0, 0.0, 0.0, 1.6635895696915777E9, 0.0, 2022-09-19 17:12:49.691
11.0, -8721.62833471636, -22626.71561559625, -31872.604116511837, -13979.652700382794, -8147.188502214969, 187500.0, -42719.860997183445, -12412.54954487676, 0.618, -0.7020000000000001, 0.426, 192.0, 0.0, 0.0, 0.0, 0.0, 0.0, 0.0, 0.0, 0.0, 0.0, 1.6635895696955523E9, 0.0, 2022-09-19 17:12:49.695
12.0, -8708.038474087534, -22599.647653060874, -31866.032703641977, -13965.414639164763, -8139.052467233238, 187500.0, -42706.47230225472, -12389.236675409875, 0.618, -0.7020000000000001, 0.426, 192.0, 0.0, 0.0, 0.0, 0.0, 0.0, 0.0, 0.0, 0.0, 0.0, 1.663589569699524E9, 0.0, 2022-09-19 17:12:49.699
13.0, -8717.426206758762, -22590.774010512116, -31871.821805455904, -13964.900549042291, -8153.290528451268, 187500.0, -42717.80463669356, -12369.991823433857, 0.618, -0.7020000000000001, 0.426, 192.0, 0.0, 0.0, 0.0, 0.0, 0.0, 0.0, 0.0, 0.0, 0.0, 1.6635895697035284E9, 0.0, 2022-09-19 17:12:49.703
14.0, -8753.770143243091, -22601.435792617296, -31863.73047396308, -13948.248499423087, -8157.693822108963, 187500.0, -42715.033020381095, -12369.164808889009, 0.618, -0.7020000000000001, 0.426, 192.0, 0.0, 0.0, 0.0, 0.0, 0.0, 0.0, 0.0, 0.0, 0.0, 1.663589569707532E9, 0.0, 2022-09-19 17:12:49.707
15.0, -8786.426041892295, -22609.32595841002, -31875.085160146376, -13963.224168208144, -8161.046583777259, 187500.0, -42715.390648292385, -12387.716756786915, 0.61, -0.6960000000000001, 0.426, 192.0, 19.0, 16.0, 234.0, 64.0, 13.0, 80.0, 0.0, 0.0, 0.0, 1.663589569710601E9, 0.0, 2022-09-19 17:12:49.710
16.0, -8788.638864593371, -22595.60198731446, -31889.032648686487, -13976.322290458953, -8166.4110024465335, 187500.0, -42723.146703618375, -12398.110317958632, 0.61, -0.6960000000000001, 0.426, 192.0, 0.0, 0.0, 0.0, 0.0, 0.0, 0.0, 0.0, 0.0, 0.0, 1.6635895697146356E9, 0.0, 2022-09-19 17:12:49.714
17.0, -8773.171457430299, -22576.51359754963, -31900.74496278107, -13985.084174285434, -8171.1719240155135, 187500.0, -42729.874578699426, -12401.239562182374, 0.61, -0.6960000000000001, 0.426, 192.0, 0.0, 0.0, 0.0, 0.0, 0.0, 0.0, 0.0, 0.0, 0.0, 1.663589569718583E9, 0.0, 2022-09-19 17:12:49.718
18.0, -8780.92751275629, -22577.586481283484, -31900.90142499226, -13986.917017330768, -8179.3303107417005, 187500.0, -42738.32353810353, -12416.192879222976, 0.61, -0.6960000000000001, 0.426, 192.0, 0.0, 0.0, 0.0, 0.0, 0.0, 0.0, 0.0, 0.0, 0.0, 1.6635895697226272E9, 0.0, 2022-09-19 17:12:49.722
19.0, -8819.640734152881, -22594.305586136055, -31874.92869793519, -13967.381592676831, -8179.263255508335, 187500.0, -42721.62678499542, -12420.84204206968, 0.61, -0.6960000000000001, 0.426, 192.0, 0.0, 0.0, 0.0, 0.0, 0.0, 0.0, 0.0, 0.0, 0.0, 1.6635895697276735E9, 0.0, 2022-09-19 17:12:49.727
20.0, -8858.42101078284, -22614.936246268302, -31874.459311301627, -13962.374801918842, -8180.783174131296, 187500.0, -42720.30803207255, -12415.567030378226, 0.61, -0.6960000000000001, 0.426, 192.0, 0.0, 0.0, 0.0, 0.0, 0.0, 0.0, 0.0, 0.0, 0.0, 1.6635895697316043E9, 0.0, 2022-09-19 17:12:49.731
21.0, -8882.113859905465, -22623.832240561514, -31890.865491731824, -13971.941348545713, -8184.292398010779, 187500.0, -42732.109753144956, -12415.74584433387, 0.61, -0.6960000000000001, 0.426, 192.0, 0.0, 0.0, 0.0, 0.0, 0.0, 0.0, 0.0, 0.0, 0.0, 1.6635895697347264E9, 0.0, 2022-09-19 17:12:49.734
22.0, -8880.392775582406, -22614.37745265692, -31898.085105190887, -13984.011290551578, -8181.006691575849, 187500.0, -42739.12820090392, -12430.587402652192, 0.61, -0.6960000000000001, 0.426, 192.0, 0.0, 0.0, 0.0, 0.0, 0.0, 0.0, 0.0, 0.0, 0.0, 1.6635895697386172E9, 0.0, 2022-09-19 17:12:49.738
23.0, -8891.456889087784, -22608.43188863181, -31887.69154401917, -13989.554523176495, -8176.312825240234, 187500.0, -42732.91441594534, -12447.999411582878, 0.61, -0.6960000000000001, 0.426, 192.0, 0.0, 0.0, 0.0, 0.0, 0.0, 0.0, 0.0, 0.0, 0.0, 1.6635895697426064E9, 0.0, 2022-09-19 17:12:49.742
24.0, -8953.035945062154, -22636.885659323416, -31865.96564840861, -13970.309671200475, -8173.898836839061, 187500.0, -42718.47518902722, -12423.814824082236, 0.61, -0.6960000000000001, 0.426, 192.0, 0.0, 0.0, 0.0, 0.0, 0.0, 0.0, 0.0, 0.0, 0.0, 1.6635895697466075E9, 0.0, 2022-09-19 17:12:49.746
25.0, -9000.578105518593, -22652.643639164406, -31861.852927428834, -13952.160054702767, -8167.215665246924, 187500.0, -42717.134084359895, -12394.958721990433, 0.616, -0.7000000000000001, 0.418, 192.0, 19.0, 64.0, 234.0, 32.0, 13.0, 16.0, 0.0, 0.0, 0.0, 1.6635895697506871E9, 0.0, 2022-09-19 17:12:49.750
26.0, -9033.099893701065, -22657.605726433485, -31870.279535088484, -13961.838360051914, -8162.991185544871, 187500.0, -42724.17488386332, -12398.244428425363, 0.616, -0.7000000000000001, 0.418, 192.0, 0.0, 0.0, 0.0, 0.0, 0.0, 0.0, 0.0, 0.0, 0.0, 1.6635895697556663E9, 0.0, 2022-09-19 17:12:49.755
27.0, -9040.543024604682, -22643.90410708238, -31876.090988646865, -13974.28828171352, -8155.123371496603, 187500.0, -42723.772552463124, -12406.64868434056, 0.616, -0.7000000000000001, 0.418, 192.0, 0.0, 0.0, 0.0, 0.0, 0.0, 0.0, 0.0, 0.0, 0.0, 1.6635895697596245E9, 0.0, 2022-09-19 17:12:49.759
28.0, -9053.238815455295, -22636.14805175639, -31872.224136856097, -13982.781944606537, -8149.915415038517, 187500.0, -42729.24872985468, -12416.662265856537, 0.616, -0.7000000000000001, 0.418, 192.0, 0.0, 0.0, 0.0, 0.0, 0.0, 0.0, 0.0, 0.0, 0.0, 1.6635895697637377E9, 0.0, 2022-09-19 17:12:49.763
29.0, -9096.556496209681, -22648.06153155107, -31865.429206541685, -13970.734354345126, -8146.830874303684, 187500.0, -42743.50914281716, -12412.370730921119, 0.616, -0.7000000000000001, 0.418, 192.0, 0.0, 0.0, 0.0, 0.0, 0.0, 0.0, 0.0, 0.0, 0.0, 1.6635895697666483E9, 0.0, 2022-09-19 17:12:49.766
30.0, -9122.998609900309, -22645.37932221643, -31852.487546502063, -13967.403944421285, -8138.851301533139, 187500.0, -42713.64721222487, -12406.156945962543, 0.616, -0.7000000000000001, 0.418, 192.0, 0.0, 0.0, 0.0, 0.0, 0.0, 0.0, 0.0, 0.0, 0.0, 1.6635895697707665E9, 0.0, 2022-09-19 17:12:49.770
31.0, -9136.879043207055, -22638.249115735187, -31853.381616280272, -13974.131819502332, -8134.380952642078, 187500.0, -42704.43829350928, -12406.492222129373, 0.616, -0.7000000000000001, 0.418, 192.0, 0.0, 0.0, 0.0, 0.0, 0.0, 0.0, 0.0, 0.0, 0.0, 1.6635895697747195E9, 0.0, 2022-09-19 17:12:49.774
32.0, -9132.609860016091, -22618.154897469867, -31854.49920350304, -13970.019098522556, -8120.70168503543, 187500.0, -42697.93393587279, -12399.250256925852, 0.616, -0.7000000000000001, 0.418, 192.0, 0.0, 0.0, 0.0, 0.0, 0.0, 0.0, 0.0, 0.0, 0.0, 1.6635895697786922E9, 0.0, 2022-09-19 17:12:49.778
33.0, -9146.266775878285, -22613.61749334544, -31850.341779034352, -13955.33400241542, -8124.613240315109, 187500.0, -42704.46064525374, -12379.938349716467, 0.616, -0.7000000000000001, 0.418, 192.0, 0.0, 0.0, 0.0, 0.0, 0.0, 0.0, 0.0, 0.0, 0.0, 1.66358956978468E9, 0.0, 2022-09-19 17:12:49.784
34.0, -9190.634988622069, -22628.391996430397, -31842.585723708362, -13947.734409300616, -8124.054446703726, 187500.0, -42698.760950417636, -12387.090907942165, 0.616, -0.7000000000000001, 0.418, 192.0, 0.0, 0.0, 0.0, 0.0, 0.0, 0.0, 0.0, 0.0, 0.0, 1.6635895697877305E9, 0.0, 2022-09-19 17:12:49.787
35.0, -9221.949782603953, -22635.991589545203, -31845.78202316547, -13944.962792988157, -8106.55303079522, 187500.0, -42698.58213646199, -12389.951931232445, 0.616, -0.706, 0.422, 192.0, 19.0, 64.0, 233.0, 240.0, 13.0, 48.0, 0.0, 0.0, 0.0, 1.6635895697916896E9, 0.0, 2022-09-19 17:12:49.791
36.0, -9232.723323431412, -22631.610647631962, -31851.951104635133, -13942.258231909065, -8090.146850365026, 187500.0, -42704.125369086905, -12376.384422348074, 0.616, -0.706, 0.422, 192.0, 0.0, 0.0, 0.0, 0.0, 0.0, 0.0, 0.0, 0.0, 0.0, 1.66358956979474E9, 0.0, 2022-09-19 17:12:49.794
37.0, -9228.789416407279, -22620.70299633777, -31858.611924482815, -13950.528377357528, -8083.441327028433, 187500.0, -42706.718171443725, -12379.156038660532, 0.616, -0.706, 0.422, 192.0, 0.0, 0.0, 0.0, 0.0, 0.0, 0.0, 0.0, 0.0, 0.0, 1.6635895697987316E9, 0.0, 2022-09-19 17:12:49.798
38.0, -9250.649422484568, -22629.844859819994, -31853.0686918579, -13944.739275543605, -8092.203210854914, 187500.0, -42711.99318313518, -12368.382497833074, 0.616, -0.706, 0.422, 192.0, 0.0, 0.0, 0.0, 0.0, 0.0, 0.0, 0.0, 0.0, 0.0, 1.663589569802736E9, 0.0, 2022-09-19 17:12:49.802
39.0, -9304.450071388492, -22655.079979310034, -31853.269857557996, -13942.034714464513, -8104.586077283154, 187500.0, -42717.916395415836, -12369.053050166733, 0.616, -0.706, 0.422, 192.0, 0.0, 0.0, 0.0, 0.0, 0.0, 0.0, 0.0, 0.0, 0.0, 1.6635895698067205E9, 0.0, 2022-09-19 17:12:49.806
40.0, -9333.574394413758, -22660.287935768123, -31844.463270242606, -13935.440949850197, -8094.103109133614, 187500.0, -42699.11857832892, -12365.990861176357, 0.616, -0.706, 0.422, 192.0, 0.0, 0.0, 0.0, 0.0, 0.0, 0.0, 0.0, 0.0, 0.0, 1.6635895698107347E9, 0.0, 2022-09-19 17:12:49.810
41.0, -9336.502472937402, -22646.96629607276, -31841.088156829854, -13933.89867948278, -8083.195457839425, 187500.0, -42690.75902590263, -12355.172616859987, 0.616, -0.706, 0.422, 192.0, 0.0, 0.0, 0.0, 0.0, 0.0, 0.0, 0.0, 0.0, 0.0, 1.6635895698157573E9, 0.0, 2022-09-19 17:12:49.815
42.0, -9331.719199623967, -22629.062548764057, -31846.363168521308, -13933.876327738326, -8075.953492635906, 187500.0, -42692.189537547776, -12351.998669147333, 0.616, -0.706, 0.422, 192.0, 0.0, 0.0, 0.0, 0.0, 0.0, 0.0, 0.0, 0.0, 0.0, 1.6635895698187656E9, 0.0, 2022-09-19 17:12:49.818
43.0, -9337.821225860265, -22616.09853697998, -31847.39134876625, -13930.32240036993, -8072.980710623349, 187500.0, -42700.21381380723, -12350.121122613087, 0.616, -0.706, 0.422, 192.0, 0.0, 0.0, 0.0, 0.0, 0.0, 0.0, 0.0, 0.0, 0.0, 1.6635895698227348E9, 0.0, 2022-09-19 17:12:49.822
44.0, -9373.405203033115, -22624.01105451716, -31842.228095797076, -13927.729598013115, -8075.864085658084, 187500.0, -42702.6278022084, -12358.279509339274, 0.616, -0.706, 0.422, 192.0, 0.0, 0.0, 0.0, 0.0, 0.0, 0.0, 0.0, 0.0, 0.0, 1.6635895698268688E9, 0.0, 2022-09-19 17:12:49.826
45.0, -9403.401244092136, -22628.213182474756, -31843.233924297565, -13936.156205672767, -8073.070117601171, 187500.0, -42700.97377311871, -12370.885893212067, 0.622, -0.7020000000000001, 0.426, 192.0, 19.0, 112.0, 234.0, 16.0, 13.0, 80.0, 0.0, 0.0, 0.0, 1.6635895698307996E9, 0.0, 2022-09-19 17:12:49.830
46.0, -9413.750101774944, -22617.886676536404, -31850.945276134644, -13942.99583947609, -8066.610463453587, 187500.0, -42704.03596210909, -12372.718736257404, 0.622, -0.7020000000000001, 0.426, 192.0, 0.0, 0.0, 0.0, 0.0, 0.0, 0.0, 0.0, 0.0, 0.0, 1.663589569834813E9, 0.0, 2022-09-19 17:12:49.834
47.0, -9395.645188766144, -22584.604929042453, -31844.262104542508, -13941.587679575407, -8059.16733254997, 187500.0, -42691.004895091646, -12365.812047220714, 0.622, -0.7020000000000001, 0.426, 192.0, 0.0, 0.0, 0.0, 0.0, 0.0, 0.0, 0.0, 0.0, 0.0, 1.663589569838817E9, 0.0, 2022-09-19 17:12:49.838
48.0, -9405.256438881926, -22577.877053961405, -31859.34953204984, -13954.842264037403, -8077.562818236687, 187500.0, -42706.76287493263, -12376.071497925699, 0.622, -0.7020000000000001, 0.426, 192.0, 0.0, 0.0, 0.0, 0.0, 0.0, 0.0, 0.0, 0.0, 0.0, 1.6635895698438911E9, 0.0, 2022-09-19 17:12:49.843
49.0, -9437.286488686383, -22584.85079823146, -31838.83063063987, -13934.971563216635, -8065.850504142107, 187500.0, -42696.34696201646, -12355.038506393255, 0.622, -0.7020000000000001, 0.426, 192.0, 0.0, 0.0, 0.0, 0.0, 0.0, 0.0, 0.0, 0.0, 0.0, 1.6635895698468628E9, 0.0, 2022-09-19 17:12:49.846
50.0, -9459.973509308518, -22588.717650022227, -31823.00559556551, -13920.845260720882, -8051.143056290514, 187500.0, -42669.591923903456, -12329.982200858856, 0.622, -0.7020000000000001, 0.426, 192.0, 0.0, 0.0, 0.0, 0.0, 0.0, 0.0, 0.0, 0.0, 0.0, 1.663589569850834E9, 0.0, 2022-09-19 17:12:49.850
51.0, -9461.806352353853, -22578.74877199516, -31827.386537478753, -13921.381702587809, -8051.299518501702, 187500.0, -42667.26734248011, -12332.73146542686, 0.622, -0.7020000000000001, 0.426, 192.0, 0.0, 0.0, 0.0, 0.0, 0.0, 0.0, 0.0, 0.0, 0.0, 1.6635895698548155E9, 0.0, 2022-09-19 17:12:49.854
52.0, -9442.449741655559, -22554.340667049964, -31839.277665528974, -13924.734464256104, -8058.027393582749, 187500.0, -42674.73282512818, -12323.902526367012, 0.622, -0.7020000000000001, 0.426, 192.0, 0.0, 0.0, 0.0, 0.0, 0.0, 0.0, 0.0, 0.0, 0.0, 1.663589569858889E9, 0.0, 2022-09-19 17:12:49.858
53.0, -9442.405038166648, -22548.93154489178, -31848.39717726674, -13926.164975901243, -8071.237274555836, 187500.0, -42690.3790462469, -12332.195023559932, 0.622, -0.7020000000000001, 0.426, 192.0, 0.0, 0.0, 0.0, 0.0, 0.0, 0.0, 0.0, 0.0, 0.0, 1.663589569862947E9, 0.0, 2022-09-19 17:12:49.862
54.0, -9470.411773969146, -22564.890690432872, -31863.104625118332, -13934.993914961091, -8078.792164181729, 187500.0, -42714.898909914366, -12354.658526737516, 0.622, -0.7020000000000001, 0.426, 192.0, 0.0, 0.0, 0.0, 0.0, 0.0, 0.0, 0.0, 0.0, 0.0, 1.6635895698668704E9, 0.0, 2022-09-19 17:12:49.866
55.0, -9473.5857216818, -22559.3251060635, -31849.648874956238, -13924.019208433534, -8056.082791815137, 187500.0, -42694.11178757093, -12347.125988856076, 0.616, -0.7000000000000001, 0.428, 192.0, 19.0, 64.0, 234.0, 32.0, 13.0, 96.0, 0.0, 0.0, 0.0, 1.6635895698718688E9, 0.0, 2022-09-19 17:12:49.871
56.0, -9461.87340758722, -22547.79160592456, -31837.57893295037, -13917.626609519317, -8033.418122937456, 187500.0, -42675.38102571738, -12323.075511822166, 0.616, -0.7000000000000001, 0.428, 192.0, 0.0, 0.0, 0.0, 0.0, 0.0, 0.0, 0.0, 0.0, 0.0, 1.6635895698749409E9, 0.0, 2022-09-19 17:12:49.874
57.0, -9434.067837484818, -22523.115280045902, -31827.67711015667, -13920.264115365044, -8026.5337856452215, 187500.0, -42668.16141225832, -12314.403034973508, 0.616, -0.7000000000000001, 0.428, 192.0, 0.0, 0.0, 0.0, 0.0, 0.0, 0.0, 0.0, 0.0, 0.0, 1.6635895698779533E9, 0.0, 2022-09-19 17:12:49.877
58.0, -9426.24472692546, -22512.207628751712, -31842.831592897368, -13929.60714454736, -8047.4326667109335, 187500.0, -42697.01751435012, -12328.372875258074, 0.616, -0.7000000000000001, 0.428, 192.0, 0.0, 0.0, 0.0, 0.0, 0.0, 0.0, 0.0, 0.0, 0.0, 1.6635895698829296E9, 0.0, 2022-09-19 17:12:49.882
59.0, -9447.478884158003, -22518.779041621572, -31839.501182973527, -13927.57313580193, -8054.249948769802, 187500.0, -42700.5267382296, -12353.92091917049, 0.616, -0.7000000000000001, 0.428, 192.0, 0.0, 0.0, 0.0, 0.0, 0.0, 0.0, 0.0, 0.0, 0.0, 1.6635895698868942E9, 0.0, 2022-09-19 17:12:49.886
60.0, -9466.164942522639, -22523.204687023725, -31826.090136300343, -13906.94247566968, -8038.313154973168, 187500.0, -42679.73961588617, -12329.222241547375, 0.616, -0.7000000000000001, 0.428, 192.0, 0.0, 0.0, 0.0, 0.0, 0.0, 0.0, 0.0, 0.0, 0.0, 1.663589569890884E9, 0.0, 2022-09-19 17:12:49.890
61.0, -9466.902550089664, -22516.007425309115, -31825.508990944505, -13907.165993114233, -8023.315134443657, 187500.0, -42674.21873500571, -12304.85884009109, 0.616, -0.7000000000000001, 0.428, 192.0, 0.0, 0.0, 0.0, 0.0, 0.0, 0.0, 0.0, 0.0, 0.0, 1.663589569894984E9, 0.0, 2022-09-19 17:12:49.894
62.0, -9444.550805634357, -22493.342756431433, -31836.662511427705, -13920.934667698702, -8021.415236164956, 187500.0, -42675.604543161935, -12307.921029081468, 0.616, -0.7000000000000001, 0.428, 192.0, 0.0, 0.0, 0.0, 0.0, 0.0, 0.0, 0.0, 0.0, 0.0, 1.6635895698989131E9, 0.0, 2022-09-19 17:12:49.898
63.0, -9426.870575770208, -22473.941442244228, -31830.62754042477, -13925.270906123033, -8025.527957144733, 187500.0, -42683.226488021195, -12315.542973940728, 0.616, -0.7000000000000001, 0.428, 192.0, 0.0, 0.0, 0.0, 0.0, 0.0, 0.0, 0.0, 0.0, 0.0, 1.663589569901904E9, 0.0, 2022-09-19 17:12:49.901
64.0, -9441.242747454971, -22478.63530857984, -31813.707269872102, -13916.352560085365, -8029.2383467243135, 187500.0, -42669.83779309247, -12323.72371241137, 0.616, -0.7000000000000001, 0.428, 192.0, 0.0, 0.0, 0.0, 0.0, 0.0, 0.0, 0.0, 0.0, 0.0, 1.6635895699059305E9, 0.0, 2022-09-19 17:12:49.905
65.0, -9450.049334770363, -22478.83647427994, -31818.356432718807, -13921.761682243548, -8033.239308981813, 187500.0, -42669.524868670094, -12335.123102083577, 0.614, -0.7000000000000001, 0.428, 192.0, 19.0, 48.0, 234.0, 32.0, 13.0, 96.0, 0.0, 0.0, 0.0, 1.6635895699110074E9, 0.0, 2022-09-19 17:12:49.911
66.0, -9439.6781253431, -22468.97935497515, -31821.15040077572, -13917.716016497137, -8037.3967334505005, 187500.0, -42667.49085992466, -12328.462282235896, 0.614, -0.7000000000000001, 0.428, 192.0, 0.0, 0.0, 0.0, 0.0, 0.0, 0.0, 0.0, 0.0, 0.0, 1.6635895699150224E9, 0.0, 2022-09-19 17:12:49.915
67.0, -9406.23991563796, -22443.855994207384, -31827.811220623404, -13915.480842051607, -8034.423951437945, 187500.0, -42664.696891867745, -12313.553668684206, 0.614, -0.7000000000000001, 0.428, 192.0, 0.0, 0.0, 0.0, 0.0, 0.0, 0.0, 0.0, 0.0, 0.0, 1.66358956991897E9, 0.0, 2022-09-19 17:12:49.918
68.0, -9393.298255598338, -22436.859898192874, -31832.77330789248, -13912.642170505784, -8040.414218951967, 187500.0, -42669.88249658138, -12321.287372265742, 0.614, -0.7000000000000001, 0.428, 192.0, 0.0, 0.0, 0.0, 0.0, 0.0, 0.0, 0.0, 0.0, 0.0, 1.6635895699229517E9, 0.0, 2022-09-19 17:12:49.922
69.0, -9411.24670639595, -22452.573174544952, -31848.26306680001, -13921.046426420979, -8046.4938934438105, 187500.0, -42691.56368870303, -12347.260099322808, 0.614, -0.7000000000000001, 0.428, 192.0, 0.0, 0.0, 0.0, 0.0, 0.0, 0.0, 0.0, 0.0, 0.0, 1.6635895699269145E9, 0.0, 2022-09-19 17:12:49.926
70.0, -9409.011531950418, -22450.226241377146, -31838.428299239673, -13908.41769080373, -8033.596936893098, 187500.0, -42676.0739297955, -12338.29704979623, 0.614, -0.7000000000000001, 0.428, 192.0, 0.0, 0.0, 0.0, 0.0, 0.0, 0.0, 0.0, 0.0, 0.0, 1.663589569930004E9, 0.0, 2022-09-19 17:12:49.930
71.0, -9381.89886592613, -22427.382758543823, -31826.380708978264, -13899.521696510517, -8023.91863154395, 187500.0, -42664.87570582339, -12331.189195059444, 0.614, -0.7000000000000001, 0.428, 192.0, 0.0, 0.0, 0.0, 0.0, 0.0, 0.0, 0.0, 0.0, 0.0, 1.6635895699339623E9, 0.0, 2022-09-19 17:12:49.933
72.0, -9339.631717161146, -22397.833752373906, -31834.29322651544, -13893.374966785308, -8015.693189584397, 187500.0, -42670.083662281475, -12301.081395278145, 0.614, -0.7000000000000001, 0.428, 192.0, 0.0, 0.0, 0.0, 0.0, 0.0, 0.0, 0.0, 0.0, 0.0, 1.6635895699400377E9, 0.0, 2022-09-19 17:12:49.940
73.0, -9334.267298491872, -22401.275921020024, -31836.371938749784, -13904.282618079498, -8032.412294436967, 187500.0, -42682.98061883219, -12304.68002613545, 0.614, -0.7000000000000001, 0.428, 192.0, 0.0, 0.0, 0.0, 0.0, 0.0, 0.0, 0.0, 0.0, 0.0, 1.663589569942999E9, 0.0, 2022-09-19 17:12:49.942
74.0, -9343.476217207459, -22408.227313545623, -31818.982281563556, -13898.784088943494, -8043.007021308783, 187500.0, -42670.53069717058, -12311.72082563887, 0.614, -0.7000000000000001, 0.428, 192.0, 0.0, 0.0, 0.0, 0.0, 0.0, 0.0, 0.0, 0.0, 0.0, 1.6635895699470613E9, 0.0, 2022-09-19 17:12:49.947
75.0, -9343.207996273995, -22411.088336835903, -31823.899665343724, -13907.143641369777, -8053.69115515842, 187500.0, -42671.8718018379, -12316.615857674582, 0.61, -0.708, 0.424, 192.0, 19.0, 16.0, 233.0, 224.0, 13.0, 64.0, 0.0, 0.0, 0.0, 1.663589569953054E9, 0.0, 2022-09-19 17:12:49.953
76.0, -9321.772673341355, -22398.884284363307, -31830.940464847146, -13917.201926374666, -8063.257701785291, 187500.0, -42681.52775544259, -12322.226145532864, 0.61, -0.708, 0.424, 192.0, 0.0, 0.0, 0.0, 0.0, 0.0, 0.0, 0.0, 0.0, 0.0, 1.6635895699559824E9, 0.0, 2022-09-19 17:12:49.955
77.0, -9278.276178631328, -22372.28570846149, -31830.895761358235, -13915.056158906957, -8059.971995350361, 187500.0, -42672.452947193735, -12315.028883818255, 0.61, -0.708, 0.424, 192.0, 0.0, 0.0, 0.0, 0.0, 0.0, 0.0, 0.0, 0.0, 0.0, 1.6635895699590044E9, 0.0, 2022-09-19 17:12:49.959
78.0, -9251.543492262781, -22362.987382768082, -31832.795659636937, -13916.330208340909, -8067.124553576059, 187500.0, -42674.33049372798, -12327.165881057488, 0.61, -0.708, 0.424, 192.0, 0.0, 0.0, 0.0, 0.0, 0.0, 0.0, 0.0, 0.0, 0.0, 1.6635895699630067E9, 0.0, 2022-09-19 17:12:49.963
79.0, -9273.425850084526, -22398.169028540735, -31848.084252844365, -13937.1396824288, -8094.3936818115335, 187500.0, -42698.045694595065, -12360.0676488957, 0.61, -0.708, 0.424, 192.0, 0.0, 0.0, 0.0, 0.0, 0.0, 0.0, 0.0, 0.0, 0.0, 1.6635895699671204E9, 0.0, 2022-09-19 17:12:49.967
80.0, -9267.16736163704, -22413.167049070245, -31848.352473777828, -13927.461377079651, -8089.409242798, 187500.0, -42705.82410166551, -12360.313518084708, 0.61, -0.708, 0.424, 192.0, 0.0, 0.0, 0.0, 0.0, 0.0, 0.0, 0.0, 0.0, 0.0, 1.6635895699710813E9, 0.0, 2022-09-19 17:12:49.971
81.0, -9248.190730594484, -22421.079566607426, -31830.247560769032, -13907.478917536608, -8077.78633568124, 187500.0, -42676.20804026223, -12322.427311232963, 0.61, -0.708, 0.424, 192.0, 0.0, 0.0, 0.0, 0.0, 0.0, 0.0, 0.0, 0.0, 0.0, 1.6635895699750783E9, 0.0, 2022-09-19 17:12:49.975
82.0, -9217.434730223982, -22423.471203264144, -31823.54203743244, -13903.61206574584, -8074.053594357204, 187500.0, -42646.54727537004, -12297.86274407658, 0.61, -0.708, 0.424, 192.0, 0.0, 0.0, 0.0, 0.0, 0.0, 0.0, 0.0, 0.0, 0.0, 1.6635895699790847E9, 0.0, 2022-09-19 17:12:49.979
83.0, -9202.146137016553, -22433.417729546756, -31824.72667988857, -13901.600408744862, -8075.484106002344, 187500.0, -42649.00596726012, -12301.215505744876, 0.61, -0.708, 0.424, 192.0, 0.0, 0.0, 0.0, 0.0, 0.0, 0.0, 0.0, 0.0, 0.0, 1.663589569982061E9, 0.0, 2022-09-19 17:12:49.982
84.0, -9214.707817400435, -22458.228165892146, -31829.129973546267, -13909.356464070854, -8086.794088696729, 187500.0, -42657.074947008485, -12319.745101898325, 0.61, -0.708, 0.424, 192.0, 0.0, 0.0, 0.0, 0.0, 0.0, 0.0, 0.0, 0.0, 0.0, 1.6635895699860947E9, 0.0, 2022-09-19 17:12:49.986
85.0, -9225.481358227893, -22483.59739584892, -31844.865601642803, -13917.023112419023, -8092.359673066101, 187500.0, -42669.167240758805, -12343.527357998772, 0.61, -0.7020000000000001, 0.426, 192.0, 19.0, 16.0, 234.0, 16.0, 13.0, 80.0, 0.0, 0.0, 0.0, 1.66358956999007E9, 0.0, 2022-09-19 17:12:49.990
86.0, -9197.184049747473, -22476.668355067774, -31853.001636624533, -13920.666446765239, -8082.055518872205, 187500.0, -42668.58609540297, -12347.997706889833, 0.61, -0.7020000000000001, 0.426, 192.0, 0.0, 0.0, 0.0, 0.0, 0.0, 0.0, 0.0, 0.0, 0.0, 1.6635895699940405E9, 0.0, 2022-09-19 17:12:49.994
87.0, -9163.254101664317, -22468.44291310822, -31864.40102629674, -13919.191231631188, -8072.936007134439, 187500.0, -42673.726996627694, -12322.293200766231, 0.61, -0.7020000000000001, 0.426, 192.0, 0.0, 0.0, 0.0, 0.0, 0.0, 0.0, 0.0, 0.0, 0.0, 1.663589569999124E9, 0.0, 2022-09-19 17:12:49.999
88.0, -9153.531092826259, -22473.87438701086, -31856.287343059463, -13918.1854031307, -8072.69013794543, 187500.0, -42677.862069351926, -12306.982255814346, 0.61, -0.7020000000000001, 0.426, 192.0, 0.0, 0.0, 0.0, 0.0, 0.0, 0.0, 0.0, 0.0, 0.0, 1.663589570003163E9, 0.0, 2022-09-19 17:12:50.003
89.0, -9162.114162697097, -22487.710116828697, -31833.421508481686, -13902.583885500895, -8057.379192993545, 187500.0, -42668.98842680317, -12305.1047092801, 0.61, -0.7020000000000001, 0.426, 192.0, 0.0, 0.0, 0.0, 0.0, 0.0, 0.0, 0.0, 0.0, 0.0, 1.6635895700060816E9, 0.0, 2022-09-19 17:12:50.006
90.0, -9156.928557983465, -22491.39815466382, -31836.237828283054, -13911.032844905001, -8052.886492358029, 187500.0, -42672.028264049084, -12323.008456588801, 0.61, -0.7020000000000001, 0.426, 192.0, 0.0, 0.0, 0.0, 0.0, 0.0, 0.0, 0.0, 0.0, 0.0, 1.6635895700100467E9, 0.0, 2022-09-19 17:12:50.010
91.0, -9143.942194454932, -22492.22516920867, -31849.31359878941, -13920.197060131677, -8063.995309352316, 187500.0, -42685.50636595564, -12335.39132301704, 0.61, -0.7020000000000001, 0.426, 192.0, 0.0, 0.0, 0.0, 0.0, 0.0, 0.0, 0.0, 0.0, 0.0, 1.6635895700140808E9, 0.0, 2022-09-19 17:12:50.014
92.0, -9102.323246279151, -22470.186349175736, -31853.940409891657, -13913.022150161523, -8061.178989550947, 187500.0, -42678.95730483023, -12323.477843222361, 0.61, -0.7020000000000001, 0.426, 192.0, 0.0, 0.0, 0.0, 0.0, 0.0, 0.0, 0.0, 0.0, 0.0, 1.6635895700182133E9, 0.0, 2022-09-19 17:12:50.018
93.0, -9078.473934945338, -22461.133892671336, -31853.53807849146, -13914.765586229038, -8067.2139605538805, 187500.0, -42675.24691525065, -12326.897660124025, 0.61, -0.7020000000000001, 0.426, 192.0, 0.0, 0.0, 0.0, 0.0, 0.0, 0.0, 0.0, 0.0, 0.0, 1.6635895700221083E9, 0.0, 2022-09-19 17:12:50.022
94.0, -9098.188173554918, -22479.35056440241, -31846.139651076755, -13914.586772273395, -8072.310158289691, 187500.0, -42679.046711808056, -12326.472976979372, 0.61, -0.7020000000000001, 0.426, 192.0, 0.0, 0.0, 0.0, 0.0, 0.0, 0.0, 0.0, 0.0, 0.0, 1.6635895700271912E9, 0.0, 2022-09-19 17:12:50.027
95.0, -9101.65269394549, -22481.451628381208, -31849.984151123066, -13914.005626917557, -8065.73874541983, 187500.0, -42683.382950232386, -12315.833546618647, 0.606, -0.6960000000000001, 0.43, 192.0, 18.0, 240.0, 234.0, 64.0, 13.0, 112.0, 0.0, 0.0, 0.0, 1.663589570031155E9, 0.0, 2022-09-19 17:12:50.031
96.0, -9073.780068609723, -22456.998819947104, -31847.704273188625, -13912.977446672612, -8051.1877597794255, 187500.0, -42673.101147782945, -12303.71890112387, 0.606, -0.6960000000000001, 0.43, 192.0, 0.0, 0.0, 0.0, 0.0, 0.0, 0.0, 0.0, 0.0, 0.0, 1.663589570034237E9, 0.0, 2022-09-19 17:12:50.034
97.0, -9037.056152469653, -22428.72386321114, -31852.040511612955, -13916.866650207836, -8052.618271424565, 187500.0, -42672.14002277137, -12293.615912630072, 0.606, -0.6960000000000001, 0.43, 192.0, 0.0, 0.0, 0.0, 0.0, 0.0, 0.0, 0.0, 0.0, 0.0, 1.663589570038209E9, 0.0, 2022-09-19 17:12:50.038
98.0, -9021.767559262224, -22421.124270096338, -31853.180450580177, -13913.737405984093, -8055.099315059104, 187500.0, -42678.35380772994, -12289.726709094848, 0.606, -0.6960000000000001, 0.43, 192.0, 0.0, 0.0, 0.0, 0.0, 0.0, 0.0, 0.0, 0.0, 0.0, 1.6635895700421658E9, 0.0, 2022-09-19 17:12:50.042
99.0, -9033.971611734822, -22432.25543883508, -31851.392311023752, -13917.85012696387, -8060.776658150752, 187500.0, -42682.86886010991, -12307.272828492265, 0.606, -0.6960000000000001, 0.43, 192.0, 0.0, 0.0, 0.0, 0.0, 0.0, 0.0, 0.0, 0.0, 0.0, 1.6635895700461376E9, 0.0, 2022-09-19 17:12:50.046
100.0, -9038.531367603704, -22440.77145347255, -31852.286380801965, -13924.578002044917, -8062.855370385096, 187500.0, -42677.213868762716, -12321.220317032376, 0.606, -0.6960000000000001, 0.43, 192.0, 0.0, 0.0, 0.0, 0.0, 0.0, 0.0, 0.0, 0.0, 0.0, 1.6635895700502925E9, 0.0, 2022-09-19 17:12:50.050
101.0, -9018.571259805114, -22431.24961033459, -31860.668284972704, -13926.790824745993, -8047.4326667109335, 187500.0, -42688.41209273483, -12310.804404116203, 0.606, -0.6960000000000001, 0.43, 192.0, 0.0, 0.0, 0.0, 0.0, 0.0, 0.0, 0.0, 0.0, 0.0, 1.6635895700542028E9, 0.0, 2022-09-19 17:12:50.054
102.0, -8977.041718607154, -22407.10972632286, -31852.264029057507, -13922.141661899288, -8028.836015324118, 187500.0, -42672.184726260275, -12288.854991061091, 0.606, -0.6960000000000001, 0.43, 192.0, 0.0, 0.0, 0.0, 0.0, 0.0, 0.0, 0.0, 0.0, 0.0, 1.663589570059132E9, 0.0, 2022-09-19 17:12:50.059
103.0, -8963.474209722783, -22405.120421066335, -31853.82865116938, -13926.85787997936, -8031.741742103308, 187500.0, -42666.28386572407, -12304.43415694644, 0.606, -0.6960000000000001, 0.43, 192.0, 0.0, 0.0, 0.0, 0.0, 0.0, 0.0, 0.0, 0.0, 0.0, 1.6635895700622036E9, 0.0, 2022-09-19 17:12:50.062
104.0, -8979.455707008328, -22421.28073230752, -31852.085215101866, -13928.355446857864, -8041.464750941366, 187500.0, -42667.26734248011, -12329.088131080644, 0.606, -0.6960000000000001, 0.43, 192.0, 0.0, 0.0, 0.0, 0.0, 0.0, 0.0, 0.0, 0.0, 0.0, 1.663589570066177E9, 0.0, 2022-09-19 17:12:50.066
105.0, -8988.239942579263, -22434.088281880413, -31841.155212063222, -13896.548914497962, -8028.836015324118, 187500.0, -42662.819345333504, -12281.724784579848, 0.606, -0.6960000000000001, 0.428, 192.0, 18.0, 240.0, 234.0, 64.0, 13.0, 96.0, 0.0, 0.0, 0.0, 1.6635895700701747E9, 0.0, 2022-09-19 17:12:50.070
106.0, -8977.466401751804, -22432.076624879435, -31840.484659729562, -13897.711205209638, -8019.336523930612, 187500.0, -42659.69010110976, -12266.994984983801, 0.606, -0.6960000000000001, 0.428, 192.0, 0.0, 0.0, 0.0, 0.0, 0.0, 0.0, 0.0, 0.0, 0.0, 1.663589570074159E9, 0.0, 2022-09-19 17:12:50.074
107.0, -8950.666660149893, -22419.649054962287, -31848.77715692248, -13911.815155960938, -8018.688323341409, 187500.0, -42665.188630245764, -12269.341918151607, 0.606, -0.6960000000000001, 0.428, 192.0, 0.0, 0.0, 0.0, 0.0, 0.0, 0.0, 0.0, 0.0, 0.0, 1.6635895700781925E9, 0.0, 2022-09-19 17:12:50.078
108.0, -8940.787189100647, -22418.084432850414, -31861.718816962104, -13917.80542347496, -8028.478387412833, 187500.0, -42683.53941244357, -12284.563456125672, 0.606, -0.6960000000000001, 0.428, 192.0, 0.0, 0.0, 0.0, 0.0, 0.0, 0.0, 0.0, 0.0, 0.0, 1.6635895700832245E9, 0.0, 2022-09-19 17:12:50.083
109.0, -8963.429506233872, -22437.95513367118, -31860.98120939508, -13922.365179343842, -8037.508492172778, 187500.0, -42691.139005558376, -12305.887020336035, 0.606, -0.6960000000000001, 0.428, 192.0, 0.0, 0.0, 0.0, 0.0, 0.0, 0.0, 0.0, 0.0, 0.0, 1.6635895700873413E9, 0.0, 2022-09-19 17:12:50.087
110.0, -8976.30411104013, -22447.2981628535, -31855.549735492437, -13921.716978754637, -8030.132416502526, 187500.0, -42681.70656939824, -12309.865630849079, 0.606, -0.6960000000000001, 0.428, 192.0, 0.0, 0.0, 0.0, 0.0, 0.0, 0.0, 0.0, 0.0, 0.0, 1.6635895700912185E9, 0.0, 2022-09-19 17:12:50.091
111.0, -8959.339136998551, -22435.54114527001, -31860.198898339142, -13930.210641647654, -8020.163538475459, 187500.0, -42681.93008684279, -12308.368063970574, 0.606, -0.6960000000000001, 0.428, 192.0, 0.0, 0.0, 0.0, 0.0, 0.0, 0.0, 0.0, 0.0, 0.0, 1.6635895700942864E9, 0.0, 2022-09-19 17:12:50.094
112.0, -8922.391703413929, -22412.988235114604, -31859.77421519449, -13939.017228963046, -8021.3705326760455, 187500.0, -42676.43155770678, -12308.412767459486, 0.606, -0.6960000000000001, 0.428, 192.0, 0.0, 0.0, 0.0, 0.0, 0.0, 0.0, 0.0, 0.0, 0.0, 1.6635895700982392E9, 0.0, 2022-09-19 17:12:50.098
113.0, -8908.33245615154, -22408.249665290077, -31852.442843013152, -13937.273792895532, -8031.2947072142015, 187500.0, -42676.85624085143, -12302.556610412194, 0.606, -0.6960000000000001, 0.428, 192.0, 0.0, 0.0, 0.0, 0.0, 0.0, 0.0, 0.0, 0.0, 0.0, 1.6635895701022248E9, 0.0, 2022-09-19 17:12:50.102
114.0, -8930.617145373482, -22426.555743998975, -31843.949180120133, -13916.151394385266, -8034.848634582596, 187500.0, -42670.642455892856, -12297.281598720741, 0.606, -0.6960000000000001, 0.428, 192.0, 0.0, 0.0, 0.0, 0.0, 0.0, 0.0, 0.0, 0.0, 0.0, 1.6635895701063828E9, 0.0, 2022-09-19 17:12:50.106
115.0, -8934.908680308901, -22426.600447487886, -31831.1639822917, -13913.37977807281, -8018.107177985571, 187500.0, -42658.19253423125, -12305.954075569402, 0.608, -0.7000000000000001, 0.428, 192.0, 19.0, 0.0, 234.0, 32.0, 13.0, 96.0, 0.0, 0.0, 0.0, 1.6635895701102736E9, 0.0, 2022-09-19 17:12:50.110
116.0, -8924.179842970354, -22420.11844159585, -31827.587703178848, -13911.368121071831, -8004.025578978727, 187500.0, -42656.024415019085, -12278.595540356106, 0.608, -0.7000000000000001, 0.428, 192.0, 0.0, 0.0, 0.0, 0.0, 0.0, 0.0, 0.0, 0.0, 0.0, 1.6635895701153457E9, 0.0, 2022-09-19 17:12:50.115
117.0, -8898.765909524669, -22408.450830990176, -31833.48856371505, -13922.052254921467, -8004.182041189914, 187500.0, -42651.33054868347, -12263.217540170854, 0.608, -0.7000000000000001, 0.428, 192.0, 0.0, 0.0, 0.0, 0.0, 0.0, 0.0, 0.0, 0.0, 0.0, 1.6635895701183293E9, 0.0, 2022-09-19 17:12:50.118
118.0, -8881.979749438733, -22400.471258219633, -31825.888970600245, -13922.655752021761, -7999.287009154202, 187500.0, -42653.14103998435, -12256.735534278814, 0.608, -0.7000000000000001, 0.428, 192.0, 0.0, 0.0, 0.0, 0.0, 0.0, 0.0, 0.0, 0.0, 0.0, 1.6635895701223216E9, 0.0, 2022-09-19 17:12:50.122
119.0, -8897.201287412798, -22417.100956094382, -31833.712081159603, -13928.176632902221, -8008.518279614244, 187500.0, -42668.608447147424, -12278.975520011845, 0.608, -0.7000000000000001, 0.428, 192.0, 0.0, 0.0, 0.0, 0.0, 0.0, 0.0, 0.0, 0.0, 0.0, 1.6635895701263137E9, 0.0, 2022-09-19 17:12:50.126
120.0, -8899.1011856915, -22428.12036611085, -31841.155212063222, -13923.885097966802, -8011.4910616268, 187500.0, -42675.55983967303, -12283.870552047558, 0.608, -0.7000000000000001, 0.428, 192.0, 0.0, 0.0, 0.0, 0.0, 0.0, 0.0, 0.0, 0.0, 0.0, 1.6635895701303413E9, 0.0, 2022-09-19 17:12:50.130
121.0, -8873.553141779083, -22418.710281695163, -31841.87046788579, -13928.511909069051, -8003.064453967149, 187500.0, -42669.27899948109, -12285.658691603981, 0.608, -0.7000000000000001, 0.428, 192.0, 0.0, 0.0, 0.0, 0.0, 0.0, 0.0, 0.0, 0.0, 0.0, 1.6635895701343193E9, 0.0, 2022-09-19 17:12:50.134
122.0, -8830.190757535787, -22396.693813406684, -31844.35151152033, -13921.046426420979, -7997.968256231339, 187500.0, -42659.06425226501, -12267.218502428354, 0.608, -0.7000000000000001, 0.428, 192.0, 0.0, 0.0, 0.0, 0.0, 0.0, 0.0, 0.0, 0.0, 0.0, 1.6635895701383123E9, 0.0, 2022-09-19 17:12:50.138
123.0, -8813.69517012777, -22396.85027561787, -31855.63914247026, -13925.561478800952, -8005.389035390501, 187500.0, -42665.94858955724, -12269.118400707055, 0.608, -0.7000000000000001, 0.428, 192.0, 0.0, 0.0, 0.0, 0.0, 0.0, 0.0, 0.0, 0.0, 0.0, 1.6635895701433315E9, 0.0, 2022-09-19 17:12:50.143
124.0, -8824.736931888692, -22411.334206024912, -31862.25525882903, -13933.317534126942, -8006.752491802275, 187500.0, -42682.600639176446, -12288.00562477179, 0.608, -0.7000000000000001, 0.428, 192.0, 0.0, 0.0, 0.0, 0.0, 0.0, 0.0, 0.0, 0.0, 0.0, 1.663589570146335E9, 0.0, 2022-09-19 17:12:50.146
125.0, -8833.163539548343, -22423.180630586223, -31869.921907177202, -13943.71109529866, -8005.612552835054, 187500.0, -42694.335305015484, -12317.174651285965, 0.608, -0.7000000000000001, 0.428, 192.0, 0.0, 0.0, 0.0, 0.0, 0.0, 0.0, 0.0, 0.0, 0.0, 1.6635895701503584E9, 0.0, 2022-09-19 17:12:50.150
126.0, -8820.758321375648, -22421.43719451871, -31860.891802417256, -13946.102731955378, -7994.235514907303, 187500.0, -42674.576362916996, -12317.19700303042, 0.61, -0.704, 0.432, 192.0, 19.0, 16.0, 234.0, 0.0, 13.0, 128.0, 0.0, 0.0, 0.0, 1.6635895701543393E9, 0.0, 2022-09-19 17:12:50.154
127.0, -8789.354120415941, -22405.34393851089, -31844.68678768716, -13937.60906906236, -7978.164610643937, 187500.0, -42660.69592961025, -12263.441057615408, 0.61, -0.704, 0.432, 192.0, 0.0, 0.0, 0.0, 0.0, 0.0, 0.0, 0.0, 0.0, 0.0, 1.6635895701583347E9, 0.0, 2022-09-19 17:12:50.158
128.0, -8774.981948731178, -22402.01352858705, -31826.961854334102, -13927.126100912823, -7973.202523374859, 187500.0, -42653.230446962174, -12250.90172897598, 0.61, -0.704, 0.432, 192.0, 0.0, 0.0, 0.0, 0.0, 0.0, 0.0, 0.0, 0.0, 0.0, 1.6635895701623323E9, 0.0, 2022-09-19 17:12:50.162
129.0, -8804.665065367826, -22431.24961033459, -31835.276703271476, -13925.18149914521, -7983.573732802121, 187500.0, -42665.479202923685, -12253.271013888243, 0.61, -0.704, 0.432, 192.0, 0.0, 0.0, 0.0, 0.0, 0.0, 0.0, 0.0, 0.0, 0.0, 1.663589570166371E9, 0.0, 2022-09-19 17:12:50.166
130.0, -8816.310324229042, -22441.82198546195, -31845.692616187647, -13930.791787003493, -7981.785593245697, 187500.0, -42673.101147782945, -12267.777296039736, 0.61, -0.704, 0.432, 192.0, 0.0, 0.0, 0.0, 0.0, 0.0, 0.0, 0.0, 0.0, 0.0, 1.663589570170354E9, 0.0, 2022-09-19 17:12:50.170
131.0, -8802.943981044767, -22435.764662714562, -31850.811165667914, -13940.42538886373, -7987.552343315166, 187500.0, -42672.452947193735, -12282.864723547069, 0.61, -0.704, 0.432, 192.0, 0.0, 0.0, 0.0, 0.0, 0.0, 0.0, 0.0, 0.0, 0.0, 1.6635895701733985E9, 0.0, 2022-09-19 17:12:50.173
132.0, -8762.844951491947, -22411.982406614115, -31856.06382561491, -13938.793711518492, -7989.541648571689, 187500.0, -42676.789185618065, -12277.388546155518, 0.61, -0.704, 0.432, 192.0, 0.0, 0.0, 0.0, 0.0, 0.0, 0.0, 0.0, 0.0, 0.0, 1.663589570177403E9, 0.0, 2022-09-19 17:12:50.177
133.0, -8743.48834079365, -22404.963958855147, -31850.87822090128, -13928.489557324596, -7991.508602083755, 187500.0, -42676.16333677332, -12262.301118648187, 0.61, -0.704, 0.432, 192.0, 0.0, 0.0, 0.0, 0.0, 0.0, 0.0, 0.0, 0.0, 0.0, 1.6635895701833692E9, 0.0, 2022-09-19 17:12:50.183
134.0, -8750.484436808161, -22416.788031672007, -31847.994845866546, -13925.89675496778, -7996.716558541842, 187500.0, -42674.151679772345, -12267.28555766172, 0.61, -0.704, 0.432, 192.0, 0.0, 0.0, 0.0, 0.0, 0.0, 0.0, 0.0, 0.0, 0.0, 1.6635895701863887E9, 0.0, 2022-09-19 17:12:50.186
135.0, -8731.0607708765, -22412.92117988124, -31846.117299332298, -13928.914240469247, -7991.575657317121, 187500.0, -42669.34605471445, -12262.345822137097, 0.61, -0.704, 0.432, 192.0, 0.0, 0.0, 0.0, 0.0, 0.0, 0.0, 0.0, 0.0, 0.0, 1.6635895701903875E9, 0.0, 2022-09-19 17:12:50.190
136.0, -8682.356319708386, -22393.653976160764, -31858.656627971726, -13929.294220124988, -7979.52806705571, 187500.0, -42685.886345611376, -12251.460522587362, 0.606, -0.6960000000000001, 0.428, 192.0, 18.0, 240.0, 234.0, 64.0, 13.0, 96.0, 0.0, 0.0, 0.0, 1.6635895701944313E9, 0.0, 2022-09-19 17:12:50.194
137.0, -8624.062970168945, -22372.3304119504, -31877.923831692202, -13948.941403501201, -7979.997453689272, 187500.0, -42705.51117724314, -12262.703450048382, 0.606, -0.6960000000000001, 0.428, 192.0, 0.0, 0.0, 0.0, 0.0, 0.0, 0.0, 0.0, 0.0, 0.0, 1.6635895701983807E9, 0.0, 2022-09-19 17:12:50.198
138.0, -8576.252588779043, -22354.69488557516, -31871.844157200358, -13965.414639164763, -7983.573732802121, 187500.0, -42681.058368809034, -12283.28940669172, 0.606, -0.6960000000000001, 0.428, 192.0, 0.0, 0.0, 0.0, 0.0, 0.0, 0.0, 0.0, 0.0, 0.0, 1.6635895702014072E9, 0.0, 2022-09-19 17:12:50.201
139.0, -8580.991158603569, -22376.398429441266, -31845.558505720917, -13946.505063355573, -7985.5630380586435, 187500.0, -42650.12355448289, -12275.578054854639, 0.606, -0.6960000000000001, 0.428, 192.0, 0.0, 0.0, 0.0, 0.0, 0.0, 0.0, 0.0, 0.0, 0.0, 1.663589570206436E9, 0.0, 2022-09-19 17:12:50.206
140.0, -8581.996987104058, -22394.257473261056, -31831.8121828809, -13930.277696881021, -7974.543628042177, 187500.0, -42641.62989158987, -12253.0921999326, 0.606, -0.6960000000000001, 0.428, 192.0, 0.0, 0.0, 0.0, 0.0, 0.0, 0.0, 0.0, 0.0, 0.0, 1.6635895702104108E9, 0.0, 2022-09-19 17:12:50.210
141.0, -8552.604443145328, -22385.249720245567, -31838.40594749522, -13939.419560363242, -7967.033441905194, 187500.0, -42651.75523182812, -12263.99985122679, 0.606, -0.6960000000000001, 0.428, 192.0, 0.0, 0.0, 0.0, 0.0, 0.0, 0.0, 0.0, 0.0, 0.0, 1.6635895702144608E9, 0.0, 2022-09-19 17:12:50.214
142.0, -8513.265372903988, -22371.81632182793, -31846.139651076755, -13951.221281435643, -7966.8993314384625, 187500.0, -42658.43840342026, -12285.323415437153, 0.606, -0.6960000000000001, 0.428, 192.0, 0.0, 0.0, 0.0, 0.0, 0.0, 0.0, 0.0, 0.0, 0.0, 1.663589570218452E9, 0.0, 2022-09-19 17:12:50.218
143.0, -8496.658026773695, -22373.135074750793, -31849.760633678514, -13941.922955742235, -7963.300700581158, 187500.0, -42667.714377369215, -12265.18449368292, 0.606, -0.6960000000000001, 0.428, 192.0, 0.0, 0.0, 0.0, 0.0, 0.0, 0.0, 0.0, 0.0, 0.0, 1.6635895702224376E9, 0.0, 2022-09-19 17:12:50.222
144.0, -8512.147785681223, -22395.4868192061, -31847.748976677536, -13938.65960105176, -7968.598064017066, 187500.0, -42675.69395013976, -12279.310796178675, 0.606, -0.6960000000000001, 0.428, 192.0, 0.0, 0.0, 0.0, 0.0, 0.0, 0.0, 0.0, 0.0, 0.0, 1.663589570226432E9, 0.0, 2022-09-19 17:12:50.226
145.0, -8514.695884549128, -22408.00379610107, -31848.799508666936, -13934.055141693967, -7972.084936152093, 187500.0, -42676.14098502886, -12275.332185665631, 0.606, -0.6960000000000001, 0.428, 192.0, 0.0, 0.0, 0.0, 0.0, 0.0, 0.0, 0.0, 0.0, 0.0, 1.6635895702295032E9, 0.0, 2022-09-19 17:12:50.229
