%OpenBCI Raw EEG Data
%Number of channels = 8
%Sample Rate = 250 Hz
%Board = OpenBCI_GUI$BoardCytonSerial
Sample Index, EXG Channel 0, EXG Channel 1, EXG Channel 2, EXG Channel 3, EXG Channel 4, EXG Channel 5, EXG Channel 6, EXG Channel 7, Accel Channel 0, Accel Channel 1, Accel Channel 2, Other, Other, Other, Other, Other, Other, Other, Analog Channel 0, Analog Channel 1, Analog Channel 2, Timestamp, Other, Timestamp (Formatted)
254.0, 12348.243576078841, 13629.31145779031, -74448.60928638093, -16807.03661525686, -57323.574402758415, -187500.02235174447, -41965.57902879465, -28283.472750600908, 0.518, -0.866, 0.094, 192.0, 16.0, 48.0, 228.0, 240.0, 2.0, 240.0, 0.0, 0.0, 0.0, 1.663592519185712E9, 0.0, 2022-09-19 18:01:59.185
255.0, 12467.333670536718, 13681.122801437712, -74508.46725803224, -16853.05885709034, -57367.69674631319, -187500.02235174447, -42028.40978245852, -28349.633914188616, 0.518, -0.866, 0.094, 192.0, 0.0, 0.0, 0.0, 0.0, 0.0, 0.0, 0.0, 0.0, 0.0, 1.6635925191857407E9, 0.0, 2022-09-19 18:01:59.185
0.0, 12341.202776575421, 13610.64775117013, -74446.64233286885, -16833.81400511432, -57291.678463420685, -187500.02235174447, -42037.976329085395, -28283.74097153437, 0.518, -0.866, 0.094, 192.0, 0.0, 0.0, 0.0, 0.0, 0.0, 0.0, 0.0, 0.0, 0.0, 1.6635925191857588E9, 0.0, 2022-09-19 18:01:59.185
0.0, 0.0, 0.0, 0.0, 0.0, 0.0, 0.0, 0.0, 0.0, 0.518, -0.866, 0.094, 192.0, 0.0, 0.0, 0.0, 0.0, 0.0, 0.0, 0.0, 0.0, 0.0, 1.663592519265566E9, 0.0, 2022-09-19 18:01:59.265
1.0, 12017.773034307127, 15204.573000022532, -74456.38769345137, -17932.491652070483, -57862.83258948715, -187500.02235174447, -40839.90047453648, -26520.38949971074, 0.504, -0.862, 0.154, 192.0, 15.0, 192.0, 229.0, 16.0, 4.0, 208.0, 0.0, 0.0, 0.0, 1.6635925192825816E9, 0.0, 2022-09-19 18:01:59.282
2.0, 11805.297351514979, 15083.583007285955, -74366.75719818559, -17874.801799631336, -57760.19337894838, -187500.02235174447, -40828.16580869744, -26426.0874898538, 0.504, -0.862, 0.154, 192.0, 0.0, 0.0, 0.0, 0.0, 0.0, 0.0, 0.0, 0.0, 0.0, 1.6635925192855546E9, 0.0, 2022-09-19 18:01:59.285
3.0, 11680.55226570991, 15030.542317693511, -74312.62127311484, -17823.43749087304, -57699.262523563215, -187500.02235174447, -40758.49542123025, -26373.73970433947, 0.504, -0.862, 0.154, 192.0, 0.0, 0.0, 0.0, 0.0, 0.0, 0.0, 0.0, 0.0, 0.0, 1.6635925192895453E9, 0.0, 2022-09-19 18:01:59.289
4.0, 11747.540443842465, 15074.731716481652, -74327.66399713326, -17829.897145020623, -57715.78046271569, -187500.02235174447, -40737.19420876434, -26400.427687219108, 0.504, -0.862, 0.154, 192.0, 0.0, 0.0, 0.0, 0.0, 0.0, 0.0, 0.0, 0.0, 0.0, 1.6635925192936027E9, 0.0, 2022-09-19 18:01:59.293
5.0, 11936.479739723176, 15169.14548506087, -74419.30614940001, -17901.10980285523, -57806.01445508176, -187500.02235174447, -40777.11442436152, -26486.548958605406, 0.504, -0.862, 0.154, 192.0, 0.0, 0.0, 0.0, 0.0, 0.0, 0.0, 0.0, 0.0, 0.0, 1.6635925192966287E9, 0.0, 2022-09-19 18:01:59.296
6.0, 12031.47465365823, 15205.176497122824, -74463.20497551025, -17943.913393487142, -57843.67714448895, -187500.02235174447, -40847.85769556257, -26503.715098347082, 0.504, -0.862, 0.154, 192.0, 0.0, 0.0, 0.0, 0.0, 0.0, 0.0, 0.0, 0.0, 0.0, 1.6635925193006363E9, 0.0, 2022-09-19 18:01:59.300
7.0, 11802.682197413707, 15073.79294321453, -74367.29364005252, -17877.39460198815, -57736.299364125654, -187500.02235174447, -40831.049183732175, -26419.694890939583, 0.504, -0.862, 0.154, 192.0, 0.0, 0.0, 0.0, 0.0, 0.0, 0.0, 0.0, 0.0, 0.0, 1.6635925193046532E9, 0.0, 2022-09-19 18:01:59.304
8.0, 11685.313187278889, 15010.06811977245, -74314.11883999335, -17821.895220505623, -57692.4675932488, -187500.02235174447, -40758.36131076352, -26362.563832111817, 0.494, -0.858, 0.178, 192.0, 15.0, 112.0, 229.0, 48.0, 5.0, 144.0, 0.0, 0.0, 0.0, 1.6635925193095896E9, 0.0, 2022-09-19 18:01:59.309
9.0, 11746.020525219505, 15043.64043994432, -74347.31118050948, -17839.620153858683, -57730.510262311735, -187500.02235174447, -40747.990101336254, -26379.70762010904, 0.494, -0.858, 0.178, 192.0, 0.0, 0.0, 0.0, 0.0, 0.0, 0.0, 0.0, 0.0, 0.0, 1.663592519313586E9, 0.0, 2022-09-19 18:01:59.313
10.0, 11936.926774612282, 15146.972554561205, -74438.52864963158, -17901.98152088899, -57831.98718213883, -187500.02235174447, -40796.29222110417, -26482.704458559092, 0.494, -0.858, 0.178, 192.0, 0.0, 0.0, 0.0, 0.0, 0.0, 0.0, 0.0, 0.0, 0.0, 1.6635925193176603E9, 0.0, 2022-09-19 18:01:59.317
11.0, 12007.312417902043, 15179.71786018823, -74479.2758797736, -17942.572288819825, -57872.80146751422, -187500.02235174447, -40880.71475991187, -26524.412813712697, 0.494, -0.858, 0.178, 192.0, 0.0, 0.0, 0.0, 0.0, 0.0, 0.0, 0.0, 0.0, 0.0, 1.663592519321674E9, 0.0, 2022-09-19 18:01:59.321
12.0, 11795.775508377017, 15059.890158163329, -74376.301393068, -17869.72795363998, -57760.75217255976, -187500.02235174447, -40862.095756780596, -26409.971882101523, 0.494, -0.858, 0.178, 192.0, 0.0, 0.0, 0.0, 0.0, 0.0, 0.0, 0.0, 0.0, 0.0, 1.6635925193256855E9, 0.0, 2022-09-19 18:01:59.325
13.0, 11696.623169973276, 15016.125442519839, -74331.35203496838, -17824.599781584715, -57723.91649769741, -187500.02235174447, -40783.305857575644, -26370.118721737712, 0.494, -0.858, 0.178, 192.0, 0.0, 0.0, 0.0, 0.0, 0.0, 0.0, 0.0, 0.0, 0.0, 1.6635925193286307E9, 0.0, 2022-09-19 18:01:59.328
14.0, 11757.486970125077, 15061.11950410837, -74350.77570090005, -17826.298514163318, -57759.99221324828, -187500.02235174447, -40751.633435682474, -26396.471428450517, 0.494, -0.858, 0.178, 192.0, 0.0, 0.0, 0.0, 0.0, 0.0, 0.0, 0.0, 0.0, 0.0, 1.6635925193327227E9, 0.0, 2022-09-19 18:01:59.332
15.0, 11946.493321239153, 15165.457447225745, -74448.85515556994, -17897.131192342185, -57865.917130221984, -187500.02235174447, -40797.61097402704, -26489.879368529248, 0.494, -0.858, 0.178, 192.0, 0.0, 0.0, 0.0, 0.0, 0.0, 0.0, 0.0, 0.0, 0.0, 1.6635925193376195E9, 0.0, 2022-09-19 18:01:59.337
16.0, 12006.060720212547, 15182.444773011777, -74488.10481883345, -17941.45470159706, -57902.88691555106, -187500.02235174447, -40879.82069013366, -26515.919150819678, 0.494, -0.858, 0.178, 192.0, 0.0, 0.0, 0.0, 0.0, 0.0, 0.0, 0.0, 0.0, 0.0, 1.663592519341672E9, 0.0, 2022-09-19 18:01:59.341
17.0, 11781.872723325816, 15056.246823817113, -74367.11482609688, -17864.63175590417, -57788.736556617805, -187500.02235174447, -40823.76251503974, -26412.899960625167, 0.494, -0.858, 0.178, 192.0, 0.0, 0.0, 0.0, 0.0, 0.0, 0.0, 0.0, 0.0, 0.0, 1.6635925193456416E9, 0.0, 2022-09-19 18:01:59.345
18.0, 11696.109079850803, 15020.97577106664, -74327.28401747752, -17807.00895869839, -57751.45384686635, -187500.02235174447, -40763.27869454369, -26352.259677917922, 0.492, -0.86, 0.192, 192.0, 15.0, 96.0, 229.0, 32.0, 6.0, 0.0, 0.0, 0.0, 0.0, 1.6635925193498003E9, 0.0, 2022-09-19 18:01:59.349
19.0, 11774.80957207794, 15066.416867544278, -74369.52881449804, -17818.453051859506, -57807.86964987155, -187500.02235174447, -40774.81219468262, -26390.16823651412, 0.492, -0.86, 0.192, 192.0, 0.0, 0.0, 0.0, 0.0, 0.0, 0.0, 0.0, 0.0, 0.0, 1.6635925193527243E9, 0.0, 2022-09-19 18:01:59.352
20.0, 11966.02874589309, 15173.839351396484, -74464.36726622192, -17891.699718439548, -57922.91407858302, -187500.02235174447, -40805.43408458639, -26485.163150449178, 0.492, -0.86, 0.192, 192.0, 0.0, 0.0, 0.0, 0.0, 0.0, 0.0, 0.0, 0.0, 0.0, 1.6635925193567388E9, 0.0, 2022-09-19 18:01:59.356
21.0, 11984.111307157435, 15184.165857334836, -74484.86381588744, -17910.922218671112, -57945.91402362753, -187500.02235174447, -40864.50974518177, -26498.216569211076, 0.492, -0.86, 0.192, 192.0, 0.0, 0.0, 0.0, 0.0, 0.0, 0.0, 0.0, 0.0, 0.0, 1.6635925193606758E9, 0.0, 2022-09-19 18:01:59.360
22.0, 11753.486007867576, 15052.581137726444, -74378.4024570468, -17841.073017248276, -57832.34481005011, -187500.02235174447, -40829.39515464249, -26402.864027364736, 0.492, -0.86, 0.192, 192.0, 0.0, 0.0, 0.0, 0.0, 0.0, 0.0, 0.0, 0.0, 0.0, 1.663592519365823E9, 0.0, 2022-09-19 18:01:59.365
23.0, 11704.714501466096, 15021.556916422478, -74345.7465583976, -17808.99826395491, -57798.951303833885, -187500.02235174447, -40787.48563378878, -26379.17117824211, 0.492, -0.86, 0.192, 192.0, 0.0, 0.0, 0.0, 0.0, 0.0, 0.0, 0.0, 0.0, 0.0, 1.6635925193697245E9, 0.0, 2022-09-19 18:01:59.369
24.0, 11809.521831217031, 15069.479056534656, -74386.53849202854, -17827.95254325301, -57838.58094675314, -187500.02235174447, -40792.604183269046, -26417.638530449694, 0.492, -0.86, 0.192, 192.0, 0.0, 0.0, 0.0, 0.0, 0.0, 0.0, 0.0, 0.0, 0.0, 1.6635925193737304E9, 0.0, 2022-09-19 18:01:59.373
25.0, 12020.09761573048, 15173.504075229655, -74479.7229146627, -17894.20311381854, -57932.055942065235, -187500.02235174447, -40825.28243366271, -26508.63248212725, 0.492, -0.86, 0.192, 192.0, 0.0, 0.0, 0.0, 0.0, 0.0, 0.0, 0.0, 0.0, 0.0, 1.6635925193777096E9, 0.0, 2022-09-19 18:01:59.377
26.0, 12033.039275770101, 15171.961804862238, -74486.96487986624, -17918.298294341363, -57938.11326481262, -187500.02235174447, -40881.4970709678, -26502.99984252451, 0.492, -0.86, 0.192, 192.0, 0.0, 0.0, 0.0, 0.0, 0.0, 0.0, 0.0, 0.0, 0.0, 1.6635925193818085E9, 0.0, 2022-09-19 18:01:59.381
27.0, 11799.463546212142, 15042.299335277003, -74367.22658481916, -17835.350970667718, -57817.52560347624, -187500.02235174447, -40815.87234924702, -26404.36159424324, 0.492, -0.86, 0.192, 192.0, 0.0, 0.0, 0.0, 0.0, 0.0, 0.0, 0.0, 0.0, 0.0, 1.663592519384761E9, 0.0, 2022-09-19 18:01:59.384
28.0, 11718.84080396185, 15019.232334999126, -74329.25097098958, -17779.628071740637, -57782.656882125964, -187500.02235174447, -40730.98042380577, -26378.83590207528, 0.484, -0.86, 0.198, 192.0, 15.0, 32.0, 229.0, 32.0, 6.0, 48.0, 0.0, 0.0, 0.0, 1.6635925193887453E9, 0.0, 2022-09-19 18:01:59.388
29.0, 11790.567551918932, 15075.894007193328, -74363.78441617303, -17778.778705451336, -57825.81810066916, -187500.02235174447, -40711.40029566292, -26391.777562114905, 0.484, -0.86, 0.198, 192.0, 0.0, 0.0, 0.0, 0.0, 0.0, 0.0, 0.0, 0.0, 0.0, 1.6635925193927767E9, 0.0, 2022-09-19 18:01:59.392
30.0, 12007.75945279115, 15190.223180082225, -74460.2768969866, -17845.00692427241, -57929.3737327306, -187500.02235174447, -40768.285485301676, -26491.220473196565, 0.484, -0.86, 0.198, 192.0, 0.0, 0.0, 0.0, 0.0, 0.0, 0.0, 0.0, 0.0, 0.0, 1.6635925193978E9, 0.0, 2022-09-19 18:01:59.397
31.0, 12017.728330818216, 15178.779086921108, -74482.67334493081, -17872.700735652536, -57938.8732241241, -187500.02235174447, -40853.0433002762, -26499.021232011466, 0.484, -0.86, 0.198, 192.0, 0.0, 0.0, 0.0, 0.0, 0.0, 0.0, 0.0, 0.0, 0.0, 1.6635925194017384E9, 0.0, 2022-09-19 18:01:59.401
32.0, 11780.062232024937, 15055.710381950186, -74359.93991612672, -17801.152801651097, -57816.96680986486, -187500.02235174447, -40786.61391575503, -26391.732858625994, 0.484, -0.86, 0.198, 192.0, 0.0, 0.0, 0.0, 0.0, 0.0, 0.0, 0.0, 0.0, 0.0, 1.663592519405732E9, 0.0, 2022-09-19 18:01:59.405
33.0, 11715.97978067157, 15040.98058235414, -74326.27818897703, -17772.296699559298, -57785.16027750496, -187500.02235174447, -40726.755944103716, -26371.21395721602, 0.484, -0.86, 0.198, 192.0, 0.0, 0.0, 0.0, 0.0, 0.0, 0.0, 0.0, 0.0, 0.0, 1.6635925194087975E9, 0.0, 2022-09-19 18:01:59.408
34.0, 11804.358578247855, 15098.93865572675, -74371.98750638813, -17775.13537110512, -57832.65773447249, -187500.02235174447, -40739.67525239888, -26416.342129271285, 0.484, -0.86, 0.198, 192.0, 0.0, 0.0, 0.0, 0.0, 0.0, 0.0, 0.0, 0.0, 0.0, 1.6635925194127913E9, 0.0, 2022-09-19 18:01:59.412
35.0, 12016.498984873175, 15209.110404146959, -74480.326411763, -17842.280011448864, -57935.967497344915, -187500.02235174447, -40813.145436423474, -26505.167961736675, 0.484, -0.86, 0.198, 192.0, 0.0, 0.0, 0.0, 0.0, 0.0, 0.0, 0.0, 0.0, 0.0, 1.66359251941681E9, 0.0, 2022-09-19 18:01:59.416
36.0, 12000.495135843175, 15192.011319638648, -74479.16412105133, -17865.101142537733, -57929.261974008325, -187500.02235174447, -40872.66813190796, -26502.15047623521, 0.484, -0.86, 0.198, 192.0, 0.0, 0.0, 0.0, 0.0, 0.0, 0.0, 0.0, 0.0, 0.0, 1.6635925194208615E9, 0.0, 2022-09-19 18:01:59.420
37.0, 11762.829037049894, 15061.432428530745, -74368.43357901974, -17793.48615330293, -57814.195193552405, -187500.02235174447, -40809.70326777736, -26397.812533117838, 0.484, -0.86, 0.198, 192.0, 0.0, 0.0, 0.0, 0.0, 0.0, 0.0, 0.0, 0.0, 0.0, 1.663592519425787E9, 0.0, 2022-09-19 18:01:59.425
38.0, 11727.580336043875, 15051.575309225955, -74358.7552736706, -17766.105266345177, -57787.82013509514, -187500.02235174447, -40786.34569482156, -26391.1293615257, 0.48, -0.858, 0.20600000000000002, 192.0, 15.0, 0.0, 229.0, 48.0, 6.0, 112.0, 0.0, 0.0, 0.0, 1.6635925194297576E9, 0.0, 2022-09-19 18:01:59.429
39.0, 11831.2924303165, 15118.474080380689, -74403.90579747032, -17775.76121994987, -57834.669391473464, -187500.02235174447, -40786.50215703275, -26421.751251429472, 0.48, -0.858, 0.20600000000000002, 192.0, 0.0, 0.0, 0.0, 0.0, 0.0, 0.0, 0.0, 0.0, 0.0, 1.6635925194338992E9, 0.0, 2022-09-19 18:01:59.433
40.0, 12038.940136306303, 15230.881003246428, -74491.54698747957, -17833.875755533667, -57935.18518628898, -187500.02235174447, -40803.31066886314, -26520.613017155294, 0.48, -0.858, 0.20600000000000002, 192.0, 0.0, 0.0, 0.0, 0.0, 0.0, 0.0, 0.0, 0.0, 0.0, 1.6635925194369152E9, 0.0, 2022-09-19 18:01:59.436
41.0, 11986.972330447714, 15200.661444742853, -74464.32256273301, -17823.951580995512, -57907.53607839777, -187500.02235174447, -40823.918977250934, -26514.935674063647, 0.48, -0.858, 0.20600000000000002, 192.0, 0.0, 0.0, 0.0, 0.0, 0.0, 0.0, 0.0, 0.0, 0.0, 1.6635925194408567E9, 0.0, 2022-09-19 18:01:59.440
42.0, 11733.347086113345, 15068.562635011987, -74354.48609047962, -17742.41241722255, -57785.42849843842, -187500.02235174447, -40778.7237499623, -26397.521960439917, 0.48, -0.858, 0.20600000000000002, 192.0, 0.0, 0.0, 0.0, 0.0, 0.0, 0.0, 0.0, 0.0, 0.0, 1.6635925194448507E9, 0.0, 2022-09-19 18:01:59.444
43.0, 11704.625094488276, 15061.566538997477, -74345.07600606394, -17742.814748622746, -57774.09616399958, -187500.02235174447, -40743.810325123115, -26383.865044577724, 0.48, -0.858, 0.20600000000000002, 192.0, 0.0, 0.0, 0.0, 0.0, 0.0, 0.0, 0.0, 0.0, 0.0, 1.663592519448832E9, 0.0, 2022-09-19 18:01:59.448
44.0, 11808.270133527534, 15136.981324789684, -74383.38689606034, -17786.691222988513, -57834.11059786208, -187500.02235174447, -40723.805513835614, -26435.251705080474, 0.48, -0.858, 0.20600000000000002, 192.0, 0.0, 0.0, 0.0, 0.0, 0.0, 0.0, 0.0, 0.0, 0.0, 1.66359251945386E9, 0.0, 2022-09-19 18:01:59.453
45.0, 12009.838165025492, 15243.35327665249, -74486.94252812178, -17846.392732428638, -57939.78964564677, -187500.02235174447, -40792.85005245806, -26508.788944338437, 0.48, -0.858, 0.20600000000000002, 192.0, 0.0, 0.0, 0.0, 0.0, 0.0, 0.0, 0.0, 0.0, 0.0, 1.663592519457856E9, 0.0, 2022-09-19 18:01:59.457
46.0, 11958.31739405601, 15194.559418506555, -74479.52174896262, -17848.404389429616, -57921.23769774887, -187500.02235174447, -40866.633160905025, -26486.52660686095, 0.48, -0.858, 0.20600000000000002, 192.0, 0.0, 0.0, 0.0, 0.0, 0.0, 0.0, 0.0, 0.0, 0.0, 1.6635925194618428E9, 0.0, 2022-09-19 18:01:59.461
47.0, 11725.591030787353, 15067.422696044767, -74357.34711376991, -17752.336591760708, -57800.47122245684, -187500.02235174447, -40795.44285481487, -26388.22363474651, 0.48, -0.858, 0.20600000000000002, 192.0, 0.0, 0.0, 0.0, 0.0, 0.0, 0.0, 0.0, 0.0, 0.0, 1.6635925194649096E9, 0.0, 2022-09-19 18:01:59.464
48.0, 11707.12848986727, 15067.467399533678, -74338.37048272735, -17726.185050747998, -57779.88526581351, -187500.02235174447, -40763.74808117725, -26374.656125862137, 0.47800000000000004, -0.86, 0.20600000000000002, 192.0, 14.0, 240.0, 229.0, 32.0, 6.0, 112.0, 0.0, 0.0, 0.0, 1.6635925194689016E9, 0.0, 2022-09-19 18:01:59.468
49.0, 11816.048540597982, 15133.405045676835, -74381.7105152262, -17758.37156276364, -57835.63051648504, -187500.02235174447, -40765.80444166713, -26407.93787335609, 0.47800000000000004, -0.86, 0.20600000000000002, 192.0, 0.0, 0.0, 0.0, 0.0, 0.0, 0.0, 0.0, 0.0, 0.0, 1.6635925194729269E9, 0.0, 2022-09-19 18:01:59.472
50.0, 12001.210391665745, 15233.317343392057, -74476.61602218343, -17828.690150820035, -57942.337744514676, -187500.02235174447, -40805.50113981976, -26490.885197029736, 0.47800000000000004, -0.86, 0.20600000000000002, 192.0, 0.0, 0.0, 0.0, 0.0, 0.0, 0.0, 0.0, 0.0, 0.0, 1.6635925194769645E9, 0.0, 2022-09-19 18:01:59.476
51.0, 11912.853945833916, 15184.836409668496, -74438.39453916484, -17818.363644881683, -57899.86943004959, -187500.02235174447, -40825.952985996366, -26476.356563133784, 0.47800000000000004, -0.86, 0.20600000000000002, 192.0, 0.0, 0.0, 0.0, 0.0, 0.0, 0.0, 0.0, 0.0, 0.0, 1.6635925194809444E9, 0.0, 2022-09-19 18:01:59.480
52.0, 11698.679530463163, 15066.327460566457, -74319.57266564044, -17733.561126418248, -57774.52084714423, -187500.02235174447, -40751.074642071086, -26361.513300122417, 0.47800000000000004, -0.86, 0.20600000000000002, 192.0, 0.0, 0.0, 0.0, 0.0, 0.0, 0.0, 0.0, 0.0, 0.0, 1.6635925194859653E9, 0.0, 2022-09-19 18:01:59.485
53.0, 11702.881658420762, 15063.824065187464, -74315.72816559412, -17712.21521046343, -57764.70843132835, -187500.02235174447, -40738.848237854036, -26347.610515071217, 0.47800000000000004, -0.86, 0.20600000000000002, 192.0, 0.0, 0.0, 0.0, 0.0, 0.0, 0.0, 0.0, 0.0, 0.0, 1.6635925194899304E9, 0.0, 2022-09-19 18:01:59.489
54.0, 11860.863788230872, 15143.977420804194, -74385.46560829469, -17758.639783697105, -57827.27096405876, -187500.02235174447, -40779.237840084774, -26413.928140870114, 0.47800000000000004, -0.86, 0.20600000000000002, 192.0, 0.0, 0.0, 0.0, 0.0, 0.0, 0.0, 0.0, 0.0, 0.0, 1.66359251949295E9, 0.0, 2022-09-19 18:01:59.492
55.0, 12070.634909943929, 15265.54855889661, -74473.44207447077, -17841.52005213738, -57922.2211745049, -187500.02235174447, -40824.32130865113, -26501.256406456996, 0.47800000000000004, -0.86, 0.20600000000000002, 192.0, 0.0, 0.0, 0.0, 0.0, 0.0, 0.0, 0.0, 0.0, 0.0, 1.6635925194969232E9, 0.0, 2022-09-19 18:01:59.496
56.0, 11960.999603390646, 15200.840258698496, -74417.1603819323, -17815.457918102493, -57869.98514771285, -187500.02235174447, -40824.768343540236, -26459.793920492404, 0.47800000000000004, -0.86, 0.20600000000000002, 192.0, 0.0, 0.0, 0.0, 0.0, 0.0, 0.0, 0.0, 0.0, 0.0, 1.663592519500991E9, 0.0, 2022-09-19 18:01:59.500
57.0, 11716.963257427604, 15066.819198944475, -74303.94879626618, -17702.78277430329, -57757.01943123573, -187500.02235174447, -40735.137848274455, -26352.59495408475, 0.47800000000000004, -0.86, 0.20600000000000002, 192.0, 0.0, 0.0, 0.0, 0.0, 0.0, 0.0, 0.0, 0.0, 0.0, 1.6635925195049405E9, 0.0, 2022-09-19 18:01:59.504
58.0, 11682.608626199797, 15058.303184307002, -74308.01681375704, -17694.624387577103, -57760.90863477095, -187500.02235174447, -40709.58980436204, -26349.666875561106, 0.484, -0.858, 0.20600000000000002, 192.0, 15.0, 32.0, 229.0, 48.0, 6.0, 112.0, 0.0, 0.0, 0.0, 1.6635925195089748E9, 0.0, 2022-09-19 18:01:59.508
59.0, 11835.62866874083, 15144.536214415577, -74381.73286697065, -17738.858489854156, -57825.39341752451, -187500.02235174447, -40752.63926418296, -26404.13807679869, 0.484, -0.858, 0.20600000000000002, 192.0, 0.0, 0.0, 0.0, 0.0, 0.0, 0.0, 0.0, 0.0, 0.0, 1.663592519513969E9, 0.0, 2022-09-19 18:01:59.513
60.0, 12063.214130784767, 15266.196759485812, -74486.51784497713, -17821.17996468305, -57925.10454953963, -187500.02235174447, -40823.31548015064, -26497.9036447887, 0.484, -0.858, 0.20600000000000002, 192.0, 0.0, 0.0, 0.0, 0.0, 0.0, 0.0, 0.0, 0.0, 0.0, 1.6635925195180278E9, 0.0, 2022-09-19 18:01:59.518
61.0, 11957.803303933539, 15206.67406400133, -74432.80660305102, -17805.086708675233, -57862.16203715349, -187500.02235174447, -40835.7877535567, -26448.66275175366, 0.484, -0.858, 0.20600000000000002, 192.0, 0.0, 0.0, 0.0, 0.0, 0.0, 0.0, 0.0, 0.0, 0.0, 1.6635925195210097E9, 0.0, 2022-09-19 18:01:59.521
62.0, 11743.964164729616, 15087.963949199195, -74316.33166269441, -17722.720530357426, -57745.597689819064, -187500.02235174447, -40744.14560128994, -26323.001244425923, 0.484, -0.858, 0.20600000000000002, 192.0, 0.0, 0.0, 0.0, 0.0, 0.0, 0.0, 0.0, 0.0, 0.0, 1.6635925195250006E9, 0.0, 2022-09-19 18:01:59.525
63.0, 11738.219766404602, 15087.762783499096, -74316.62223537234, -17699.385309146084, -57742.13316942849, -187500.02235174447, -40709.92508052887, -26330.623189285183, 0.484, -0.858, 0.20600000000000002, 192.0, 0.0, 0.0, 0.0, 0.0, 0.0, 0.0, 0.0, 0.0, 0.0, 1.6635925195300367E9, 0.0, 2022-09-19 18:01:59.530
64.0, 11879.862771017883, 15179.539046232589, -74380.16824485878, -17728.84490833818, -57803.6451701695, -187500.02235174447, -40725.6607086254, -26396.449076706063, 0.484, -0.858, 0.20600000000000002, 192.0, 0.0, 0.0, 0.0, 0.0, 0.0, 0.0, 0.0, 0.0, 0.0, 1.6635925195330417E9, 0.0, 2022-09-19 18:01:59.533
65.0, 12073.540636723119, 15275.137457267936, -74485.3779060099, -17802.315092362773, -57903.73628184036, -187500.02235174447, -40815.06768644663, -26488.80648479539, 0.484, -0.858, 0.20600000000000002, 192.0, 0.0, 0.0, 0.0, 0.0, 0.0, 0.0, 0.0, 0.0, 0.0, 1.6635925195370417E9, 0.0, 2022-09-19 18:01:59.537
66.0, 11938.31258276851, 15199.253284842169, -74434.34887341844, -17778.62224324015, -57846.761685223784, -187500.02235174447, -40855.05495727718, -26444.751196473982, 0.484, -0.858, 0.20600000000000002, 192.0, 0.0, 0.0, 0.0, 0.0, 0.0, 0.0, 0.0, 0.0, 0.0, 1.6635925195410297E9, 0.0, 2022-09-19 18:01:59.541
67.0, 11736.006943703527, 15096.6140743034, -74342.5502589405, -17707.54369587227, -57743.51897758472, -187500.02235174447, -40798.10271240505, -26348.057549960322, 0.484, -0.858, 0.20600000000000002, 192.0, 0.0, 0.0, 0.0, 0.0, 0.0, 0.0, 0.0, 0.0, 0.0, 1.663592519545041E9, 0.0, 2022-09-19 18:01:59.545
68.0, 11746.892243253262, 15112.70733031122, -74336.02354955954, -17698.02185273431, -57746.782332275194, -187500.02235174447, -40734.579054663074, -26345.17417492559, 0.482, -0.856, 0.212, 192.0, 15.0, 16.0, 229.0, 64.0, 6.0, 160.0, 0.0, 0.0, 0.0, 1.6635925195491166E9, 0.0, 2022-09-19 18:01:59.549
69.0, 11878.365204139376, 15191.094898115982, -74385.66677399479, -17743.37354223413, -57815.804519153186, -187500.02235174447, -40709.58980436204, -26412.832905391802, 0.482, -0.856, 0.212, 192.0, 0.0, 0.0, 0.0, 0.0, 0.0, 0.0, 0.0, 0.0, 0.0, 1.6635925195530581E9, 0.0, 2022-09-19 18:01:59.553
70.0, 12059.883720860926, 15284.2569690057, -74480.50522571865, -17815.301455891306, -57912.94520055595, -187500.02235174447, -40785.31751457662, -26491.220473196565, 0.482, -0.856, 0.212, 192.0, 0.0, 0.0, 0.0, 0.0, 0.0, 0.0, 0.0, 0.0, 0.0, 1.663592519558045E9, 0.0, 2022-09-19 18:01:59.558
71.0, 11914.55267841252, 15199.141526119893, -74416.60158832093, -17787.540589277814, -57844.191234611426, -187500.02235174447, -40813.10073293457, -26424.589922975294, 0.482, -0.856, 0.212, 192.0, 0.0, 0.0, 0.0, 0.0, 0.0, 0.0, 0.0, 0.0, 0.0, 1.6635925195610592E9, 0.0, 2022-09-19 18:01:59.561
72.0, 11714.951600426628, 15095.205914402713, -74322.1431162528, -17711.946989529966, -57746.49175959728, -187500.02235174447, -40748.88417111447, -26343.40838711362, 0.482, -0.856, 0.212, 192.0, 0.0, 0.0, 0.0, 0.0, 0.0, 0.0, 0.0, 0.0, 0.0, 1.6635925195651731E9, 0.0, 2022-09-19 18:01:59.565
73.0, 11732.385961101767, 15116.171850701792, -74332.15669776878, -17704.50385862635, -57754.80660853465, -187500.02235174447, -40734.35553721852, -26346.917610993103, 0.482, -0.856, 0.212, 192.0, 0.0, 0.0, 0.0, 0.0, 0.0, 0.0, 0.0, 0.0, 0.0, 1.663592519569082E9, 0.0, 2022-09-19 18:01:59.569
74.0, 11880.64508207382, 15201.287293587602, -74404.84457073743, -17750.012010337356, -57828.589716981616, -187500.02235174447, -40762.85401139904, -26417.727937427517, 0.482, -0.856, 0.212, 192.0, 0.0, 0.0, 0.0, 0.0, 0.0, 0.0, 0.0, 0.0, 0.0, 1.6635925195730798E9, 0.0, 2022-09-19 18:01:59.573
75.0, 12061.761267395172, 15285.3075009951, -74496.77729568211, -17815.323807635763, -57922.73526462737, -187500.02235174447, -40854.0938322656, -26497.188388966133, 0.482, -0.856, 0.212, 192.0, 0.0, 0.0, 0.0, 0.0, 0.0, 0.0, 0.0, 0.0, 0.0, 1.663592519577118E9, 0.0, 2022-09-19 18:01:59.577
76.0, 11907.198954486723, 15192.346595805479, -74426.48105937017, -17783.405516553583, -57853.824836471664, -187500.02235174447, -40871.77406212975, -26420.074870595323, 0.482, -0.856, 0.212, 192.0, 0.0, 0.0, 0.0, 0.0, 0.0, 0.0, 0.0, 0.0, 0.0, 1.6635925195812044E9, 0.0, 2022-09-19 18:01:59.581
77.0, 11708.514298023498, 15096.882295236863, -74322.61250288636, -17711.969341274424, -57766.45186739587, -187500.02235174447, -40769.805403924634, -26345.107119692224, 0.482, -0.856, 0.212, 192.0, 0.0, 0.0, 0.0, 0.0, 0.0, 0.0, 0.0, 0.0, 0.0, 1.6635925195861385E9, 0.0, 2022-09-19 18:01:59.586
78.0, 11718.37141732829, 15119.211687947714, -74313.71650859315, -17700.011157990833, -57772.97857677682, -187500.02235174447, -40715.40125792042, -26351.07503546179, 0.482, -0.856, 0.212, 192.0, 0.0, 0.0, 0.0, 0.0, 0.0, 0.0, 0.0, 0.0, 0.0, 1.6635925195891483E9, 0.0, 2022-09-19 18:01:59.589
79.0, 11870.139762179824, 15198.15804936386, -74379.36358205839, -17722.452309423963, -57849.980336425346, -187500.02235174447, -40739.92112158789, -26418.57730371682, 0.492, -0.86, 0.212, 192.0, 15.0, 96.0, 229.0, 32.0, 6.0, 160.0, 0.0, 0.0, 0.0, 1.663592519593115E9, 0.0, 2022-09-19 18:01:59.593
80.0, 12035.497967660185, 15267.73902985323, -74467.51886219012, -17789.216970111964, -57946.89750038356, -187500.02235174447, -40831.76443955475, -26499.62472911176, 0.492, -0.86, 0.212, 192.0, 0.0, 0.0, 0.0, 0.0, 0.0, 0.0, 0.0, 0.0, 0.0, 1.6635925195971956E9, 0.0, 2022-09-19 18:01:59.597
81.0, 11865.334137121932, 15158.327240744502, -74386.82906470646, -17748.46973996994, -57860.329194108155, -187500.02235174447, -40840.25810244776, -26426.020434620434, 0.492, -0.86, 0.212, 192.0, 0.0, 0.0, 0.0, 0.0, 0.0, 0.0, 0.0, 0.0, 0.0, 1.6635925196011376E9, 0.0, 2022-09-19 18:01:59.601
82.0, 11689.716480936586, 15068.830855945453, -74301.80302879847, -17686.845980506656, -57774.16321923295, -187500.02235174447, -40760.663540442416, -26354.807776785827, 0.492, -0.86, 0.212, 192.0, 0.0, 0.0, 0.0, 0.0, 0.0, 0.0, 0.0, 0.0, 0.0, 1.6635925196051776E9, 0.0, 2022-09-19 18:01:59.605
83.0, 11724.898126709239, 15107.052338964028, -74323.81949708695, -17677.145323413053, -57799.577152678634, -187500.02235174447, -40749.53237170367, -26352.572602340297, 0.492, -0.86, 0.212, 192.0, 0.0, 0.0, 0.0, 0.0, 0.0, 0.0, 0.0, 0.0, 0.0, 1.663592519609104E9, 0.0, 2022-09-19 18:01:59.609
84.0, 11904.561448640998, 15225.024846199138, -74390.58415777495, -17719.948914044966, -57881.00455772931, -187500.02235174447, -40771.86176441453, -26430.446080022586, 0.492, -0.86, 0.212, 192.0, 0.0, 0.0, 0.0, 0.0, 0.0, 0.0, 0.0, 0.0, 0.0, 1.6635925196141822E9, 0.0, 2022-09-19 18:01:59.614
85.0, 12064.711697663271, 15312.286056552657, -74460.6792283868, -17784.85837994318, -57958.16277958904, -187500.02235174447, -40843.499105393785, -26512.67814787366, 0.492, -0.86, 0.212, 192.0, 0.0, 0.0, 0.0, 0.0, 0.0, 0.0, 0.0, 0.0, 0.0, 1.6635925196171649E9, 0.0, 2022-09-19 18:01:59.617
86.0, 11878.454611117199, 15199.834430198007, -74388.59485251842, -17734.209327007455, -57873.829647759165, -187500.02235174447, -40858.78769860121, -26446.04759765239, 0.492, -0.86, 0.212, 192.0, 0.0, 0.0, 0.0, 0.0, 0.0, 0.0, 0.0, 0.0, 0.0, 1.663592519621172E9, 0.0, 2022-09-19 18:01:59.621
87.0, 11699.283027563457, 15117.021216991094, -74312.12953473683, -17665.723581996393, -57795.375024721034, -187500.02235174447, -40784.78107270969, -26368.04000950337, 0.492, -0.86, 0.212, 192.0, 0.0, 0.0, 0.0, 0.0, 0.0, 0.0, 0.0, 0.0, 0.0, 1.6635925196252255E9, 0.0, 2022-09-19 18:01:59.625
88.0, 11710.972989913582, 15139.529423657588, -74338.97397982764, -17672.11618091061, -57814.128138319036, -187500.02235174447, -40784.64696224296, -26362.78734955637, 0.492, -0.86, 0.212, 192.0, 0.0, 0.0, 0.0, 0.0, 0.0, 0.0, 0.0, 0.0, 0.0, 1.6635925196292884E9, 0.0, 2022-09-19 18:01:59.629
89.0, 11896.44776540372, 15240.268735917656, -74427.88921927086, -17743.597059678683, -57906.59730513064, -187500.02235174447, -40829.35045115357, -26446.405225563674, 0.496, -0.858, 0.2, 192.0, 15.0, 128.0, 229.0, 48.0, 6.0, 64.0, 0.0, 0.0, 0.0, 1.663592519633201E9, 0.0, 2022-09-19 18:01:59.633
90.0, 12065.762229652672, 15323.707797969319, -74501.15823759536, -17841.96708702649, -57984.04609966828, -187500.02235174447, -40903.558242745195, -26539.097909819833, 0.496, -0.858, 0.2, 192.0, 0.0, 0.0, 0.0, 0.0, 0.0, 0.0, 0.0, 0.0, 0.0, 1.6635925196371658E9, 0.0, 2022-09-19 18:01:59.637
91.0, 11878.856942517394, 15220.77801475263, -74398.69784101222, -17773.57074899325, -57885.94429325394, -187500.02235174447, -40865.20264925989, -26442.158394117167, 0.496, -0.858, 0.2, 192.0, 0.0, 0.0, 0.0, 0.0, 0.0, 0.0, 0.0, 0.0, 0.0, 1.6635925196421711E9, 0.0, 2022-09-19 18:01:59.642
92.0, 11702.009940387004, 15133.785025332574, -74321.71843310815, -17683.336756627174, -57819.090225588116, -187500.02235174447, -40762.87636314349, -26382.814512588324, 0.496, -0.858, 0.2, 192.0, 0.0, 0.0, 0.0, 0.0, 0.0, 0.0, 0.0, 0.0, 0.0, 1.6635925196452012E9, 0.0, 2022-09-19 18:01:59.645
93.0, 11716.627981260775, 15147.844272594963, -74337.45406120468, -17671.132704154577, -57845.28647008973, -187500.02235174447, -40727.85117958202, -26386.860178334737, 0.496, -0.858, 0.2, 192.0, 0.0, 0.0, 0.0, 0.0, 0.0, 0.0, 0.0, 0.0, 0.0, 1.6635925196492693E9, 0.0, 2022-09-19 18:01:59.649
94.0, 11880.175695440257, 15234.367875381457, -74423.93296050226, -17730.878917083613, -57929.64195366406, -187500.02235174447, -40770.74417719176, -26465.113635672766, 0.496, -0.858, 0.2, 192.0, 0.0, 0.0, 0.0, 0.0, 0.0, 0.0, 0.0, 0.0, 0.0, 1.663592519653222E9, 0.0, 2022-09-19 18:01:59.653
95.0, 12025.126758232924, 15294.158791799402, -74494.36330728095, -17793.687319003024, -57995.467841084945, -187500.02235174447, -40859.25708523477, -26534.1134708063, 0.496, -0.858, 0.2, 192.0, 0.0, 0.0, 0.0, 0.0, 0.0, 0.0, 0.0, 0.0, 0.0, 1.6635925196571558E9, 0.0, 2022-09-19 18:01:59.657
96.0, 11846.268099101557, 15187.630377725409, -74403.97285270368, -17739.2384695099, -57895.622598603084, -187500.02235174447, -40854.56321889916, -26448.79686222039, 0.496, -0.858, 0.2, 192.0, 0.0, 0.0, 0.0, 0.0, 0.0, 0.0, 0.0, 0.0, 0.0, 1.6635925196613424E9, 0.0, 2022-09-19 18:01:59.661
97.0, 11688.911818136194, 15126.051321751038, -74330.27915123453, -17677.88293098008, -57827.62859197004, -187500.02235174447, -40776.935610405875, -26379.84173057577, 0.496, -0.858, 0.2, 192.0, 0.0, 0.0, 0.0, 0.0, 0.0, 0.0, 0.0, 0.0, 0.0, 1.663592519665232E9, 0.0, 2022-09-19 18:01:59.665
98.0, 11729.70375176713, 15161.076505312503, -74350.06044507748, -17680.945119970456, -57854.02600217176, -187500.02235174447, -40752.25928452722, -26387.30721322384, 0.496, -0.858, 0.2, 192.0, 0.0, 0.0, 0.0, 0.0, 0.0, 0.0, 0.0, 0.0, 0.0, 1.6635925196702566E9, 0.0, 2022-09-19 18:01:59.670
99.0, 11937.597326945941, 15272.92463456686, -74429.83382103847, -17740.378408477118, -57937.55447120124, -187500.02235174447, -40783.48467153128, -26480.893967258213, 0.488, -0.862, 0.194, 192.0, 15.0, 64.0, 229.0, 16.0, 6.0, 16.0, 0.0, 0.0, 0.0, 1.663592519673247E9, 0.0, 2022-09-19 18:01:59.673
100.0, 12066.879816875437, 15331.642667250951, -74483.81328389804, -17793.128525391643, -57990.2375328824, -187500.02235174447, -40851.21045723087, -26540.30490402042, 0.488, -0.862, 0.194, 192.0, 0.0, 0.0, 0.0, 0.0, 0.0, 0.0, 0.0, 0.0, 0.0, 1.6635925196762927E9, 0.0, 2022-09-19 18:01:59.676
101.0, 11846.491616546109, 15205.24355235619, -74396.57442528897, -17737.092702042188, -57889.475868877875, -187500.02235174447, -40858.742995112305, -26443.208926106567, 0.488, -0.862, 0.194, 192.0, 0.0, 0.0, 0.0, 0.0, 0.0, 0.0, 0.0, 0.0, 0.0, 1.663592519681229E9, 0.0, 2022-09-19 18:01:59.681
102.0, 11719.041969661948, 15141.764598103118, -74348.2946572655, -17673.993727444857, -57833.37299029506, -187500.02235174447, -40823.53899759519, -26381.965146299022, 0.488, -0.862, 0.194, 192.0, 0.0, 0.0, 0.0, 0.0, 0.0, 0.0, 0.0, 0.0, 0.0, 1.663592519685279E9, 0.0, 2022-09-19 18:01:59.685
103.0, 11780.308101213945, 15183.919988145828, -74382.51517802659, -17702.447498136462, -57870.49923783532, -187500.02235174447, -40840.12399198103, -26419.22550430602, 0.488, -0.862, 0.194, 192.0, 0.0, 0.0, 0.0, 0.0, 0.0, 0.0, 0.0, 0.0, 0.0, 1.6635925196892383E9, 0.0, 2022-09-19 18:01:59.689
104.0, 11982.61374027893, 15294.605826688508, -74465.59661216696, -17787.987624166923, -57974.05486989676, -187500.02235174447, -40858.16184975646, -26525.82097361338, 0.488, -0.862, 0.194, 192.0, 0.0, 0.0, 0.0, 0.0, 0.0, 0.0, 0.0, 0.0, 0.0, 1.6635925196933274E9, 0.0, 2022-09-19 18:01:59.693
105.0, 12063.303537762587, 15330.79330096165, -74496.88905440438, -17820.62117107167, -58029.084864745724, -187500.02235174447, -40864.397986459495, -26548.39623551324, 0.488, -0.862, 0.194, 192.0, 0.0, 0.0, 0.0, 0.0, 0.0, 0.0, 0.0, 0.0, 0.0, 1.6635925196973116E9, 0.0, 2022-09-19 18:01:59.697
106.0, 11812.740482418596, 15197.465145285743, -74380.2576518366, -17730.342475216687, -57917.102625024636, -187500.02235174447, -40809.233881143795, -26428.1885538326, 0.488, -0.862, 0.194, 192.0, 0.0, 0.0, 0.0, 0.0, 0.0, 0.0, 0.0, 0.0, 0.0, 1.6635925197013273E9, 0.0, 2022-09-19 18:01:59.701
107.0, 11683.659158189197, 15140.80347309154, -74303.54646486598, -17661.566157527704, -57851.76847598177, -187500.02235174447, -40716.138865487446, -26364.26256469042, 0.488, -0.862, 0.194, 192.0, 0.0, 0.0, 0.0, 0.0, 0.0, 0.0, 0.0, 0.0, 0.0, 1.663592519704366E9, 0.0, 2022-09-19 18:01:59.704
108.0, 11738.756208271529, 15179.092011343482, -74331.53084892403, -17664.315422095708, -57880.110487951104, -187500.02235174447, -40713.07667649707, -26371.236308960477, 0.488, -0.862, 0.194, 192.0, 0.0, 0.0, 0.0, 0.0, 0.0, 0.0, 0.0, 0.0, 0.0, 1.663592519709305E9, 0.0, 2022-09-19 18:01:59.709
109.0, 11937.820844390493, 15287.676785907363, -74417.98739647715, -17728.84490833818, -57970.81386695074, -187500.02235174447, -40769.939514391364, -26464.733656017026, 0.482, -0.862, 0.202, 192.0, 15.0, 16.0, 229.0, 16.0, 6.0, 80.0, 0.0, 0.0, 0.0, 1.663592519713344E9, 0.0, 2022-09-19 18:01:59.713
110.0, 12035.766188593649, 15327.105263126525, -74462.91440283232, -17769.525083246837, -58006.06256795676, -187500.02235174447, -40855.881971822026, -26518.377842709764, 0.482, -0.862, 0.202, 192.0, 0.0, 0.0, 0.0, 0.0, 0.0, 0.0, 0.0, 0.0, 0.0, 1.6635925197173345E9, 0.0, 2022-09-19 18:01:59.717
111.0, 11815.176822564224, 15201.555514521066, -74355.91660212477, -17695.69727131096, -57884.64789207553, -187500.02235174447, -40843.767326327245, -26407.446134978072, 0.482, -0.862, 0.202, 192.0, 0.0, 0.0, 0.0, 0.0, 0.0, 0.0, 0.0, 0.0, 0.0, 1.6635925197213492E9, 0.0, 2022-09-19 18:01:59.721
112.0, 11699.394786285733, 15143.99977254865, -74322.76896509755, -17654.212433601908, -57834.736446706826, -187500.02235174447, -40815.87234924702, -26352.527898851386, 0.482, -0.862, 0.202, 192.0, 0.0, 0.0, 0.0, 0.0, 0.0, 0.0, 0.0, 0.0, 0.0, 1.6635925197253723E9, 0.0, 2022-09-19 18:01:59.725
113.0, 11775.18955173368, 15193.777107450618, -74350.26161077757, -17673.613747789117, -57859.97156619687, -187500.02235174447, -40797.275697860205, -26376.958355541035, 0.482, -0.862, 0.202, 192.0, 0.0, 0.0, 0.0, 0.0, 0.0, 0.0, 0.0, 0.0, 0.0, 1.663592519729385E9, 0.0, 2022-09-19 18:01:59.729
114.0, 11966.587539504473, 15299.009120346203, -74418.25561741061, -17746.301620757775, -57952.79836091976, -187500.02235174447, -40772.35350279254, -26485.38666789373, 0.482, -0.862, 0.202, 192.0, 0.0, 0.0, 0.0, 0.0, 0.0, 0.0, 0.0, 0.0, 0.0, 1.6635925197323544E9, 0.0, 2022-09-19 18:01:59.732
115.0, 12035.922650804836, 15326.725283470785, -74437.61222810892, -17781.08093513023, -57983.68847175699, -187500.02235174447, -40812.631346301, -26506.017328025977, 0.482, -0.862, 0.202, 192.0, 0.0, 0.0, 0.0, 0.0, 0.0, 0.0, 0.0, 0.0, 0.0, 1.663592519736436E9, 0.0, 2022-09-19 18:01:59.736
116.0, 11792.310987986444, 15193.128906861415, -74334.86125884787, -17704.63796909308, -57865.000708699314, -187500.02235174447, -40803.444779329875, -26400.360631985743, 0.482, -0.862, 0.202, 192.0, 0.0, 0.0, 0.0, 0.0, 0.0, 0.0, 0.0, 0.0, 0.0, 1.6635925197413654E9, 0.0, 2022-09-19 18:01:59.741
117.0, 11701.562905497898, 15144.491510926666, -74290.04601121497, -17646.92576490948, -57816.54212672021, -187500.02235174447, -40747.721880402794, -26358.875794276693, 0.482, -0.862, 0.202, 192.0, 0.0, 0.0, 0.0, 0.0, 0.0, 0.0, 0.0, 0.0, 0.0, 1.6635925197454736E9, 0.0, 2022-09-19 18:01:59.745
118.0, 11789.740537374084, 15197.263979585647, -74319.41620342925, -17669.25515762033, -57855.16594113898, -187500.02235174447, -40730.935720316855, -26389.520035924917, 0.482, -0.862, 0.202, 192.0, 0.0, 0.0, 0.0, 0.0, 0.0, 0.0, 0.0, 0.0, 0.0, 1.6635925197494707E9, 0.0, 2022-09-19 18:01:59.749
119.0, 11990.660368282839, 15304.328835526567, -74409.3149196285, -17754.23649003941, -57959.23566332289, -187500.02235174447, -40771.16886033641, -26476.04363871141, 0.488, -0.866, 0.21, 192.0, 15.0, 64.0, 228.0, 240.0, 6.0, 144.0, 0.0, 0.0, 0.0, 1.6635925197534504E9, 0.0, 2022-09-19 18:01:59.753
120.0, 12035.587374638008, 15324.311295069612, -74447.04466426905, -17798.470592316462, -57989.00818693736, -187500.02235174447, -40856.776041600235, -26515.13683976374, 0.488, -0.866, 0.21, 192.0, 0.0, 0.0, 0.0, 0.0, 0.0, 0.0, 0.0, 0.0, 0.0, 1.6635925197563865E9, 0.0, 2022-09-19 18:01:59.756
121.0, 11806.10201431537, 15193.665348728342, -74334.97301757014, -17705.44263189347, -57862.83258948715, -187500.02235174447, -40822.13083769451, -26392.51516968193, 0.488, -0.866, 0.21, 192.0, 0.0, 0.0, 0.0, 0.0, 0.0, 0.0, 0.0, 0.0, 0.0, 1.6635925197605653E9, 0.0, 2022-09-19 18:01:59.760
122.0, 11723.132338897269, 15155.779141876596, -74283.25108090056, -17631.25719204631, -57819.224336054845, -187500.02235174447, -40728.47702842677, -26329.885581718157, 0.488, -0.866, 0.21, 192.0, 0.0, 0.0, 0.0, 0.0, 0.0, 0.0, 0.0, 0.0, 0.0, 1.663592519764477E9, 0.0, 2022-09-19 18:01:59.764
123.0, 11806.727863160118, 15195.788764451596, -74311.66014810326, -17638.67797120547, -57862.89964472051, -187500.02235174447, -40716.87647305447, -26362.608535600728, 0.488, -0.866, 0.21, 192.0, 0.0, 0.0, 0.0, 0.0, 0.0, 0.0, 0.0, 0.0, 0.0, 1.663592519769422E9, 0.0, 2022-09-19 18:01:59.769
124.0, 12023.830357054516, 15318.164565344403, -74411.0136522071, -17702.447498136462, -57963.97423314741, -187500.02235174447, -40774.991008638266, -26467.795845007404, 0.488, -0.866, 0.21, 192.0, 0.0, 0.0, 0.0, 0.0, 0.0, 0.0, 0.0, 0.0, 0.0, 1.6635925197734168E9, 0.0, 2022-09-19 18:01:59.773
125.0, 12053.37936322443, 15341.522138300197, -74430.66083558332, -17735.818652608235, -57974.636015252596, -187500.02235174447, -40841.64391060399, -26470.85803399778, 0.488, -0.866, 0.21, 192.0, 0.0, 0.0, 0.0, 0.0, 0.0, 0.0, 0.0, 0.0, 0.0, 1.6635925197774184E9, 0.0, 2022-09-19 18:01:59.777
126.0, 11795.52963918801, 15206.070566901037, -74324.8476773319, -17659.800369715736, -57848.46041780239, -187500.02235174447, -40814.754762024255, -26361.40154140014, 0.488, -0.866, 0.21, 192.0, 0.0, 0.0, 0.0, 0.0, 0.0, 0.0, 0.0, 0.0, 0.0, 1.663592519781452E9, 0.0, 2022-09-19 18:01:59.781
127.0, 11716.203298116125, 15166.507979215145, -74303.09942997688, -17623.277619275763, -57817.65971394297, -187500.02235174447, -40788.893793689465, -26341.55319232383, 0.488, -0.866, 0.21, 192.0, 0.0, 0.0, 0.0, 0.0, 0.0, 0.0, 0.0, 0.0, 0.0, 1.66359251978445E9, 0.0, 2022-09-19 18:01:59.784
128.0, 11809.298313772479, 15227.125910177936, -74331.88847683532, -17638.20858457191, -57851.83553121514, -187500.02235174447, -40785.809252954634, -26394.191550516076, 0.488, -0.866, 0.21, 192.0, 0.0, 0.0, 0.0, 0.0, 0.0, 0.0, 0.0, 0.0, 0.0, 1.6635925197884054E9, 0.0, 2022-09-19 18:01:59.788
129.0, 12037.822549083538, 15349.524062815199, -74440.316789188, -17709.84592555117, -57961.13556160159, -187500.02235174447, -40858.51947766775, -26486.727772561047, 0.492, -0.86, 0.21, 192.0, 15.0, 96.0, 229.0, 32.0, 6.0, 144.0, 0.0, 0.0, 0.0, 1.6635925197925477E9, 0.0, 2022-09-19 18:01:59.792
130.0, 12065.091677319013, 15351.759237260729, -74450.3750741929, -17752.113074316156, -57980.06748915523, -187500.02235174447, -40896.137463586034, -26499.445915156117, 0.492, -0.86, 0.21, 192.0, 0.0, 0.0, 0.0, 0.0, 0.0, 0.0, 0.0, 0.0, 0.0, 1.6635925197974696E9, 0.0, 2022-09-19 18:01:59.797
131.0, 11791.483973441598, 15208.81983146904, -74313.15771498176, -17669.903358209536, -57850.85205445911, -187500.02235174447, -40778.79080519567, -26369.805797315337, 0.492, -0.86, 0.21, 192.0, 0.0, 0.0, 0.0, 0.0, 0.0, 0.0, 0.0, 0.0, 0.0, 1.6635925198014772E9, 0.0, 2022-09-19 18:01:59.801
132.0, 11720.830109218372, 15182.265959056134, -74280.6359267993, -17616.840316872636, -57815.58100170863, -187500.02235174447, -40715.93769978735, -26337.77574751088, 0.492, -0.86, 0.21, 192.0, 0.0, 0.0, 0.0, 0.0, 0.0, 0.0, 0.0, 0.0, 0.0, 1.6635925198055096E9, 0.0, 2022-09-19 18:01:59.805
133.0, 11808.247781783079, 15238.033561472126, -74312.46481090365, -17620.081319818655, -57859.770400496775, -187500.02235174447, -40700.49264436873, -26383.529768410895, 0.492, -0.86, 0.21, 192.0, 0.0, 0.0, 0.0, 0.0, 0.0, 0.0, 0.0, 0.0, 0.0, 1.6635925198095229E9, 0.0, 2022-09-19 18:01:59.809
134.0, 12014.71084531675, 15348.22766163679, -74418.68030055526, -17692.948006742958, -57965.36004130364, -187500.02235174447, -40753.64509268345, -26463.90664147218, 0.492, -0.86, 0.21, 192.0, 0.0, 0.0, 0.0, 0.0, 0.0, 0.0, 0.0, 0.0, 0.0, 1.6635925198125353E9, 0.0, 2022-09-19 18:01:59.812
135.0, 12011.559249348551, 15331.285039339667, -74436.09230948596, -17706.671977838516, -57966.85760818215, -187500.02235174447, -40827.003517985766, -26447.120481386242, 0.492, -0.86, 0.21, 192.0, 0.0, 0.0, 0.0, 0.0, 0.0, 0.0, 0.0, 0.0, 0.0, 1.6635925198165364E9, 0.0, 2022-09-19 18:01:59.816
136.0, 11767.925234785705, 15200.169706364835, -74328.64747388929, -17636.465148504394, -57848.236900357835, -187500.02235174447, -40776.33211330559, -26356.417102386607, 0.492, -0.86, 0.21, 192.0, 0.0, 0.0, 0.0, 0.0, 0.0, 0.0, 0.0, 0.0, 0.0, 1.6635925198205392E9, 0.0, 2022-09-19 18:01:59.820
137.0, 11712.001170158526, 15176.633319453398, -74295.99157524008, -17620.39424424103, -57821.70537968938, -187500.02235174447, -40710.327411929065, -26322.01776766989, 0.492, -0.86, 0.21, 192.0, 0.0, 0.0, 0.0, 0.0, 0.0, 0.0, 0.0, 0.0, 0.0, 1.66359251982458E9, 0.0, 2022-09-19 18:01:59.824
138.0, 11814.796842908483, 15237.318305649556, -74338.28107574953, -17634.14056708104, -57868.59933955662, -187500.02235174447, -40720.76567658969, -26387.821303346314, 0.492, -0.86, 0.21, 192.0, 0.0, 0.0, 0.0, 0.0, 0.0, 0.0, 0.0, 0.0, 0.0, 1.663592519829526E9, 0.0, 2022-09-19 18:01:59.829
139.0, 12045.086866031512, 15356.721324529806, -74458.53346091908, -17712.528134885804, -57980.358061833154, -187500.02235174447, -40800.36023859504, -26488.2029876951, 0.492, -0.86, 0.216, 192.0, 15.0, 96.0, 229.0, 32.0, 6.0, 192.0, 0.0, 0.0, 0.0, 1.663592519833537E9, 0.0, 2022-09-19 18:01:59.833
140.0, 12034.536842648607, 15346.998315691748, -74465.17192902231, -17733.359960718153, -57973.36196581864, -187500.02235174447, -40863.92859982594, -26477.742371290016, 0.492, -0.86, 0.216, 192.0, 0.0, 0.0, 0.0, 0.0, 0.0, 0.0, 0.0, 0.0, 0.0, 1.663592519836496E9, 0.0, 2022-09-19 18:01:59.836
141.0, 11795.663749654741, 15216.486479817211, -74357.7494451701, -17657.364029570108, -57855.47886556135, -187500.02235174447, -40809.882081733, -26361.893279778156, 0.492, -0.86, 0.216, 192.0, 0.0, 0.0, 0.0, 0.0, 0.0, 0.0, 0.0, 0.0, 0.0, 1.6635925198406177E9, 0.0, 2022-09-19 18:01:59.840
142.0, 11746.489911853065, 15198.538029019599, -74328.80393610048, -17643.617706730092, -57847.85692070209, -187500.02235174447, -40750.78406939317, -26348.68339880507, 0.492, -0.86, 0.216, 192.0, 0.0, 0.0, 0.0, 0.0, 0.0, 0.0, 0.0, 0.0, 0.0, 1.6635925198445537E9, 0.0, 2022-09-19 18:01:59.844
143.0, 11852.213663126668, 15259.804160571595, -74366.51132899658, -17693.886780010078, -57906.37378768609, -187500.02235174447, -40737.19420876434, -26391.956376070546, 0.492, -0.86, 0.216, 192.0, 0.0, 0.0, 0.0, 0.0, 0.0, 0.0, 0.0, 0.0, 0.0, 1.6635925198485491E9, 0.0, 2022-09-19 18:01:59.848
144.0, 12063.370592995954, 15368.634804324485, -74444.54126889005, -17751.107245815667, -57981.22977986691, -187500.02235174447, -40744.436173967864, -26485.18550219363, 0.492, -0.86, 0.216, 192.0, 0.0, 0.0, 0.0, 0.0, 0.0, 0.0, 0.0, 0.0, 0.0, 1.6635925198526058E9, 0.0, 2022-09-19 18:01:59.852
145.0, 12011.313380159543, 15333.475510296288, -74431.77842280608, -17723.458137924452, -57927.69735189645, -187500.02235174447, -40797.65567751595, -26476.557728833883, 0.492, -0.86, 0.216, 192.0, 0.0, 0.0, 0.0, 0.0, 0.0, 0.0, 0.0, 0.0, 0.0, 1.6635925198575375E9, 0.0, 2022-09-19 18:01:59.857
146.0, 11773.736688344085, 15208.864534957951, -74311.95072078118, -17625.35633151011, -57794.92798983193, -187500.02235174447, -40734.73551687426, -26363.904936779134, 0.492, -0.86, 0.216, 192.0, 0.0, 0.0, 0.0, 0.0, 0.0, 0.0, 0.0, 0.0, 0.0, 1.6635925198615732E9, 0.0, 2022-09-19 18:01:59.861
147.0, 11746.042876963958, 15210.67502625883, -74298.24910143008, -17593.750964850304, -57781.24872222528, -187500.02235174447, -40688.19918491831, -26339.697997534036, 0.492, -0.86, 0.216, 192.0, 0.0, 0.0, 0.0, 0.0, 0.0, 0.0, 0.0, 0.0, 0.0, 1.6635925198655777E9, 0.0, 2022-09-19 18:01:59.865
148.0, 11853.152436393792, 15278.333756725046, -74346.23829677561, -17631.033674601757, -57834.535281006734, -187500.02235174447, -40690.255545408196, -26384.379134700197, 0.492, -0.86, 0.216, 192.0, 0.0, 0.0, 0.0, 0.0, 0.0, 0.0, 0.0, 0.0, 0.0, 1.6635925198686037E9, 0.0, 2022-09-19 18:01:59.868
149.0, 12068.57854945404, 15384.549246376664, -74460.25454524215, -17725.7827193478, -57944.572918960206, -187500.02235174447, -40768.73252019078, -26501.971662279568, 0.49, -0.854, 0.21, 192.0, 15.0, 80.0, 229.0, 80.0, 6.0, 144.0, 0.0, 0.0, 0.0, 1.663592519872602E9, 0.0, 2022-09-19 18:01:59.872
150.0, 12017.638923840395, 15345.61250753552, -74436.04760599704, -17720.798280334267, -57906.8655260641, -187500.02235174447, -40838.0899832356, -26454.630667523226, 0.49, -0.854, 0.21, 192.0, 0.0, 0.0, 0.0, 0.0, 0.0, 0.0, 0.0, 0.0, 0.0, 1.6635925198765569E9, 0.0, 2022-09-19 18:01:59.876
151.0, 11790.567551918932, 15225.58363981052, -74324.35593895387, -17625.57984895466, -57780.555818147164, -187500.02235174447, -40780.89186917447, -26330.98081719647, 0.49, -0.854, 0.21, 192.0, 0.0, 0.0, 0.0, 0.0, 0.0, 0.0, 0.0, 0.0, 0.0, 1.6635925198806202E9, 0.0, 2022-09-19 18:01:59.880
152.0, 11765.824170806905, 15214.497174560687, -74301.64656658728, -17603.96571206638, -57766.11659122904, -187500.02235174447, -40703.24190893673, -26307.1091541182, 0.49, -0.854, 0.21, 192.0, 0.0, 0.0, 0.0, 0.0, 0.0, 0.0, 0.0, 0.0, 0.0, 1.6635925198856544E9, 0.0, 2022-09-19 18:01:59.885
153.0, 11875.079497704446, 15274.913939823384, -74352.98852360112, -17655.17355861349, -57822.5994494676, -187500.02235174447, -40689.33912388553, -26379.439399175575, 0.49, -0.854, 0.21, 192.0, 0.0, 0.0, 0.0, 0.0, 0.0, 0.0, 0.0, 0.0, 0.0, 1.6635925198896277E9, 0.0, 2022-09-19 18:01:59.889
154.0, 12084.895322906414, 15396.820354082627, -74457.23705974067, -17720.75357684536, -57923.69638963895, -187500.02235174447, -40761.95994162082, -26504.29624370292, 0.49, -0.854, 0.21, 192.0, 0.0, 0.0, 0.0, 0.0, 0.0, 0.0, 0.0, 0.0, 0.0, 1.6635925198926277E9, 0.0, 2022-09-19 18:01:59.892
155.0, 12009.27937141411, 15348.473530825799, -74426.88339077037, -17704.727376070903, -57877.92001699448, -187500.02235174447, -40825.260081918255, -26447.232240108522, 0.49, -0.854, 0.21, 192.0, 0.0, 0.0, 0.0, 0.0, 0.0, 0.0, 0.0, 0.0, 0.0, 1.663592519896647E9, 0.0, 2022-09-19 18:01:59.896
156.0, 11775.636586622786, 15221.403863597377, -74317.6951191062, -17611.028863314255, -57752.23615792229, -187500.02235174447, -40757.646054940946, -26349.286895905367, 0.49, -0.854, 0.21, 192.0, 0.0, 0.0, 0.0, 0.0, 0.0, 0.0, 0.0, 0.0, 0.0, 1.6635925199006643E9, 0.0, 2022-09-19 18:01:59.900
157.0, 11750.826150277395, 15210.943247192294, -74312.42010741474, -17596.120249762567, -57741.216747905826, -187500.02235174447, -40710.036839251145, -26329.617360784694, 0.49, -0.854, 0.21, 192.0, 0.0, 0.0, 0.0, 0.0, 0.0, 0.0, 0.0, 0.0, 0.0, 1.6635925199046624E9, 0.0, 2022-09-19 18:01:59.904
158.0, 11871.100887191402, 15274.802181101106, -74358.53175622605, -17647.171634098486, -57800.35946373457, -187500.02235174447, -40710.55092937362, -26378.590032886274, 0.49, -0.854, 0.21, 192.0, 0.0, 0.0, 0.0, 0.0, 0.0, 0.0, 0.0, 0.0, 0.0, 1.6635925199086745E9, 0.0, 2022-09-19 18:01:59.908
159.0, 12077.72041293626, 15373.954519504849, -74469.39640872437, -17751.621335938136, -57907.53607839777, -187500.02235174447, -40810.9326137224, -26496.964871521577, 0.494, -0.854, 0.21, 192.0, 15.0, 112.0, 229.0, 80.0, 6.0, 144.0, 0.0, 0.0, 0.0, 1.663592519912675E9, 0.0, 2022-09-19 18:01:59.912
160.0, 11993.588446806485, 15308.285094295157, -74446.88820205787, -17748.693257414492, -57864.77719125476, -187500.02235174447, -40896.070408352665, -26439.56559176035, 0.494, -0.854, 0.21, 192.0, 0.0, 0.0, 0.0, 0.0, 0.0, 0.0, 0.0, 0.0, 0.0, 1.663592519917653E9, 0.0, 2022-09-19 18:01:59.917
161.0, 11772.641452865775, 15196.90635167436, -74325.4958779211, -17652.558404512216, -57749.3304311431, -187500.02235174447, -40789.85491870104, -26326.51046830541, 0.494, -0.854, 0.21, 192.0, 0.0, 0.0, 0.0, 0.0, 0.0, 0.0, 0.0, 0.0, 0.0, 1.6635925199207203E9, 0.0, 2022-09-19 18:01:59.920
162.0, 11755.22944393509, 15212.798441982084, -74293.15290369427, -17593.795668339215, -57741.30615488365, -187500.02235174447, -40691.373132630964, -26315.58046526676, 0.494, -0.854, 0.21, 192.0, 0.0, 0.0, 0.0, 0.0, 0.0, 0.0, 0.0, 0.0, 0.0, 1.6635925199246984E9, 0.0, 2022-09-19 18:01:59.924
163.0, 11879.661605317784, 15286.827419618061, -74343.17610778524, -17623.657598931506, -57802.25936201327, -187500.02235174447, -40677.872678979955, -26382.680402121594, 0.494, -0.854, 0.21, 192.0, 0.0, 0.0, 0.0, 0.0, 0.0, 0.0, 0.0, 0.0, 0.0, 1.6635925199286916E9, 0.0, 2022-09-19 18:01:59.928
164.0, 12077.899226891903, 15385.577426621609, -74438.14866997584, -17697.574817845205, -57895.10850848061, -187500.02235174447, -40751.49932521574, -26449.84739420979, 0.494, -0.854, 0.21, 192.0, 0.0, 0.0, 0.0, 0.0, 0.0, 0.0, 0.0, 0.0, 0.0, 1.6635925199327583E9, 0.0, 2022-09-19 18:01:59.932
165.0, 11961.826617935494, 15313.850678664528, -74388.55014902951, -17678.620538547104, -57836.72575196335, -187500.02235174447, -40806.730485764805, -26416.543294971383, 0.494, -0.854, 0.21, 192.0, 0.0, 0.0, 0.0, 0.0, 0.0, 0.0, 0.0, 0.0, 0.0, 1.6635925199367812E9, 0.0, 2022-09-19 18:01:59.936
166.0, 11749.127417698792, 15196.749889463174, -74283.34048787839, -17607.921970834966, -57729.79500648916, -187500.02235174447, -40745.553761190626, -26332.947770708535, 0.494, -0.854, 0.21, 192.0, 0.0, 0.0, 0.0, 0.0, 0.0, 0.0, 0.0, 0.0, 0.0, 1.663592519940709E9, 0.0, 2022-09-19 18:01:59.940
167.0, 11740.343182127855, 15197.53220051911, -74282.66993554472, -17594.10859276159, -57731.11375941202, -187500.02235174447, -40702.079618225056, -26331.003168940922, 0.494, -0.854, 0.21, 192.0, 0.0, 0.0, 0.0, 0.0, 0.0, 0.0, 0.0, 0.0, 0.0, 1.6635925199456856E9, 0.0, 2022-09-19 18:01:59.945
168.0, 11863.389535354321, 15268.409582186889, -74355.11193932437, -17619.455470973906, -57799.577152678634, -187500.02235174447, -40736.63541515296, -26379.014716030924, 0.494, -0.854, 0.21, 192.0, 0.0, 0.0, 0.0, 0.0, 0.0, 0.0, 0.0, 0.0, 0.0, 1.6635925199487214E9, 0.0, 2022-09-19 18:01:59.948
169.0, 12066.00809884168, 15378.89425502947, -74462.35560922095, -17707.521344127817, -57913.682808122976, -187500.02235174447, -40820.36504988254, -26471.215661909064, 0.5, -0.854, 0.21, 192.0, 15.0, 160.0, 229.0, 80.0, 6.0, 144.0, 0.0, 0.0, 0.0, 1.6635925199528592E9, 0.0, 2022-09-19 18:01:59.952
170.0, 11971.057888395535, 15332.246164351245, -74408.5102568281, -17667.757590741825, -57847.78986546873, -187500.02235174447, -40860.73230036882, -26415.381004259707, 0.5, -0.854, 0.21, 192.0, 0.0, 0.0, 0.0, 0.0, 0.0, 0.0, 0.0, 0.0, 0.0, 1.6635925199567568E9, 0.0, 2022-09-19 18:01:59.956
171.0, 11777.312967456934, 15228.82464275654, -74289.91190074825, -17573.366173907063, -57732.29840186816, -187500.02235174447, -40760.68589218687, -26308.472610529974, 0.5, -0.854, 0.21, 192.0, 0.0, 0.0, 0.0, 0.0, 0.0, 0.0, 0.0, 0.0, 0.0, 1.663592519960749E9, 0.0, 2022-09-19 18:01:59.960
172.0, 11777.536484901488, 15239.128796950436, -74272.276374373, -17568.895825016003, -57735.36059085853, -187500.02235174447, -40668.775518986644, -26322.665968259094, 0.5, -0.854, 0.21, 192.0, 0.0, 0.0, 0.0, 0.0, 0.0, 0.0, 0.0, 0.0, 0.0, 1.6635925199649036E9, 0.0, 2022-09-19 18:01:59.964
173.0, 11915.446748190732, 15318.74571070024, -74343.37727348534, -17634.855822903613, -57814.79869065269, -187500.02235174447, -40675.39163534542, -26389.520035924917, 0.5, -0.854, 0.21, 192.0, 0.0, 0.0, 0.0, 0.0, 0.0, 0.0, 0.0, 0.0, 0.0, 1.6635925199687655E9, 0.0, 2022-09-19 18:01:59.968
174.0, 12103.424919059864, 15416.065206058647, -74440.33914093247, -17717.043187265775, -57912.632276133576, -187500.02235174447, -40766.76556667871, -26482.883272514737, 0.5, -0.854, 0.21, 192.0, 0.0, 0.0, 0.0, 0.0, 0.0, 0.0, 0.0, 0.0, 0.0, 1.6635925199737847E9, 0.0, 2022-09-19 18:01:59.973
175.0, 11962.631280735885, 15328.088739882558, -74382.24695709311, -17682.621500804606, -57838.17861535295, -187500.02235174447, -40802.68482001839, -26420.141925828688, 0.5, -0.854, 0.21, 192.0, 0.0, 0.0, 0.0, 0.0, 0.0, 0.0, 0.0, 0.0, 0.0, 1.6635925199767756E9, 0.0, 2022-09-19 18:01:59.976
176.0, 11750.893205510762, 15200.661444742853, -74293.01879322753, -17610.179497024954, -57743.295460140165, -187500.02235174447, -40731.02512729468, -26331.78547999686, 0.5, -0.854, 0.21, 192.0, 0.0, 0.0, 0.0, 0.0, 0.0, 0.0, 0.0, 0.0, 0.0, 1.6635925199807987E9, 0.0, 2022-09-19 18:01:59.980
177.0, 11733.950583213638, 15214.318360605046, -74310.96724402515, -17614.783956382747, -57758.49464636978, -187500.02235174447, -40718.19522597733, -26348.50458484943, 0.5, -0.854, 0.21, 192.0, 0.0, 0.0, 0.0, 0.0, 0.0, 0.0, 0.0, 0.0, 0.0, 1.6635925199848225E9, 0.0, 2022-09-19 18:01:59.984
178.0, 11915.022065046081, 15337.878803953983, -74391.54528278652, -17659.465093548908, -57837.12808336355, -187500.02235174447, -40750.515848459705, -26412.74349841398, 0.5, -0.854, 0.21, 192.0, 0.0, 0.0, 0.0, 0.0, 0.0, 0.0, 0.0, 0.0, 0.0, 1.6635925199887872E9, 0.0, 2022-09-19 18:01:59.988
179.0, 12157.247919708243, 15446.642392473506, -74479.32058326252, -17732.264725239842, -57929.28432575278, -187500.02235174447, -40821.52734059421, -26503.223359969066, 0.5, -0.854, 0.21, 192.0, 0.0, 0.0, 0.0, 0.0, 0.0, 0.0, 0.0, 0.0, 0.0, 1.663592519992792E9, 0.0, 2022-09-19 18:01:59.992
180.0, 12009.011150480646, 15349.054676181637, -74410.83483825145, -17695.250236421853, -57857.803446984704, -187500.02235174447, -40837.33002392412, -26440.57142026084, 0.498, -0.85, 0.20800000000000002, 192.0, 15.0, 144.0, 229.0, 112.0, 6.0, 128.0, 0.0, 0.0, 0.0, 1.6635925199968262E9, 0.0, 2022-09-19 18:01:59.996
181.0, 11817.926087132226, 15248.449474388299, -74323.77479359803, -17625.28927627674, -57772.64330060998, -187500.02235174447, -40752.751022905235, -26339.899163234135, 0.498, -0.85, 0.20800000000000002, 192.0, 0.0, 0.0, 0.0, 0.0, 0.0, 0.0, 0.0, 0.0, 0.0, 1.663592520001844E9, 0.0, 2022-09-19 18:02:00.001
182.0, 11839.026133898036, 15261.771114083662, -74333.49780243609, -17619.276657018265, -57785.875533327526, -187500.02235174447, -40727.47119992629, -26356.70767506453, 0.498, -0.85, 0.20800000000000002, 192.0, 0.0, 0.0, 0.0, 0.0, 0.0, 0.0, 0.0, 0.0, 0.0, 1.6635925200048213E9, 0.0, 2022-09-19 18:02:00.004
183.0, 12008.56411559154, 15357.101304185548, -74430.12439371638, -17675.290128623263, -57867.951138967415, -187500.02235174447, -40805.59054679758, -26444.46062379606, 0.498, -0.85, 0.20800000000000002, 192.0, 0.0, 0.0, 0.0, 0.0, 0.0, 0.0, 0.0, 0.0, 0.0, 1.6635925200088103E9, 0.0, 2022-09-19 18:02:00.008
184.0, 12209.551001733662, 15456.074828633647, -74519.95605468226, -17756.42696099603, -57956.68756445499, -187500.02235174447, -40899.423170020964, -26515.673281630672, 0.498, -0.85, 0.20800000000000002, 192.0, 0.0, 0.0, 0.0, 0.0, 0.0, 0.0, 0.0, 0.0, 0.0, 1.663592520012792E9, 0.0, 2022-09-19 18:02:00.012
185.0, 12027.026656511624, 15350.820463993607, -74409.09140218394, -17714.808012820245, -57868.509932578796, -187500.02235174447, -40840.74984082578, -26429.552010244373, 0.498, -0.85, 0.20800000000000002, 192.0, 0.0, 0.0, 0.0, 0.0, 0.0, 0.0, 0.0, 0.0, 0.0, 1.6635925200169349E9, 0.0, 2022-09-19 18:02:00.016
186.0, 11822.329380789923, 15247.35423890999, -74309.76024982455, -17632.799462413725, -57776.73366984531, -187500.02235174447, -40729.77342960518, -26351.902050006636, 0.498, -0.85, 0.20800000000000002, 192.0, 0.0, 0.0, 0.0, 0.0, 0.0, 0.0, 0.0, 0.0, 0.0, 1.6635925200209088E9, 0.0, 2022-09-19 18:02:00.020
187.0, 11843.54118627801, 15264.989765285227, -74318.41037492876, -17617.466165717386, -57787.57426590613, -187500.02235174447, -40707.309926427595, -26355.299515163842, 0.498, -0.85, 0.20800000000000002, 192.0, 0.0, 0.0, 0.0, 0.0, 0.0, 0.0, 0.0, 0.0, 0.0, 1.6635925200248237E9, 0.0, 2022-09-19 18:02:00.024
188.0, 12006.641865568385, 15351.446312838354, -74399.48015206816, -17676.45241933494, -57872.44383960293, -187500.02235174447, -40745.4643542128, -26440.12438537173, 0.498, -0.85, 0.20800000000000002, 192.0, 0.0, 0.0, 0.0, 0.0, 0.0, 0.0, 0.0, 0.0, 0.0, 1.663592520029838E9, 0.0, 2022-09-19 18:02:00.029
189.0, 12157.560844130618, 15411.661912400952, -74489.89295838987, -17755.59994645118, -57956.732267943895, -187500.02235174447, -40848.75176534078, -26534.24758127303, 0.498, -0.85, 0.20800000000000002, 192.0, 0.0, 0.0, 0.0, 0.0, 0.0, 0.0, 0.0, 0.0, 0.0, 1.6635925200328562E9, 0.0, 2022-09-19 18:02:00.032
190.0, 11964.84410343696, 15300.640797691442, -74407.10209692743, -17712.50578314135, -57866.58768255564, -187500.02235174447, -40856.82074508914, -26441.599600505782, 0.498, -0.852, 0.20600000000000002, 192.0, 15.0, 144.0, 229.0, 96.0, 6.0, 112.0, 0.0, 0.0, 0.0, 1.663592520036978E9, 0.0, 2022-09-19 18:02:00.036
191.0, 11797.340130488888, 15220.912125219362, -74315.28113070501, -17636.64396246004, -57779.28176871321, -187500.02235174447, -40774.74513944926, -26360.21689894401, 0.498, -0.852, 0.20600000000000002, 192.0, 0.0, 0.0, 0.0, 0.0, 0.0, 0.0, 0.0, 0.0, 0.0, 1.6635925200409389E9, 0.0, 2022-09-19 18:02:00.040
192.0, 11846.53632003502, 15262.575776884054, -74336.15766002628, -17656.313497580708, -57800.761795134764, -187500.02235174447, -40764.776261422194, -26379.998192786956, 0.498, -0.852, 0.20600000000000002, 192.0, 0.0, 0.0, 0.0, 0.0, 0.0, 0.0, 0.0, 0.0, 0.0, 1.6635925200449357E9, 0.0, 2022-09-19 18:02:00.044
193.0, 12026.937249533803, 15366.310222901133, -74416.04279470954, -17712.103451741154, -57887.799488043725, -187500.02235174447, -40779.48370927378, -26456.61997277975, 0.498, -0.852, 0.20600000000000002, 192.0, 0.0, 0.0, 0.0, 0.0, 0.0, 0.0, 0.0, 0.0, 0.0, 1.6635925200488973E9, 0.0, 2022-09-19 18:02:00.048
194.0, 12162.053544766135, 15426.324656763632, -74483.96974610923, -17754.23649003941, -57952.37367777511, -187500.02235174447, -40837.486486135305, -26509.0571652719, 0.498, -0.852, 0.20600000000000002, 192.0, 0.0, 0.0, 0.0, 0.0, 0.0, 0.0, 0.0, 0.0, 0.0, 1.663592520053032E9, 0.0, 2022-09-19 18:02:00.053
195.0, 11943.967574115703, 15293.510591210199, -74387.36550657339, -17680.20751240343, -57845.577042767654, -187500.02235174447, -40830.46803837634, -26398.997175573968, 0.498, -0.852, 0.20600000000000002, 192.0, 0.0, 0.0, 0.0, 0.0, 0.0, 0.0, 0.0, 0.0, 0.0, 1.6635925200569358E9, 0.0, 2022-09-19 18:02:00.056
196.0, 11768.3275661859, 15208.864534957951, -74308.97793876863, -17604.993892311322, -57762.249739438266, -187500.02235174447, -40748.05715656962, -26338.111023677713, 0.498, -0.852, 0.20600000000000002, 192.0, 0.0, 0.0, 0.0, 0.0, 0.0, 0.0, 0.0, 0.0, 0.0, 1.66359252006088E9, 0.0, 2022-09-19 18:02:00.060
197.0, 11823.737540690607, 15249.656468588886, -74323.88655232031, -17598.891866075024, -57782.54512340369, -187500.02235174447, -40721.0115457787, -26359.21107044352, 0.498, -0.852, 0.20600000000000002, 192.0, 0.0, 0.0, 0.0, 0.0, 0.0, 0.0, 0.0, 0.0, 0.0, 1.6635925200639577E9, 0.0, 2022-09-19 18:02:00.063
198.0, 12019.829394797016, 15350.082856426581, -74398.47432356767, -17677.324137368698, -57879.752860039815, -187500.02235174447, -40723.22436847977, -26448.79686222039, 0.498, -0.852, 0.20600000000000002, 192.0, 0.0, 0.0, 0.0, 0.0, 0.0, 0.0, 0.0, 0.0, 0.0, 1.6635925200689628E9, 0.0, 2022-09-19 18:02:00.068
199.0, 12152.822274306092, 15407.973874565825, -74466.1777575228, -17733.784643862804, -57940.90723286954, -187500.02235174447, -40797.16393913793, -26495.48965638753, 0.498, -0.852, 0.20600000000000002, 192.0, 0.0, 0.0, 0.0, 0.0, 0.0, 0.0, 0.0, 0.0, 0.0, 1.6635925200729575E9, 0.0, 2022-09-19 18:02:00.072
200.0, 11937.753789157128, 15280.948910826315, -74372.85922442189, -17674.284300122774, -57829.707304204385, -187500.02235174447, -40804.96469795283, -26388.80478010235, 0.492, -0.854, 0.202, 192.0, 15.0, 96.0, 229.0, 80.0, 6.0, 80.0, 0.0, 0.0, 0.0, 1.663592520076974E9, 0.0, 2022-09-19 18:02:00.076
201.0, 11788.868819340327, 15204.081261644515, -74313.9400260377, -17623.411729742496, -57761.62389059352, -187500.02235174447, -40755.94732236234, -26321.16840138059, 0.492, -0.854, 0.202, 192.0, 0.0, 0.0, 0.0, 0.0, 0.0, 0.0, 0.0, 0.0, 0.0, 1.6635925200809412E9, 0.0, 2022-09-19 18:02:00.080
202.0, 11847.273927602046, 15242.168634196358, -74343.71254965218, -17643.371837541086, -57786.1884577499, -187500.02235174447, -40762.36227302102, -26341.843765001748, 0.492, -0.854, 0.202, 192.0, 0.0, 0.0, 0.0, 0.0, 0.0, 0.0, 0.0, 0.0, 0.0, 1.6635925200849607E9, 0.0, 2022-09-19 18:02:00.084
203.0, 12027.89837454538, 15349.144083159457, -74428.11273671541, -17700.9275795135, -57880.44576411793, -187500.02235174447, -40777.53910750617, -26442.091338883798, 0.492, -0.854, 0.202, 192.0, 0.0, 0.0, 0.0, 0.0, 0.0, 0.0, 0.0, 0.0, 0.0, 1.6635925200890012E9, 0.0, 2022-09-19 18:02:00.089
204.0, 12139.075951466079, 15397.982644794303, -74483.72387692021, -17760.89730988709, -57941.778950903295, -187500.02235174447, -40834.0890209781, -26498.35067967781, 0.492, -0.854, 0.202, 192.0, 0.0, 0.0, 0.0, 0.0, 0.0, 0.0, 0.0, 0.0, 0.0, 1.663592520092002E9, 0.0, 2022-09-19 18:02:00.092
205.0, 11931.450597220732, 15284.949873083815, -74370.95932614319, -17695.876085266602, -57833.66356297297, -187500.02235174447, -40792.00068616876, -26400.718259897025, 0.492, -0.854, 0.202, 192.0, 0.0, 0.0, 0.0, 0.0, 0.0, 0.0, 0.0, 0.0, 0.0, 1.6635925200969937E9, 0.0, 2022-09-19 18:02:00.096
206.0, 11790.18757226319, 15224.86838398795, -74303.16648521024, -17630.318418779185, -57773.984405277304, -187500.02235174447, -40717.457618410306, -26341.0167504569, 0.492, -0.854, 0.202, 192.0, 0.0, 0.0, 0.0, 0.0, 0.0, 0.0, 0.0, 0.0, 0.0, 1.6635925201010451E9, 0.0, 2022-09-19 18:02:00.101
207.0, 11838.042657142003, 15265.861483318984, -74324.51240116506, -17623.277619275763, -57797.967827077846, -187500.02235174447, -40710.34976367352, -26354.15957619662, 0.492, -0.854, 0.202, 192.0, 0.0, 0.0, 0.0, 0.0, 0.0, 0.0, 0.0, 0.0, 0.0, 1.6635925201050308E9, 0.0, 2022-09-19 18:02:00.105
208.0, 12026.154938477868, 15374.848589283061, -74415.97573947618, -17680.274567636796, -57897.656607348516, -187500.02235174447, -40748.43713622536, -26449.13213838722, 0.492, -0.854, 0.202, 192.0, 0.0, 0.0, 0.0, 0.0, 0.0, 0.0, 0.0, 0.0, 0.0, 1.6635925201090608E9, 0.0, 2022-09-19 18:02:00.109
209.0, 12122.580364058062, 15417.741586892795, -74474.47025471572, -17731.772986861826, -57958.25218656685, -187500.02235174447, -40829.81983778714, -26506.509066403996, 0.492, -0.854, 0.202, 192.0, 0.0, 0.0, 0.0, 0.0, 0.0, 0.0, 0.0, 0.0, 0.0, 1.6635925201130512E9, 0.0, 2022-09-19 18:02:00.113
210.0, 11912.205745244712, 15287.185047529347, -74367.04777086352, -17674.8207419897, -57843.900661933505, -187500.02235174447, -40814.195968412874, -26395.018565060924, 0.492, -0.852, 0.2, 192.0, 15.0, 96.0, 229.0, 96.0, 6.0, 64.0, 0.0, 0.0, 0.0, 1.663592520116002E9, 0.0, 2022-09-19 18:02:00.116
211.0, 11801.184630535201, 15228.087035189516, -74311.57074112544, -17631.771282168782, -57791.888152586005, -187500.02235174447, -40751.38756649346, -26353.913707007614, 0.492, -0.852, 0.2, 192.0, 0.0, 0.0, 0.0, 0.0, 0.0, 0.0, 0.0, 0.0, 0.0, 1.66359252012015E9, 0.0, 2022-09-19 18:02:00.120
212.0, 11861.511988820075, 15265.503855407698, -74337.16348852677, -17639.884965406058, -57827.62859197004, -187500.02235174447, -40727.359441204004, -26377.338335196775, 0.492, -0.852, 0.2, 192.0, 0.0, 0.0, 0.0, 0.0, 0.0, 0.0, 0.0, 0.0, 0.0, 1.6635925201240997E9, 0.0, 2022-09-19 18:02:00.124
213.0, 12043.1422642639, 15367.561920590631, -74424.04471922455, -17689.25996890783, -57925.66334315102, -187500.02235174447, -40754.96384560631, -26458.43046408063, 0.492, -0.852, 0.2, 192.0, 0.0, 0.0, 0.0, 0.0, 0.0, 0.0, 0.0, 0.0, 0.0, 1.663592520129086E9, 0.0, 2022-09-19 18:02:00.129
214.0, 12117.752387255716, 15408.264447243744, -74480.95226060775, -17748.492091714394, -57974.36779431913, -187500.02235174447, -40850.80812583067, -26499.28945294493, 0.492, -0.852, 0.2, 192.0, 0.0, 0.0, 0.0, 0.0, 0.0, 0.0, 0.0, 0.0, 0.0, 1.663592520133132E9, 0.0, 2022-09-19 18:02:00.133
215.0, 11893.854963046904, 15271.158846754892, -74384.97386991666, -17685.706041539437, -57862.4079063425, -187500.02235174447, -40850.070518263645, -26414.777507159415, 0.492, -0.852, 0.2, 192.0, 0.0, 0.0, 0.0, 0.0, 0.0, 0.0, 0.0, 0.0, 0.0, 1.663592520137117E9, 0.0, 2022-09-19 18:02:00.137
216.0, 11786.074851283414, 15213.401939082378, -74327.68634887772, -17635.280506048264, -57816.855051142586, -187500.02235174447, -40766.16206957842, -26380.400524187153, 0.492, -0.852, 0.2, 192.0, 0.0, 0.0, 0.0, 0.0, 0.0, 0.0, 0.0, 0.0, 0.0, 1.663592520141091E9, 0.0, 2022-09-19 18:02:00.141
217.0, 11854.53824455002, 15281.440649204333, -74340.71741589515, -17639.192061327944, -57842.984240410835, -187500.02235174447, -40731.427458694874, -26390.950547570057, 0.492, -0.852, 0.2, 192.0, 0.0, 0.0, 0.0, 0.0, 0.0, 0.0, 0.0, 0.0, 0.0, 1.663592520144127E9, 0.0, 2022-09-19 18:02:00.144
218.0, 12058.00617432668, 15399.100232017068, -74421.83189652346, -17717.55727738825, -57950.04909635176, -187500.02235174447, -40742.9162553449, -26493.38859240873, 0.492, -0.852, 0.2, 192.0, 0.0, 0.0, 0.0, 0.0, 0.0, 0.0, 0.0, 0.0, 0.0, 1.6635925201481054E9, 0.0, 2022-09-19 18:02:00.148
219.0, 12121.216907646289, 15417.942752592893, -74471.54217619207, -17762.976022121435, -57997.23362889691, -187500.02235174447, -40829.6857273204, -26537.086252818855, 0.492, -0.852, 0.2, 192.0, 0.0, 0.0, 0.0, 0.0, 0.0, 0.0, 0.0, 0.0, 0.0, 1.6635925201520731E9, 0.0, 2022-09-19 18:02:00.152
220.0, 11874.408945370787, 15283.586416672042, -74363.94087838422, -17677.34648911315, -57870.65570004651, -187500.02235174447, -40807.89277647648, -26415.22454204852, 0.502, -0.85, 0.194, 192.0, 15.0, 176.0, 229.0, 112.0, 6.0, 16.0, 0.0, 0.0, 0.0, 1.6635925201570969E9, 0.0, 2022-09-19 18:02:00.157
221.0, 11738.286821637968, 15229.651657301387, -74314.87879930482, -17625.602200699115, -57818.1961558099, -187500.02235174447, -40735.94251107484, -26357.89231752066, 0.502, -0.85, 0.194, 192.0, 0.0, 0.0, 0.0, 0.0, 0.0, 0.0, 0.0, 0.0, 0.0, 1.6635925201610827E9, 0.0, 2022-09-19 18:02:00.161
222.0, 11790.880476341305, 15270.443590932322, -74349.7028171662, -17629.536107723252, -57849.26508060278, -187500.02235174447, -40736.76952561969, -26379.104123008743, 0.502, -0.85, 0.194, 192.0, 0.0, 0.0, 0.0, 0.0, 0.0, 0.0, 0.0, 0.0, 0.0, 1.663592520165132E9, 0.0, 2022-09-19 18:02:00.165
223.0, 12019.225897696722, 15368.724211302306, -74454.24192598366, -17714.673902353516, -57964.354212803155, -187500.02235174447, -40793.162976880434, -26486.99599349451, 0.502, -0.85, 0.194, 192.0, 0.0, 0.0, 0.0, 0.0, 0.0, 0.0, 0.0, 0.0, 0.0, 1.6635925201691253E9, 0.0, 2022-09-19 18:02:00.169
224.0, 12096.048843389612, 15395.412194181943, -74482.829807142, -17772.60962398167, -57991.10925091616, -187500.02235174447, -40867.124899283044, -26514.91332231919, 0.502, -0.85, 0.194, 192.0, 0.0, 0.0, 0.0, 0.0, 0.0, 0.0, 0.0, 0.0, 0.0, 1.663592520172124E9, 0.0, 2022-09-19 18:02:00.172
225.0, 11879.169866939768, 15279.071364292071, -74363.42678826176, -17703.185105703487, -57864.35250811011, -187500.02235174447, -40829.104581964566, -26427.115670098745, 0.502, -0.85, 0.194, 192.0, 0.0, 0.0, 0.0, 0.0, 0.0, 0.0, 0.0, 0.0, 0.0, 1.6635925201761487E9, 0.0, 2022-09-19 18:02:00.176
226.0, 11796.602522921863, 15246.035485987126, -74320.91377030776, -17650.882023678067, -57817.83852789862, -187500.02235174447, -40766.20677306733, -26394.146847027165, 0.502, -0.85, 0.194, 192.0, 0.0, 0.0, 0.0, 0.0, 0.0, 0.0, 0.0, 0.0, 0.0, 1.663592520180158E9, 0.0, 2022-09-19 18:02:00.180
227.0, 11867.614015056375, 15290.515457453188, -74350.17220379975, -17652.983087656867, -57843.63244100004, -187500.02235174447, -40748.23597052527, -26409.614254190237, 0.502, -0.85, 0.194, 192.0, 0.0, 0.0, 0.0, 0.0, 0.0, 0.0, 0.0, 0.0, 0.0, 1.663592520185092E9, 0.0, 2022-09-19 18:02:00.185
228.0, 12070.746668666205, 15395.032214526203, -74464.85900459993, -17719.948914044966, -57934.98402058888, -187500.02235174447, -40841.688614092905, -26492.114542974778, 0.502, -0.85, 0.194, 192.0, 0.0, 0.0, 0.0, 0.0, 0.0, 0.0, 0.0, 0.0, 0.0, 1.6635925201890936E9, 0.0, 2022-09-19 18:02:00.189
229.0, 12112.142099397433, 15401.894200073983, -74487.36721126644, -17775.60475773868, -57951.65842195254, -187500.02235174447, -40926.37937383406, -26510.86765657278, 0.502, -0.85, 0.194, 192.0, 0.0, 0.0, 0.0, 0.0, 0.0, 0.0, 0.0, 0.0, 0.0, 1.663592520193261E9, 0.0, 2022-09-19 18:02:00.193
230.0, 11858.405096340788, 15276.612672401987, -74325.92056106575, -17685.72839328389, -57818.933763376925, -187500.02235174447, -40784.26698258722, -26404.696870410073, 0.506, -0.85, 0.198, 192.0, 15.0, 208.0, 229.0, 112.0, 6.0, 48.0, 0.0, 0.0, 0.0, 1.663592520197157E9, 0.0, 2022-09-19 18:02:00.197
231.0, 11756.838769535872, 15231.328038135534, -74266.777845237, -17598.40012769701, -57775.37021343353, -187500.02235174447, -40661.13122238293, -26338.848631244735, 0.506, -0.85, 0.198, 192.0, 0.0, 0.0, 0.0, 0.0, 0.0, 0.0, 0.0, 0.0, 0.0, 1.6635925202001543E9, 0.0, 2022-09-19 18:02:00.200
232.0, 11830.420712282743, 15278.333756725046, -74304.77581081103, -17611.811174370192, -57818.91141163247, -187500.02235174447, -40651.22939958923, -26364.50843387943, 0.506, -0.85, 0.198, 192.0, 0.0, 0.0, 0.0, 0.0, 0.0, 0.0, 0.0, 0.0, 0.0, 1.6635925202041647E9, 0.0, 2022-09-19 18:02:00.204
233.0, 12046.651488143383, 15393.109964503046, -74421.16134418981, -17689.192913674466, -57927.026799562795, -187500.02235174447, -40733.26030174021, -26469.785150263924, 0.506, -0.85, 0.198, 192.0, 0.0, 0.0, 0.0, 0.0, 0.0, 0.0, 0.0, 0.0, 0.0, 1.6635925202081401E9, 0.0, 2022-09-19 18:02:00.208
234.0, 12061.850674372992, 15385.957406277348, -74433.81243155152, -17719.591286133684, -57933.732322899385, -187500.02235174447, -40817.481674847804, -26469.114597930267, 0.506, -0.85, 0.198, 192.0, 0.0, 0.0, 0.0, 0.0, 0.0, 0.0, 0.0, 0.0, 0.0, 1.6635925202131493E9, 0.0, 2022-09-19 18:02:00.213
235.0, 11816.205002809169, 15252.517491879165, -74310.52020913604, -17637.135700838055, -57804.472184714345, -187500.02235174447, -40770.788880680666, -26359.50164312144, 0.506, -0.85, 0.198, 192.0, 0.0, 0.0, 0.0, 0.0, 0.0, 0.0, 0.0, 0.0, 0.0, 1.6635925202171414E9, 0.0, 2022-09-19 18:02:00.217
236.0, 11748.523920598498, 15223.124947920436, -74279.6300982988, -17606.893790590024, -57773.15739073246, -187500.02235174447, -40724.029031280166, -26343.609552813716, 0.506, -0.85, 0.198, 192.0, 0.0, 0.0, 0.0, 0.0, 0.0, 0.0, 0.0, 0.0, 0.0, 1.663592520221138E9, 0.0, 2022-09-19 18:02:00.221
237.0, 11846.782189224028, 15270.443590932322, -74337.85639260488, -17649.853843433124, -57821.43715875592, -187500.02235174447, -40765.15624107793, -26395.75617262795, 0.506, -0.85, 0.198, 192.0, 0.0, 0.0, 0.0, 0.0, 0.0, 0.0, 0.0, 0.0, 0.0, 1.66359252022517E9, 0.0, 2022-09-19 18:02:00.225
238.0, 12065.471656974752, 15403.212952996846, -74443.2225159672, -17753.342420261197, -57925.484529195375, -187500.02235174447, -40828.322270908626, -26502.888083802234, 0.506, -0.85, 0.198, 192.0, 0.0, 0.0, 0.0, 0.0, 0.0, 0.0, 0.0, 0.0, 0.0, 1.6635925202281716E9, 0.0, 2022-09-19 18:02:00.228
239.0, 12074.010023356679, 15413.114775790547, -74426.74928030363, -17743.977039334422, -57914.97920930138, -187500.02235174447, -40874.16569878646, -26491.511045874482, 0.506, -0.85, 0.198, 192.0, 0.0, 0.0, 0.0, 0.0, 0.0, 0.0, 0.0, 0.0, 0.0, 1.6635925202321832E9, 0.0, 2022-09-19 18:02:00.232
240.0, 11812.785185907505, 15278.624329402965, -74298.09263921888, -17654.54770976874, -57788.6918531289, -187500.02235174447, -40801.70134326236, -26366.765960069413, 0.502, -0.854, 0.192, 192.0, 15.0, 176.0, 229.0, 80.0, 6.0, 0.0, 0.0, 0.0, 0.0, 1.6635925202363245E9, 0.0, 2022-09-19 18:02:00.236
241.0, 11748.792141531962, 15252.91982327936, -74270.68940051668, -17618.11436630659, -57763.635547594495, -187500.02235174447, -40736.747173875236, -26330.556134051818, 0.502, -0.854, 0.192, 192.0, 0.0, 0.0, 0.0, 0.0, 0.0, 0.0, 0.0, 0.0, 0.0, 1.6635925202402244E9, 0.0, 2022-09-19 18:02:00.240
242.0, 11875.303015149, 15313.761271686706, -74319.48325866261, -17645.517605008794, -57815.73746391982, -187500.02235174447, -40742.22335126679, -26370.45399790454, 0.502, -0.854, 0.192, 192.0, 0.0, 0.0, 0.0, 0.0, 0.0, 0.0, 0.0, 0.0, 0.0, 1.663592520245217E9, 0.0, 2022-09-19 18:02:00.245
243.0, 12125.262573392698, 15441.38973252651, -74424.37999539137, -17728.822556593725, -57920.83536634867, -187500.02235174447, -40802.75187525176, -26479.23993816852, 0.502, -0.854, 0.192, 192.0, 0.0, 0.0, 0.0, 0.0, 0.0, 0.0, 0.0, 0.0, 0.0, 1.663592520249251E9, 0.0, 2022-09-19 18:02:00.249
244.0, 12100.96622716978, 15414.05354905767, -74413.53939933055, -17735.192803763486, -57906.73141559737, -187500.02235174447, -40850.85282931958, -26475.440141611118, 0.502, -0.854, 0.192, 192.0, 0.0, 0.0, 0.0, 0.0, 0.0, 0.0, 0.0, 0.0, 0.0, 1.6635925202532277E9, 0.0, 2022-09-19 18:02:00.253
245.0, 11837.036828641514, 15271.538826410631, -74286.76030478005, -17640.756683439813, -57778.81238207965, -187500.02235174447, -40767.3243602901, -26359.45693963253, 0.502, -0.854, 0.192, 192.0, 0.0, 0.0, 0.0, 0.0, 0.0, 0.0, 0.0, 0.0, 0.0, 1.6635925202562764E9, 0.0, 2022-09-19 18:02:00.256
246.0, 11771.90384529875, 15253.076285490548, -74262.19573762367, -17604.613912655583, -57749.28572765419, -187500.02235174447, -40725.45954292531, -26334.9147242206, 0.502, -0.854, 0.192, 192.0, 0.0, 0.0, 0.0, 0.0, 0.0, 0.0, 0.0, 0.0, 0.0, 1.6635925202602532E9, 0.0, 2022-09-19 18:02:00.260
247.0, 11869.290395890523, 15316.59994323253, -74330.18974425671, -17632.978276369366, -57808.85312662758, -187500.02235174447, -40776.19800283885, -26371.906861294137, 0.502, -0.854, 0.192, 192.0, 0.0, 0.0, 0.0, 0.0, 0.0, 0.0, 0.0, 0.0, 0.0, 1.6635925202642484E9, 0.0, 2022-09-19 18:02:00.264
248.0, 12113.259686620198, 15442.015581371259, -74428.0680332265, -17715.54562038727, -57923.36111347212, -187500.02235174447, -40811.87138698952, -26483.442066126117, 0.502, -0.854, 0.192, 192.0, 0.0, 0.0, 0.0, 0.0, 0.0, 0.0, 0.0, 0.0, 0.0, 1.6635925202682438E9, 0.0, 2022-09-19 18:02:00.268
249.0, 12052.798217868592, 15405.984569309303, -74398.98841369014, -17725.805071092258, -57898.84124980465, -187500.02235174447, -40822.0861342056, -26455.301219856887, 0.502, -0.854, 0.192, 192.0, 0.0, 0.0, 0.0, 0.0, 0.0, 0.0, 0.0, 0.0, 0.0, 1.6635925202732728E9, 0.0, 2022-09-19 18:02:00.273
250.0, 11773.714336599629, 15265.59326238552, -74281.7311622776, -17641.136663095556, -57778.52180940173, -187500.02235174447, -40747.02897632468, -26348.191660427055, 0.498, -0.862, 0.188, 192.0, 15.0, 144.0, 229.0, 16.0, 5.0, 224.0, 0.0, 0.0, 0.0, 1.663592520277277E9, 0.0, 2022-09-19 18:02:00.277
251.0, 11736.297516381444, 15250.43877964482, -74265.43674056968, -17617.980255839855, -57764.976652261816, -187500.02235174447, -40695.53055709965, -26346.15765168162, 0.498, -0.862, 0.188, 192.0, 0.0, 0.0, 0.0, 0.0, 0.0, 0.0, 0.0, 0.0, 0.0, 1.6635925202812667E9, 0.0, 2022-09-19 18:02:00.281
252.0, 11875.39242212682, 15325.875917181484, -74310.67667134723, -17642.477767762874, -57812.60821969608, -187500.02235174447, -40701.87845252496, -26373.806759572835, 0.498, -0.862, 0.188, 192.0, 0.0, 0.0, 0.0, 0.0, 0.0, 0.0, 0.0, 0.0, 0.0, 1.6635925202843072E9, 0.0, 2022-09-19 18:02:00.284
253.0, 12107.135308639445, 15447.491758762808, -74411.70655628521, -17728.55433566026, -57917.303790724734, -187500.02235174447, -40774.61102898252, -26490.9522522631, 0.498, -0.862, 0.188, 192.0, 0.0, 0.0, 0.0, 0.0, 0.0, 0.0, 0.0, 0.0, 0.0, 1.6635925202883036E9, 0.0, 2022-09-19 18:02:00.288
254.0, 12055.94981383679, 15410.901953089471, -74391.47822755316, -17743.239431767397, -57888.24652293284, -187500.02235174447, -40831.63032908802, -26475.060161955378, 0.498, -0.862, 0.188, 192.0, 0.0, 0.0, 0.0, 0.0, 0.0, 0.0, 0.0, 0.0, 0.0, 1.6635925202923405E9, 0.0, 2022-09-19 18:02:00.292
255.0, 11820.228316811123, 15285.575721928564, -74271.35995285034, -17646.746950953835, -57769.96109127535, -187500.02235174447, -40752.125174060486, -26344.525974336386, 0.498, -0.862, 0.188, 192.0, 0.0, 0.0, 0.0, 0.0, 0.0, 0.0, 0.0, 0.0, 0.0, 1.663592520296382E9, 0.0, 2022-09-19 18:02:00.296
0.0, 11784.309063471444, 15270.018907787671, -74263.35802833534, -17586.95603453589, -57756.594748091076, -187500.02235174447, -40713.54606313063, -26309.88077043066, 0.498, -0.862, 0.188, 192.0, 0.0, 0.0, 0.0, 0.0, 0.0, 0.0, 0.0, 0.0, 0.0, 1.6635925203012924E9, 0.0, 2022-09-19 18:02:00.301
1.0, 11893.385576413344, 15326.948800915337, -74315.68346210521, -17621.78005239726, -57815.40218775299, -187500.02235174447, -40720.11747600049, -26359.16636695461, 0.498, -0.862, 0.188, 192.0, 0.0, 0.0, 0.0, 0.0, 0.0, 0.0, 0.0, 0.0, 0.0, 1.6635925203052993E9, 0.0, 2022-09-19 18:02:00.305
2.0, 12092.2043433433, 15418.613304926552, -74429.90087627183, -17713.444556408474, -57928.56906993021, -187500.02235174447, -40797.32040134912, -26476.33421138933, 0.498, -0.862, 0.188, 192.0, 0.0, 0.0, 0.0, 0.0, 0.0, 0.0, 0.0, 0.0, 0.0, 1.6635925203093348E9, 0.0, 2022-09-19 18:02:00.309
3.0, 12021.125795975424, 15380.190656207878, -74397.02146017808, -17699.720585312913, -57888.82766828867, -187500.02235174447, -40843.09677399359, -26450.22737386553, 0.498, -0.862, 0.188, 192.0, 0.0, 0.0, 0.0, 0.0, 0.0, 0.0, 0.0, 0.0, 0.0, 1.663592520312388E9, 0.0, 2022-09-19 18:02:00.312
4.0, 11791.61808390833, 15262.3522594395, -74276.76907500853, -17614.113404049087, -57771.32454768712, -187500.02235174447, -40751.67813917138, -26333.618323042196, 0.5, -0.868, 0.188, 192.0, 15.0, 160.0, 228.0, 224.0, 5.0, 224.0, 0.0, 0.0, 0.0, 1.6635925203164055E9, 0.0, 2022-09-19 18:02:00.316
5.0, 11761.242063193567, 15280.814800359583, -74268.20835688214, -17598.57894165265, -57765.62485285102, -187500.02235174447, -40702.88428102544, -26342.9166487356, 0.5, -0.868, 0.188, 192.0, 0.0, 0.0, 0.0, 0.0, 0.0, 0.0, 0.0, 0.0, 0.0, 1.6635925203204143E9, 0.0, 2022-09-19 18:02:00.320
6.0, 11912.004579544615, 15362.845702510562, -74319.46090691816, -17622.137680308544, -57818.732597676826, -187500.02235174447, -40716.1612172319, -26388.782428357892, 0.5, -0.868, 0.188, 192.0, 0.0, 0.0, 0.0, 0.0, 0.0, 0.0, 0.0, 0.0, 0.0, 1.663592520324388E9, 0.0, 2022-09-19 18:02:00.324
7.0, 12125.217869903789, 15468.569453784163, -74419.48496335566, -17718.943085544477, -57924.635162906074, -187500.02235174447, -40782.16591860842, -26503.156304735698, 0.5, -0.868, 0.188, 192.0, 0.0, 0.0, 0.0, 0.0, 0.0, 0.0, 0.0, 0.0, 0.0, 1.663592520328412E9, 0.0, 2022-09-19 18:02:00.328
8.0, 12024.880889043914, 15405.179906508913, -74385.39855306131, -17727.45910018195, -57874.231979159355, -187500.02235174447, -40826.95881449686, -26463.81723449436, 0.5, -0.868, 0.188, 192.0, 0.0, 0.0, 0.0, 0.0, 0.0, 0.0, 0.0, 0.0, 0.0, 1.6635925203334267E9, 0.0, 2022-09-19 18:02:00.333
9.0, 11795.32847348791, 15283.988748072237, -74270.04119992748, -17627.904430378014, -57753.219634678324, -187500.02235174447, -40746.604293180026, -26343.87777374718, 0.5, -0.868, 0.188, 192.0, 0.0, 0.0, 0.0, 0.0, 0.0, 0.0, 0.0, 0.0, 0.0, 1.6635925203374546E9, 0.0, 2022-09-19 18:02:00.337
10.0, 11779.838714580383, 15282.111201537991, -74254.50673753105, -17580.67519434395, -57742.64725955096, -187500.02235174447, -40687.08159769554, -26330.22085788499, 0.5, -0.868, 0.188, 192.0, 0.0, 0.0, 0.0, 0.0, 0.0, 0.0, 0.0, 0.0, 0.0, 1.6635925203404322E9, 0.0, 2022-09-19 18:02:00.340
11.0, 11906.2601812196, 15352.921527972405, -74314.47646790463, -17619.678988418458, -57802.77345213574, -187500.02235174447, -40688.60151631851, -26384.245024233463, 0.5, -0.868, 0.188, 192.0, 0.0, 0.0, 0.0, 0.0, 0.0, 0.0, 0.0, 0.0, 0.0, 1.6635925203443885E9, 0.0, 2022-09-19 18:02:00.344
12.0, 12099.021625402169, 15449.838691930616, -74423.2177046797, -17702.112221969634, -57902.55163938423, -187500.02235174447, -40782.14356686397, -26481.139836447222, 0.5, -0.868, 0.188, 192.0, 0.0, 0.0, 0.0, 0.0, 0.0, 0.0, 0.0, 0.0, 0.0, 1.6635925203484054E9, 0.0, 2022-09-19 18:02:00.348
13.0, 11976.198789620255, 15373.194560193368, -74381.88932918184, -17690.31050089723, -57843.49833053331, -187500.02235174447, -40833.97726225582, -26435.721091714036, 0.5, -0.868, 0.188, 192.0, 0.0, 0.0, 0.0, 0.0, 0.0, 0.0, 0.0, 0.0, 0.0, 1.6635925203524127E9, 0.0, 2022-09-19 18:02:00.352
14.0, 11766.539426629475, 15257.099599492503, -74282.11114193335, -17601.14939226501, -57738.959221715835, -187500.02235174447, -40759.63536019747, -26337.2169538995, 0.5, -0.86, 0.184, 192.0, 15.0, 160.0, 229.0, 32.0, 5.0, 192.0, 0.0, 0.0, 0.0, 1.6635925203563936E9, 0.0, 2022-09-19 18:02:00.356
15.0, 11774.89897905576, 15264.92271005186, -74285.06157220145, -17584.363232179076, -57740.45678859435, -187500.02235174447, -40719.98336553376, -26323.1130031482, 0.5, -0.86, 0.184, 192.0, 0.0, 0.0, 0.0, 0.0, 0.0, 0.0, 0.0, 0.0, 0.0, 1.663592520361518E9, 0.0, 2022-09-19 18:02:00.361
16.0, 11936.323277511989, 15356.833083252084, -74341.38796822882, -17618.896677362525, -57798.63837941151, -187500.02235174447, -40720.184531233856, -26386.860178334737, 0.5, -0.86, 0.184, 192.0, 0.0, 0.0, 0.0, 0.0, 0.0, 0.0, 0.0, 0.0, 0.0, 1.663592520364401E9, 0.0, 2022-09-19 18:02:00.364
17.0, 12148.195463203843, 15460.791046713717, -74440.33914093247, -17690.578721830694, -57897.54484862624, -187500.02235174447, -40790.19019486788, -26476.28950790042, 0.5, -0.86, 0.184, 192.0, 0.0, 0.0, 0.0, 0.0, 0.0, 0.0, 0.0, 0.0, 0.0, 1.6635925203684187E9, 0.0, 2022-09-19 18:02:00.368
18.0, 12016.677798828818, 15378.357813162544, -74385.86793969489, -17669.29986110924, -57830.601373982594, -187500.02235174447, -40809.30093637716, -26420.074870595323, 0.5, -0.86, 0.184, 192.0, 0.0, 0.0, 0.0, 0.0, 0.0, 0.0, 0.0, 0.0, 0.0, 1.6635925203724172E9, 0.0, 2022-09-19 18:02:00.372
19.0, 11803.464508469642, 15268.364878697977, -74288.41433386975, -17595.67321487346, -57726.66576226542, -187500.02235174447, -40722.889092312944, -26323.425927570574, 0.5, -0.86, 0.184, 192.0, 0.0, 0.0, 0.0, 0.0, 0.0, 0.0, 0.0, 0.0, 0.0, 1.6635925203764207E9, 0.0, 2022-09-19 18:02:00.376
20.0, 11811.600543451375, 15280.054841048104, -74290.02365947052, -17571.46627562836, -57726.01756167621, -187500.02235174447, -40691.373132630964, -26312.63003499866, 0.5, -0.86, 0.184, 192.0, 0.0, 0.0, 0.0, 0.0, 0.0, 0.0, 0.0, 0.0, 0.0, 1.6635925203804588E9, 0.0, 2022-09-19 18:02:00.380
21.0, 11951.45540850823, 15357.369525119011, -74370.84756742092, -17630.85486064611, -57798.884248600516, -187500.02235174447, -40719.93866204484, -26393.0292598044, 0.5, -0.86, 0.184, 192.0, 0.0, 0.0, 0.0, 0.0, 0.0, 0.0, 0.0, 0.0, 0.0, 1.6635925203844512E9, 0.0, 2022-09-19 18:02:00.384
22.0, 12122.647419291428, 15448.542290752208, -74467.83178661249, -17708.817745306224, -57891.64398809004, -187500.02235174447, -40782.79176745317, -26494.282662186943, 0.5, -0.86, 0.184, 192.0, 0.0, 0.0, 0.0, 0.0, 0.0, 0.0, 0.0, 0.0, 0.0, 1.6635925203895133E9, 0.0, 2022-09-19 18:02:00.389
23.0, 11962.810094691527, 15356.833083252084, -74392.72992524266, -17666.103561652133, -57812.87644062954, -187500.02235174447, -40792.246555357764, -26421.86301015175, 0.5, -0.86, 0.184, 192.0, 0.0, 0.0, 0.0, 0.0, 0.0, 0.0, 0.0, 0.0, 0.0, 1.6635925203924985E9, 0.0, 2022-09-19 18:02:00.392
24.0, 11777.447077923665, 15259.759457082684, -74282.84874950036, -17564.648993569495, -57702.972913142796, -187500.02235174447, -40699.39740889042, -26315.893389689136, 0.494, -0.856, 0.184, 192.0, 15.0, 112.0, 229.0, 64.0, 5.0, 192.0, 0.0, 0.0, 0.0, 1.6635925203965013E9, 0.0, 2022-09-19 18:02:00.396
25.0, 11807.778395149517, 15285.799239373118, -74297.26562467404, -17548.511034072762, -57710.013712646214, -187500.02235174447, -40677.671513279856, -26306.192732595533, 0.494, -0.856, 0.184, 192.0, 0.0, 0.0, 0.0, 0.0, 0.0, 0.0, 0.0, 0.0, 0.0, 1.663592520400561E9, 0.0, 2022-09-19 18:02:00.400
26.0, 11972.443696551765, 15375.921473016915, -74373.44036977773, -17602.311682976688, -57791.37406246353, -187500.02235174447, -40696.96106874479, -26370.230480459988, 0.494, -0.856, 0.184, 192.0, 0.0, 0.0, 0.0, 0.0, 0.0, 0.0, 0.0, 0.0, 0.0, 1.6635925204045353E9, 0.0, 2022-09-19 18:02:00.404
27.0, 12154.051620251133, 15460.612232758074, -74462.1767952653, -17678.441724591463, -57881.384537385056, -187500.02235174447, -40777.293238317165, -26466.67825778464, 0.494, -0.856, 0.184, 192.0, 0.0, 0.0, 0.0, 0.0, 0.0, 0.0, 0.0, 0.0, 0.0, 1.6635925204085765E9, 0.0, 2022-09-19 18:02:00.408
28.0, 11980.892655955871, 15360.252900153746, -74397.04381192253, -17640.35435203962, -57802.14760329099, -187500.02235174447, -40803.66829677443, -26406.41795473313, 0.494, -0.856, 0.184, 192.0, 0.0, 0.0, 0.0, 0.0, 0.0, 0.0, 0.0, 0.0, 0.0, 1.663592520412557E9, 0.0, 2022-09-19 18:02:00.412
29.0, 11791.126345530314, 15268.16371299788, -74297.55619735197, -17564.38077263603, -57707.33150331158, -187500.02235174447, -40717.18939747684, -26317.88269494566, 0.494, -0.856, 0.184, 192.0, 0.0, 0.0, 0.0, 0.0, 0.0, 0.0, 0.0, 0.0, 0.0, 1.6635925204175513E9, 0.0, 2022-09-19 18:02:00.417
30.0, 11814.640380697296, 15285.97805332876, -74307.56977886794, -17554.1436736755, -57725.57052678711, -187500.02235174447, -40683.28180113814, -26320.028462413367, 0.494, -0.856, 0.184, 192.0, 0.0, 0.0, 0.0, 0.0, 0.0, 0.0, 0.0, 0.0, 0.0, 1.6635925204205244E9, 0.0, 2022-09-19 18:02:00.420
31.0, 11975.885865197883, 15372.881635770993, -74380.1011896254, -17611.09591854762, -57806.707359159875, -187500.02235174447, -40693.92123149887, -26396.247911005965, 0.494, -0.856, 0.184, 192.0, 0.0, 0.0, 0.0, 0.0, 0.0, 0.0, 0.0, 0.0, 0.0, 1.6635925204235551E9, 0.0, 2022-09-19 18:02:00.423
32.0, 12136.438445620352, 15461.171026369457, -74462.84734759896, -17676.385364101574, -57886.905418265516, -187500.02235174447, -40770.0736248581, -26466.61120255127, 0.494, -0.856, 0.184, 192.0, 0.0, 0.0, 0.0, 0.0, 0.0, 0.0, 0.0, 0.0, 0.0, 1.6635925204285426E9, 0.0, 2022-09-19 18:02:00.428
33.0, 11939.36311475791, 15355.648440795952, -74392.32759384246, -17628.127947822566, -57797.409033466465, -187500.02235174447, -40795.64402051497, -26394.83975110528, 0.494, -0.856, 0.184, 192.0, 0.0, 0.0, 0.0, 0.0, 0.0, 0.0, 0.0, 0.0, 0.0, 1.66359252043254E9, 0.0, 2022-09-19 18:02:00.432
34.0, 11779.481086669099, 15273.55048341161, -74310.87783704733, -17551.08148468512, -57708.04675913415, -187500.02235174447, -40732.85797034001, -26312.29475883183, 0.494, -0.856, 0.184, 192.0, 0.0, 0.0, 0.0, 0.0, 0.0, 0.0, 0.0, 0.0, 0.0, 1.6635925204365392E9, 0.0, 2022-09-19 18:02:00.436
35.0, 11805.610275937352, 15313.515402497698, -74327.68634887772, -17554.970688220346, -57737.81928274862, -187500.02235174447, -40700.358533902, -26329.59500904024, 0.498, -0.862, 0.182, 192.0, 15.0, 144.0, 229.0, 16.0, 5.0, 176.0, 0.0, 0.0, 0.0, 1.6635925204405708E9, 0.0, 2022-09-19 18:02:00.440
36.0, 11979.484496055185, 15406.632769898508, -74391.6570415088, -17600.68000563145, -57818.91141163247, -187500.02235174447, -40691.931926242345, -26394.862102849736, 0.498, -0.862, 0.182, 192.0, 0.0, 0.0, 0.0, 0.0, 0.0, 0.0, 0.0, 0.0, 0.0, 1.663592520444646E9, 0.0, 2022-09-19 18:02:00.444
37.0, 12143.054561979123, 15481.555817312697, -74472.21272852573, -17647.842186432146, -57890.92873226747, -187500.02235174447, -40779.5731162516, -26461.42559783764, 0.498, -0.862, 0.182, 192.0, 0.0, 0.0, 0.0, 0.0, 0.0, 0.0, 0.0, 0.0, 0.0, 1.6635925204485753E9, 0.0, 2022-09-19 18:02:00.448
38.0, 11959.725553956694, 15373.820409038117, -74390.33828858595, -17583.312700189676, -57777.136001245504, -187500.02235174447, -40801.92486070691, -26368.241175203464, 0.498, -0.862, 0.182, 192.0, 0.0, 0.0, 0.0, 0.0, 0.0, 0.0, 0.0, 0.0, 0.0, 1.6635925204516253E9, 0.0, 2022-09-19 18:02:00.451
39.0, 11798.658883411752, 15296.483373222754, -74297.35503165187, -17510.17779233191, -57658.26942423218, -187500.02235174447, -40708.87454853947, -26294.97215687897, 0.498, -0.862, 0.182, 192.0, 0.0, 0.0, 0.0, 0.0, 0.0, 0.0, 0.0, 0.0, 0.0, 1.6635925204566157E9, 0.0, 2022-09-19 18:02:00.456
40.0, 11835.20398559618, 15327.2170218488, -74324.57945639842, -17508.166135330932, -57669.78057262666, -187500.02235174447, -40710.43917065134, -26300.53774124834, 0.498, -0.862, 0.182, 192.0, 0.0, 0.0, 0.0, 0.0, 0.0, 0.0, 0.0, 0.0, 0.0, 1.663592520460588E9, 0.0, 2022-09-19 18:02:00.460
41.0, 12036.034409527114, 15430.459729487864, -74411.43833535175, -17573.14265646251, -57758.98638474779, -187500.02235174447, -40746.0678513131, -26391.88932083718, 0.498, -0.862, 0.182, 192.0, 0.0, 0.0, 0.0, 0.0, 0.0, 0.0, 0.0, 0.0, 0.0, 1.663592520464663E9, 0.0, 2022-09-19 18:02:00.464
42.0, 12162.612338377518, 15497.40320413151, -74461.68505688728, -17637.895660149534, -57830.131987349036, -187500.02235174447, -40775.37098829401, -26465.2477461395, 0.498, -0.862, 0.182, 192.0, 0.0, 0.0, 0.0, 0.0, 0.0, 0.0, 0.0, 0.0, 0.0, 1.6635925204685967E9, 0.0, 2022-09-19 18:02:00.468
43.0, 11938.558451957519, 15381.889388786483, -74355.8495468914, -17577.590653609117, -57724.31882909761, -187500.02235174447, -40743.07271755609, -26372.93504153908, 0.498, -0.862, 0.182, 192.0, 0.0, 0.0, 0.0, 0.0, 0.0, 0.0, 0.0, 0.0, 0.0, 1.6635925204725995E9, 0.0, 2022-09-19 18:02:00.472
44.0, 11788.24297049558, 15302.98773085925, -74285.17333092372, -17516.19041159039, -57647.808807827096, -187500.02235174447, -40675.793966745616, -26289.607738209696, 0.498, -0.862, 0.182, 192.0, 0.0, 0.0, 0.0, 0.0, 0.0, 0.0, 0.0, 0.0, 0.0, 1.6635925204766307E9, 0.0, 2022-09-19 18:02:00.476
45.0, 11836.209814096668, 15332.2685160957, -74306.63100560082, -17507.428527763906, -57669.66881390438, -187500.02235174447, -40662.82995496153, -26308.316148318787, 0.498, -0.86, 0.176, 192.0, 15.0, 144.0, 229.0, 32.0, 5.0, 128.0, 0.0, 0.0, 0.0, 1.6635925204796088E9, 0.0, 2022-09-19 18:02:00.479
46.0, 12019.941153519292, 15438.975744125337, -74392.41700082028, -17567.219444181854, -57760.841579537584, -187500.02235174447, -40701.47612112476, -26402.662861664638, 0.498, -0.86, 0.176, 192.0, 0.0, 0.0, 0.0, 0.0, 0.0, 0.0, 0.0, 0.0, 0.0, 1.6635925204847095E9, 0.0, 2022-09-19 18:02:00.484
47.0, 12151.570576616596, 15502.87938152306, -74469.99990582466, -17640.242593317344, -57832.65773447249, -187500.02235174447, -40808.25040438776, -26467.03588569592, 0.498, -0.86, 0.176, 192.0, 0.0, 0.0, 0.0, 0.0, 0.0, 0.0, 0.0, 0.0, 0.0, 1.6635925204886775E9, 0.0, 2022-09-19 18:02:00.488
48.0, 11927.092007051946, 15378.46957188482, -74387.25374785111, -17592.655729371992, -57738.60159380455, -187500.02235174447, -40807.155168909456, -26370.31988743781, 0.498, -0.86, 0.176, 192.0, 0.0, 0.0, 0.0, 0.0, 0.0, 0.0, 0.0, 0.0, 0.0, 1.6635925204926517E9, 0.0, 2022-09-19 18:02:00.492
49.0, 11772.395583676765, 15307.346321028033, -74293.37642113882, -17503.785193417694, -57653.44144742983, -187500.02235174447, -40696.53638560014, -26279.594156693718, 0.498, -0.86, 0.176, 192.0, 0.0, 0.0, 0.0, 0.0, 0.0, 0.0, 0.0, 0.0, 0.0, 1.6635925204966795E9, 0.0, 2022-09-19 18:02:00.496
50.0, 11821.681180200718, 15327.775815460183, -74299.29963341948, -17487.289606009675, -57671.05462206061, -187500.02235174447, -40668.507298053184, -26297.788476680336, 0.498, -0.86, 0.176, 192.0, 0.0, 0.0, 0.0, 0.0, 0.0, 0.0, 0.0, 0.0, 0.0, 1.663592520500739E9, 0.0, 2022-09-19 18:02:00.500
51.0, 12007.558287091051, 15427.330485264121, -74381.554053015, -17563.084371457622, -57766.98830926279, -187500.02235174447, -40700.38088564645, -26395.75617262795, 0.498, -0.86, 0.176, 192.0, 0.0, 0.0, 0.0, 0.0, 0.0, 0.0, 0.0, 0.0, 0.0, 1.6635925205047672E9, 0.0, 2022-09-19 18:02:00.504
52.0, 12140.327649155575, 15506.612122847097, -74441.74730083314, -17620.416595985484, -57823.15824307898, -187500.02235174447, -40797.05218041565, -26442.247801094985, 0.498, -0.86, 0.176, 192.0, 0.0, 0.0, 0.0, 0.0, 0.0, 0.0, 0.0, 0.0, 0.0, 1.6635925205076747E9, 0.0, 2022-09-19 18:02:00.507
53.0, 11952.304774797532, 15397.647368627475, -74338.37048272735, -17560.402162122984, -57717.23332610528, -187500.02235174447, -40787.016247155225, -26345.040064458855, 0.498, -0.86, 0.176, 192.0, 0.0, 0.0, 0.0, 0.0, 0.0, 0.0, 0.0, 0.0, 0.0, 1.663592520511734E9, 0.0, 2022-09-19 18:02:00.511
54.0, 11822.999933123581, 15346.953612202838, -74261.12285388981, -17500.097155582567, -57654.80490384161, -187500.02235174447, -40691.239022164234, -26283.215139295477, 0.498, -0.86, 0.176, 192.0, 0.0, 0.0, 0.0, 0.0, 0.0, 0.0, 0.0, 0.0, 0.0, 1.6635925205167315E9, 0.0, 2022-09-19 18:02:00.516
55.0, 11864.350660365899, 15386.42679291091, -74292.45999961616, -17477.857169849536, -57679.72709890927, -187500.02235174447, -40683.72883602725, -26295.86622665718, 0.5, -0.868, 0.178, 192.0, 15.0, 160.0, 228.0, 224.0, 5.0, 144.0, 0.0, 0.0, 0.0, 1.663592520520748E9, 0.0, 2022-09-19 18:02:00.520
56.0, 12033.016924025647, 15485.981462714848, -74400.86596022439, -17546.43232183842, -57780.086431513606, -187500.02235174447, -40741.37398497749, -26382.74745735496, 0.5, -0.868, 0.178, 192.0, 0.0, 0.0, 0.0, 0.0, 0.0, 0.0, 0.0, 0.0, 0.0, 1.6635925205247767E9, 0.0, 2022-09-19 18:02:00.524
57.0, 12122.960343713803, 15516.491593896342, -74454.9795335507, -17613.264037759785, -57834.69174321792, -187500.02235174447, -40820.34269813808, -26431.362501545253, 0.5, -0.868, 0.178, 192.0, 0.0, 0.0, 0.0, 0.0, 0.0, 0.0, 0.0, 0.0, 0.0, 1.6635925205287073E9, 0.0, 2022-09-19 18:02:00.528
58.0, 11929.707161153217, 15380.682394585896, -74336.40352921528, -17545.76176950476, -57715.89222143796, -187500.02235174447, -40788.37970356699, -26332.053700930323, 0.5, -0.868, 0.178, 192.0, 0.0, 0.0, 0.0, 0.0, 0.0, 0.0, 0.0, 0.0, 0.0, 1.663592520532725E9, 0.0, 2022-09-19 18:02:00.532
59.0, 11822.843470912394, 15330.010989905715, -74281.12766517731, -17484.36152748603, -57655.58721489754, -187500.02235174447, -40727.47119992629, -26270.564051933772, 0.5, -0.868, 0.178, 192.0, 0.0, 0.0, 0.0, 0.0, 0.0, 0.0, 0.0, 0.0, 0.0, 1.6635925205357063E9, 0.0, 2022-09-19 18:02:00.535
60.0, 11889.25050368911, 15379.810676552139, -74299.00906074156, -17492.408155489942, -57685.40444200092, -187500.02235174447, -40683.66178079388, -26307.15385760711, 0.5, -0.868, 0.178, 192.0, 0.0, 0.0, 0.0, 0.0, 0.0, 0.0, 0.0, 0.0, 0.0, 1.6635925205407765E9, 0.0, 2022-09-19 18:02:00.540
61.0, 12089.0527473751, 15497.783183787249, -74384.59389026093, -17563.46435111336, -57785.56260890515, -187500.02235174447, -40692.89305125392, -26421.0359956069, 0.5, -0.868, 0.178, 192.0, 0.0, 0.0, 0.0, 0.0, 0.0, 0.0, 0.0, 0.0, 0.0, 1.6635925205447505E9, 0.0, 2022-09-19 18:02:00.544
62.0, 12161.248881965743, 15540.184443018967, -74433.72302457369, -17604.211581255386, -57824.76756867976, -187500.02235174447, -40780.13190986299, -26459.682161770128, 0.5, -0.868, 0.178, 192.0, 0.0, 0.0, 0.0, 0.0, 0.0, 0.0, 0.0, 0.0, 0.0, 1.6635925205487852E9, 0.0, 2022-09-19 18:02:00.548
63.0, 11914.664437134796, 15410.276104244722, -74329.69800587869, -17525.913420428446, -57701.7212154533, -187500.02235174447, -40768.03961611266, -26330.936113707558, 0.5, -0.868, 0.178, 192.0, 0.0, 0.0, 0.0, 0.0, 0.0, 0.0, 0.0, 0.0, 0.0, 1.6635925205528076E9, 0.0, 2022-09-19 18:02:00.552
64.0, 11812.651075440774, 15361.214025165324, -74274.48919707409, -17471.665736635416, -57641.48326414624, -187500.02235174447, -40690.590821575024, -26266.92071758756, 0.5, -0.868, 0.178, 192.0, 0.0, 0.0, 0.0, 0.0, 0.0, 0.0, 0.0, 0.0, 0.0, 1.6635925205567865E9, 0.0, 2022-09-19 18:02:00.556
65.0, 11895.956027025704, 15408.309150732655, -74294.73987755059, -17479.287681494676, -57670.78640112715, -187500.02235174447, -40658.09138513701, -26291.753505677403, 0.496, -0.86, 0.182, 192.0, 15.0, 128.0, 229.0, 32.0, 5.0, 176.0, 0.0, 0.0, 0.0, 1.6635925205599709E9, 0.0, 2022-09-19 18:02:00.559
66.0, 12104.96718942728, 15527.22043123489, -74397.24497762263, -17549.829786995626, -57771.0339750092, -187500.02235174447, -40709.92508052887, -26383.64152713317, 0.496, -0.86, 0.182, 192.0, 0.0, 0.0, 0.0, 0.0, 0.0, 0.0, 0.0, 0.0, 0.0, 1.6635925205638344E9, 0.0, 2022-09-19 18:02:00.563
67.0, 12172.491809426763, 15555.495387970852, -74445.5247456461, -17575.13196171903, -57802.5946381801, -187500.02235174447, -40811.066724189135, -26420.052518850865, 0.496, -0.86, 0.182, 192.0, 0.0, 0.0, 0.0, 0.0, 0.0, 0.0, 0.0, 0.0, 0.0, 1.6635925205677924E9, 0.0, 2022-09-19 18:02:00.567
68.0, 11930.042437320048, 15419.417967726944, -74336.35882572638, -17510.781289432205, -57686.745546668244, -187500.02235174447, -40777.919087161914, -26298.97311913647, 0.496, -0.86, 0.182, 192.0, 0.0, 0.0, 0.0, 0.0, 0.0, 0.0, 0.0, 0.0, 0.0, 1.6635925205727606E9, 0.0, 2022-09-19 18:02:00.572
69.0, 11813.880421385817, 15363.404496121944, -74278.66897328723, -17464.80375108764, -57646.17713048186, -187500.02235174447, -40669.66958876486, -26261.15396751809, 0.496, -0.86, 0.182, 192.0, 0.0, 0.0, 0.0, 0.0, 0.0, 0.0, 0.0, 0.0, 0.0, 1.6635925205768297E9, 0.0, 2022-09-19 18:02:00.576
70.0, 11868.083401689935, 15403.838801841594, -74307.65918584575, -17474.616166903517, -57679.36947099799, -187500.02235174447, -40645.06031811957, -26306.438601784543, 0.496, -0.86, 0.182, 192.0, 0.0, 0.0, 0.0, 0.0, 0.0, 0.0, 0.0, 0.0, 0.0, 1.6635925205808492E9, 0.0, 2022-09-19 18:02:00.580
71.0, 12077.273378047155, 15521.11840499859, -74402.78821024754, -17548.0416474392, -57786.68019612792, -187500.02235174447, -40693.25067916521, -26412.27411178042, 0.496, -0.86, 0.182, 192.0, 0.0, 0.0, 0.0, 0.0, 0.0, 0.0, 0.0, 0.0, 0.0, 1.6635925205848553E9, 0.0, 2022-09-19 18:02:00.584
72.0, 12128.235355405255, 15539.536242429764, -74440.89793454384, -17587.872456058558, -57819.69372268841, -187500.02235174447, -40798.058008916145, -26447.70162674208, 0.496, -0.86, 0.182, 192.0, 0.0, 0.0, 0.0, 0.0, 0.0, 0.0, 0.0, 0.0, 0.0, 1.6635925205878303E9, 0.0, 2022-09-19 18:02:00.587
73.0, 11900.716948594683, 15407.19156350989, -74323.95360755367, -17504.813373662637, -57702.615285231506, -187500.02235174447, -40754.96384560631, -26329.25973287341, 0.496, -0.86, 0.182, 192.0, 0.0, 0.0, 0.0, 0.0, 0.0, 0.0, 0.0, 0.0, 0.0, 1.6635925205918446E9, 0.0, 2022-09-19 18:02:00.591
74.0, 11818.931915632715, 15363.80682752214, -74270.95762145014, -17450.61039335852, -57660.88457833345, -187500.02235174447, -40659.41013805987, -26278.275403770855, 0.496, -0.86, 0.182, 192.0, 0.0, 0.0, 0.0, 0.0, 0.0, 0.0, 0.0, 0.0, 0.0, 1.6635925205959272E9, 0.0, 2022-09-19 18:02:00.595
75.0, 11890.815125800984, 15408.24209549929, -74306.20632245617, -17456.60066087254, -57697.161459584415, -187500.02235174447, -40648.68130072133, -26294.748639434416, 0.496, -0.86, 0.186, 192.0, 15.0, 128.0, 229.0, 32.0, 5.0, 208.0, 0.0, 0.0, 0.0, 1.6635925206008844E9, 0.0, 2022-09-19 18:02:00.600
76.0, 12105.324817338565, 15521.654846865518, -74398.94371020123, -17526.539269273195, -57797.74430963329, -187500.02235174447, -40700.358533902, -26393.766867371425, 0.496, -0.86, 0.186, 192.0, 0.0, 0.0, 0.0, 0.0, 0.0, 0.0, 0.0, 0.0, 0.0, 1.6635925206048172E9, 0.0, 2022-09-19 18:02:00.604
77.0, 12141.713457311806, 15530.997876047835, -74433.99124550716, -17560.446865611895, -57815.73746391982, -187500.02235174447, -40805.27762237521, -26428.456774766062, 0.496, -0.86, 0.186, 192.0, 0.0, 0.0, 0.0, 0.0, 0.0, 0.0, 0.0, 0.0, 0.0, 1.6635925206088502E9, 0.0, 2022-09-19 18:02:00.608
78.0, 11899.956989283204, 15402.676511129917, -74321.33845345241, -17483.55686468564, -57690.54534322564, -187500.02235174447, -40764.95507537783, -26327.561000294805, 0.496, -0.86, 0.186, 192.0, 0.0, 0.0, 0.0, 0.0, 0.0, 0.0, 0.0, 0.0, 0.0, 1.6635925206128495E9, 0.0, 2022-09-19 18:02:00.612
79.0, 11812.539316718498, 15365.28204265619, -74276.56790930843, -17436.998180985236, -57651.83212182905, -187500.02235174447, -40679.25848713618, -26267.077179798747, 0.496, -0.86, 0.186, 192.0, 0.0, 0.0, 0.0, 0.0, 0.0, 0.0, 0.0, 0.0, 0.0, 1.6635925206159449E9, 0.0, 2022-09-19 18:02:00.615
80.0, 11893.564390368985, 15412.064243801147, -74312.75538358156, -17452.756160826226, -57692.668758948894, -187500.02235174447, -40670.78717598762, -26304.91868316158, 0.496, -0.86, 0.186, 192.0, 0.0, 0.0, 0.0, 0.0, 0.0, 0.0, 0.0, 0.0, 0.0, 1.6635925206198845E9, 0.0, 2022-09-19 18:02:00.619
81.0, 12120.903983223914, 15536.004666805824, -74412.82414350798, -17536.75401648927, -57797.476088699834, -187500.02235174447, -40723.87256906898, -26417.482068238507, 0.496, -0.86, 0.186, 192.0, 0.0, 0.0, 0.0, 0.0, 0.0, 0.0, 0.0, 0.0, 0.0, 1.663592520623909E9, 0.0, 2022-09-19 18:02:00.623
82.0, 12140.439407877851, 15535.065893538702, -74423.28475991306, -17561.98913597931, -57801.477050957335, -187500.02235174447, -40797.007476926745, -26416.27507403792, 0.496, -0.86, 0.186, 192.0, 0.0, 0.0, 0.0, 0.0, 0.0, 0.0, 0.0, 0.0, 0.0, 1.6635925206289256E9, 0.0, 2022-09-19 18:02:00.628
83.0, 11885.942445509727, 15397.80383083866, -74296.21509268464, -17473.006841302737, -57674.5638459401, -187500.02235174447, -40730.22046449428, -26281.784627650337, 0.496, -0.86, 0.186, 192.0, 0.0, 0.0, 0.0, 0.0, 0.0, 0.0, 0.0, 0.0, 0.0, 1.6635925206329052E9, 0.0, 2022-09-19 18:02:00.632
84.0, 11819.91539238875, 15370.80292353665, -74262.73217949059, -17443.994276999747, -57648.76993283867, -187500.02235174447, -40655.52093452465, -26257.063598282766, 0.496, -0.86, 0.186, 192.0, 0.0, 0.0, 0.0, 0.0, 0.0, 0.0, 0.0, 0.0, 0.0, 1.6635925206369507E9, 0.0, 2022-09-19 18:02:00.636
85.0, 11918.59834415893, 15424.782386396217, -74305.24519744459, -17475.778457615193, -57695.10509909452, -187500.02235174447, -40662.651141005896, -26306.93034016256, 0.496, -0.864, 0.188, 192.0, 15.0, 128.0, 229.0, 0.0, 5.0, 224.0, 0.0, 0.0, 0.0, 1.663592520640972E9, 0.0, 2022-09-19 18:02:00.640
86.0, 12155.348021429541, 15541.704361641929, -74417.00391972112, -17550.410932351464, -57805.20979228137, -187500.02235174447, -40739.67525239888, -26411.17887630211, 0.496, -0.864, 0.188, 192.0, 0.0, 0.0, 0.0, 0.0, 0.0, 0.0, 0.0, 0.0, 0.0, 1.663592520643899E9, 0.0, 2022-09-19 18:02:00.643
87.0, 12146.899062025435, 15529.612067891607, -74417.67447205479, -17559.351630133588, -57803.913391102964, -187500.02235174447, -40799.60027928356, -26414.106954825755, 0.496, -0.864, 0.188, 192.0, 0.0, 0.0, 0.0, 0.0, 0.0, 0.0, 0.0, 0.0, 0.0, 1.663592520647899E9, 0.0, 2022-09-19 18:02:00.647
88.0, 11876.889989005327, 15388.19258072288, -74308.97793876863, -17483.020422818714, -57694.009863616215, -187500.02235174447, -40746.20196177983, -26310.283101830853, 0.496, -0.864, 0.188, 192.0, 0.0, 0.0, 0.0, 0.0, 0.0, 0.0, 0.0, 0.0, 0.0, 1.6635925206519072E9, 0.0, 2022-09-19 18:02:00.651
89.0, 11812.651075440774, 15360.94580423186, -74275.89735697478, -17449.336343924566, -57673.245093017234, -187500.02235174447, -40675.011655689676, -26284.91387187408, 0.496, -0.864, 0.188, 192.0, 0.0, 0.0, 0.0, 0.0, 0.0, 0.0, 0.0, 0.0, 0.0, 1.6635925206560404E9, 0.0, 2022-09-19 18:02:00.656
90.0, 11924.633315161862, 15424.916496862948, -74314.49881964909, -17466.346021455054, -57717.70271273884, -187500.02235174447, -40669.08844340902, -26324.63292177116, 0.496, -0.864, 0.188, 192.0, 0.0, 0.0, 0.0, 0.0, 0.0, 0.0, 0.0, 0.0, 0.0, 1.663592520660976E9, 0.0, 2022-09-19 18:02:00.660
91.0, 12149.827140549081, 15548.454588467432, -74422.07776571247, -17554.85892949807, -57824.99108612432, -187500.02235174447, -40734.13201977396, -26453.53543204492, 0.496, -0.864, 0.188, 192.0, 0.0, 0.0, 0.0, 0.0, 0.0, 0.0, 0.0, 0.0, 0.0, 1.6635925206649454E9, 0.0, 2022-09-19 18:02:00.664
92.0, 12112.052692419613, 15529.388550447055, -74411.84066675194, -17580.742249577313, -57813.59169645211, -187500.02235174447, -40785.36221806553, -26421.505382240462, 0.496, -0.864, 0.188, 192.0, 0.0, 0.0, 0.0, 0.0, 0.0, 0.0, 0.0, 0.0, 0.0, 1.6635925206689813E9, 0.0, 2022-09-19 18:02:00.668
93.0, 11863.657756287785, 15396.060394771148, -74304.4852381331, -17488.116620554523, -57697.027349117685, -187500.02235174447, -40752.63926418296, -26298.704898203006, 0.496, -0.864, 0.188, 192.0, 0.0, 0.0, 0.0, 0.0, 0.0, 0.0, 0.0, 0.0, 0.0, 1.663592520671955E9, 0.0, 2022-09-19 18:02:00.671
94.0, 11855.767590495061, 15400.307226217656, -74292.75057229407, -17461.898024308448, -57677.514276208196, -187500.02235174447, -40726.73359235926, -26275.660249669585, 0.496, -0.864, 0.188, 192.0, 0.0, 0.0, 0.0, 0.0, 0.0, 0.0, 0.0, 0.0, 0.0, 1.6635925206770036E9, 0.0, 2022-09-19 18:02:00.677
95.0, 11974.790629719571, 15472.860988719582, -74330.70383437918, -17503.002882361758, -57736.791102503674, -187500.02235174447, -40697.586917589535, -26330.377320096177, 0.496, -0.862, 0.184, 192.0, 15.0, 128.0, 229.0, 16.0, 5.0, 192.0, 0.0, 0.0, 0.0, 1.6635925206809993E9, 0.0, 2022-09-19 18:02:00.680
96.0, 12180.31491998612, 15581.08813537218, -74429.319730916, -17563.084371457622, -57850.80735097019, -187500.02235174447, -40732.72385987328, -26434.201173091078, 0.496, -0.862, 0.184, 192.0, 0.0, 0.0, 0.0, 0.0, 0.0, 0.0, 0.0, 0.0, 0.0, 1.6635925206840112E9, 0.0, 2022-09-19 18:02:00.684
97.0, 12127.453044349319, 15541.860823853116, -74401.51416081359, -17557.71995278835, -57826.421597769455, -187500.02235174447, -40762.02699685419, -26405.18860878809, 0.496, -0.862, 0.184, 192.0, 0.0, 0.0, 0.0, 0.0, 0.0, 0.0, 0.0, 0.0, 0.0, 1.6635925206889608E9, 0.0, 2022-09-19 18:02:00.688
98.0, 11876.01827097157, 15408.733833877306, -74281.59705181087, -17469.0729342786, -57709.79019520166, -187500.02235174447, -40685.852251750504, -26298.503732502908, 0.496, -0.862, 0.184, 192.0, 0.0, 0.0, 0.0, 0.0, 0.0, 0.0, 0.0, 0.0, 0.0, 1.6635925206931021E9, 0.0, 2022-09-19 18:02:00.693
99.0, 11832.186500094713, 15397.401499438465, -74278.49015933159, -17445.916527022902, -57704.8728114215, -187500.02235174447, -40648.07780362103, -26286.299680030308, 0.496, -0.862, 0.184, 192.0, 0.0, 0.0, 0.0, 0.0, 0.0, 0.0, 0.0, 0.0, 0.0, 1.6635925206970317E9, 0.0, 2022-09-19 18:02:00.697
100.0, 11940.525405469585, 15463.58501477063, -74342.41614847376, -17497.996091603767, -57771.34689943158, -187500.02235174447, -40672.150632399396, -26339.943866723046, 0.496, -0.862, 0.184, 192.0, 0.0, 0.0, 0.0, 0.0, 0.0, 0.0, 0.0, 0.0, 0.0, 1.6635925207000854E9, 0.0, 2022-09-19 18:02:00.700
101.0, 12164.556940145128, 15577.1765800925, -74447.37994043589, -17579.445848398907, -57881.49629610733, -187500.02235174447, -40746.85016236903, -26437.442176037097, 0.496, -0.862, 0.184, 192.0, 0.0, 0.0, 0.0, 0.0, 0.0, 0.0, 0.0, 0.0, 0.0, 1.6635925207040567E9, 0.0, 2022-09-19 18:02:00.704
102.0, 12100.63095100295, 15528.516832413297, -74420.96017848971, -17568.091162215613, -57846.02407765676, -187500.02235174447, -40820.297994649176, -26426.690986954094, 0.496, -0.862, 0.184, 192.0, 0.0, 0.0, 0.0, 0.0, 0.0, 0.0, 0.0, 0.0, 0.0, 1.663592520708009E9, 0.0, 2022-09-19 18:02:00.708
103.0, 11856.371087595355, 15402.877676830016, -74313.71650859315, -17496.878504381002, -57737.95339321535, -187500.02235174447, -40762.87636314349, -26325.370529338186, 0.496, -0.862, 0.184, 192.0, 0.0, 0.0, 0.0, 0.0, 0.0, 0.0, 0.0, 0.0, 0.0, 1.6635925207120504E9, 0.0, 2022-09-19 18:02:00.712
104.0, 11822.418787767743, 15397.177981993913, -74313.76121208206, -17489.45772522184, -57739.36155311603, -187500.02235174447, -40726.48772317025, -26324.364700837697, 0.496, -0.862, 0.184, 192.0, 0.0, 0.0, 0.0, 0.0, 0.0, 0.0, 0.0, 0.0, 0.0, 1.6635925207170525E9, 0.0, 2022-09-19 18:02:00.717
105.0, 11938.357286257422, 15476.861950977082, -74354.01670384606, -17516.503336012764, -57794.07862354263, -187500.02235174447, -40709.16512121739, -26364.93311702408, 0.496, -0.862, 0.186, 192.0, 15.0, 128.0, 229.0, 16.0, 5.0, 208.0, 0.0, 0.0, 0.0, 1.6635925207210147E9, 0.0, 2022-09-19 18:02:00.721
106.0, 12149.000126004235, 15596.08615590169, -74450.97857129319, -17597.01431954078, -57901.23288646137, -187500.02235174447, -40773.96282839332, -26465.00187695049, 0.496, -0.862, 0.186, 192.0, 0.0, 0.0, 0.0, 0.0, 0.0, 0.0, 0.0, 0.0, 0.0, 1.6635925207250445E9, 0.0, 2022-09-19 18:02:00.725
107.0, 12069.29380527661, 15537.569288917697, -74425.83285878097, -17594.24270322832, -57868.21935990088, -187500.02235174447, -40842.82855306012, -26451.255554110478, 0.496, -0.862, 0.186, 192.0, 0.0, 0.0, 0.0, 0.0, 0.0, 0.0, 0.0, 0.0, 0.0, 1.663592520728044E9, 0.0, 2022-09-19 18:02:00.728
108.0, 11842.244785099601, 15411.796022867684, -74311.07900274743, -17511.496545254773, -57754.73955330128, -187500.02235174447, -40757.087261329565, -26351.96910524, 0.496, -0.862, 0.186, 192.0, 0.0, 0.0, 0.0, 0.0, 0.0, 0.0, 0.0, 0.0, 0.0, 1.6635925207321105E9, 0.0, 2022-09-19 18:02:00.732
109.0, 11822.396436023288, 15405.3363687201, -74294.47165661713, -17480.98641407328, -57747.76580903123, -187500.02235174447, -40698.10100771201, -26317.525067034374, 0.496, -0.862, 0.186, 192.0, 0.0, 0.0, 0.0, 0.0, 0.0, 0.0, 0.0, 0.0, 0.0, 1.6635925207360754E9, 0.0, 2022-09-19 18:02:00.736
110.0, 11949.041420107058, 15472.950395697404, -74361.48218649413, -17507.249713808265, -57815.60335345309, -187500.02235174447, -40714.9095195424, -26364.419026901607, 0.496, -0.862, 0.186, 192.0, 0.0, 0.0, 0.0, 0.0, 0.0, 0.0, 0.0, 0.0, 0.0, 1.663592520740104E9, 0.0, 2022-09-19 18:02:00.740
111.0, 12162.969966288802, 15584.03856564028, -74463.69671388826, -17587.53717989173, -57926.602116418144, -187500.02235174447, -40789.229069856294, -26456.061179168366, 0.496, -0.862, 0.186, 192.0, 0.0, 0.0, 0.0, 0.0, 0.0, 0.0, 0.0, 0.0, 0.0, 1.6635925207440999E9, 0.0, 2022-09-19 18:02:00.744
112.0, 12054.116970791456, 15520.961942787402, -74411.95242547423, -17566.928871503937, -57869.31459537919, -187500.02235174447, -40828.188160441896, -26414.442230992587, 0.496, -0.862, 0.186, 192.0, 0.0, 0.0, 0.0, 0.0, 0.0, 0.0, 0.0, 0.0, 0.0, 1.6635925207491014E9, 0.0, 2022-09-19 18:02:00.749
113.0, 11818.596639465886, 15403.011787296748, -74287.72142979162, -17475.331422726085, -57748.36930613152, -187500.02235174447, -40720.519807400684, -26314.261712343898, 0.496, -0.862, 0.186, 192.0, 0.0, 0.0, 0.0, 0.0, 0.0, 0.0, 0.0, 0.0, 0.0, 1.6635925207531757E9, 0.0, 2022-09-19 18:02:00.753
114.0, 11810.348845761877, 15410.589028667096, -74274.9809354521, -17461.69685860835, -57742.736666528785, -187500.02235174447, -40659.924228182346, -26303.68933721654, 0.496, -0.862, 0.186, 192.0, 0.0, 0.0, 0.0, 0.0, 0.0, 0.0, 0.0, 0.0, 0.0, 1.663592520756125E9, 0.0, 2022-09-19 18:02:00.756
115.0, 11958.384449289377, 15492.68698605144, -74337.67757864924, -17505.26040855174, -57800.67238815694, -187500.02235174447, -40679.5043563252, -26372.867986305715, 0.496, -0.856, 0.184, 192.0, 15.0, 128.0, 229.0, 64.0, 5.0, 192.0, 0.0, 0.0, 0.0, 1.6635925207600963E9, 0.0, 2022-09-19 18:02:00.760
116.0, 12161.561806388117, 15596.644949513073, -74446.77644333559, -17588.207732225386, -57906.262028963814, -187500.02235174447, -40771.906467903435, -26468.175824663143, 0.496, -0.856, 0.184, 192.0, 0.0, 0.0, 0.0, 0.0, 0.0, 0.0, 0.0, 0.0, 0.0, 1.6635925207640924E9, 0.0, 2022-09-19 18:02:00.764
117.0, 12018.287124429598, 15513.407053161509, -74397.46849506718, -17575.489589630317, -57850.69559224792, -187500.02235174447, -40811.91609047844, -26401.634681419695, 0.496, -0.856, 0.184, 192.0, 0.0, 0.0, 0.0, 0.0, 0.0, 0.0, 0.0, 0.0, 0.0, 1.6635925207681105E9, 0.0, 2022-09-19 18:02:00.768
118.0, 11799.262380512046, 15399.703729117362, -74286.89441524677, -17485.680280408895, -57729.70559951134, -187500.02235174447, -40721.45858066781, -26292.625223711162, 0.496, -0.856, 0.184, 192.0, 0.0, 0.0, 0.0, 0.0, 0.0, 0.0, 0.0, 0.0, 0.0, 1.663592520772157E9, 0.0, 2022-09-19 18:02:00.772
119.0, 11809.611238194853, 15402.408290196454, -74285.7321245351, -17468.111809267022, -57729.28091636669, -187500.02235174447, -40678.63263829144, -26302.795267438327, 0.496, -0.856, 0.184, 192.0, 0.0, 0.0, 0.0, 0.0, 0.0, 0.0, 0.0, 0.0, 0.0, 1.6635925207771692E9, 0.0, 2022-09-19 18:02:00.777
120.0, 11952.103609097436, 15478.359517855588, -74358.19648005921, -17516.883315668503, -57802.77345213574, -187500.02235174447, -40711.73557182975, -26364.88841353517, 0.496, -0.856, 0.184, 192.0, 0.0, 0.0, 0.0, 0.0, 0.0, 0.0, 0.0, 0.0, 0.0, 1.663592520781162E9, 0.0, 2022-09-19 18:02:00.781
121.0, 12145.245032935743, 15575.120219602612, -74463.78612086608, -17604.926837077957, -57898.19304921544, -187500.02235174447, -40814.44183760188, -26461.626763537737, 0.496, -0.856, 0.184, 192.0, 0.0, 0.0, 0.0, 0.0, 0.0, 0.0, 0.0, 0.0, 0.0, 1.6635925207841408E9, 0.0, 2022-09-19 18:02:00.784
122.0, 11983.574865290508, 15494.363366885587, -74403.05643118102, -17583.33505193413, -57831.42838852744, -187500.02235174447, -40851.32221595314, -26408.27314952292, 0.496, -0.856, 0.184, 192.0, 0.0, 0.0, 0.0, 0.0, 0.0, 0.0, 0.0, 0.0, 0.0, 1.6635925207881427E9, 0.0, 2022-09-19 18:02:00.788
123.0, 11781.42568843671, 15400.240170984289, -74290.1354181928, -17490.865885122526, -57729.70559951134, -187500.02235174447, -40746.69370015785, -26294.748639434416, 0.496, -0.856, 0.184, 192.0, 0.0, 0.0, 0.0, 0.0, 0.0, 0.0, 0.0, 0.0, 0.0, 1.6635925207921495E9, 0.0, 2022-09-19 18:02:00.792
124.0, 11805.610275937352, 15430.72795042133, -74278.11017967584, -17465.02726853219, -57737.081675181595, -187500.02235174447, -40676.44216733482, -26296.62618596866, 0.496, -0.856, 0.184, 192.0, 0.0, 0.0, 0.0, 0.0, 0.0, 0.0, 0.0, 0.0, 0.0, 1.6635925207962468E9, 0.0, 2022-09-19 18:02:00.796
125.0, 11963.972385403204, 15527.578059146173, -74338.52694493854, -17498.1302020705, -57806.34973124859, -187500.02235174447, -40686.50045233971, -26353.332561651776, 0.498, -0.862, 0.18, 192.0, 15.0, 144.0, 229.0, 16.0, 5.0, 160.0, 0.0, 0.0, 0.0, 1.6635925208001888E9, 0.0, 2022-09-19 18:02:00.800
126.0, 12157.69495459735, 15623.265877159343, -74428.87269602688, -17573.634394840527, -57900.98701727236, -187500.02235174447, -40766.58675272307, -26460.352714103785, 0.498, -0.862, 0.18, 192.0, 0.0, 0.0, 0.0, 0.0, 0.0, 0.0, 0.0, 0.0, 0.0, 1.6635925208051608E9, 0.0, 2022-09-19 18:02:00.805
127.0, 12006.977141735213, 15522.906544555015, -74358.19648005921, -17555.66359229846, -57827.405074525486, -187500.02235174447, -40776.57798249459, -26390.79408535887, 0.498, -0.862, 0.18, 192.0, 0.0, 0.0, 0.0, 0.0, 0.0, 0.0, 0.0, 0.0, 0.0, 1.6635925208092055E9, 0.0, 2022-09-19 18:02:00.809
128.0, 11812.226392296123, 15410.209049011357, -74263.51449054653, -17466.70364936634, -57721.502509296246, -187500.02235174447, -40695.374094888466, -26287.61843295317, 0.498, -0.862, 0.18, 192.0, 0.0, 0.0, 0.0, 0.0, 0.0, 0.0, 0.0, 0.0, 0.0, 1.6635925208122115E9, 0.0, 2022-09-19 18:02:00.812
129.0, 11826.844433169894, 15437.366418524554, -74279.80891225445, -17445.961230511813, -57725.257602364734, -187500.02235174447, -40679.102024925, -26292.625223711162, 0.498, -0.862, 0.18, 192.0, 0.0, 0.0, 0.0, 0.0, 0.0, 0.0, 0.0, 0.0, 0.0, 1.663592520816255E9, 0.0, 2022-09-19 18:02:00.816
130.0, 11988.425193837309, 15534.55180341623, -74352.40737824529, -17499.493658482275, -57798.43721371141, -187500.02235174447, -40705.32062117107, -26368.285878692375, 0.498, -0.862, 0.18, 192.0, 0.0, 0.0, 0.0, 0.0, 0.0, 0.0, 0.0, 0.0, 0.0, 1.6635925208202643E9, 0.0, 2022-09-19 18:02:00.820
131.0, 12178.705594385337, 15638.777987811327, -74448.20695498073, -17567.62177558205, -57885.72077580939, -187500.02235174447, -40806.998706698265, -26454.451853567585, 0.498, -0.862, 0.18, 192.0, 0.0, 0.0, 0.0, 0.0, 0.0, 0.0, 0.0, 0.0, 0.0, 1.6635925208242998E9, 0.0, 2022-09-19 18:02:00.824
132.0, 12008.89939175837, 15540.899698841537, -74383.02926814905, -17537.066940911645, -57810.57421095064, -187500.02235174447, -40841.822724559635, -26394.593881916273, 0.498, -0.862, 0.18, 192.0, 0.0, 0.0, 0.0, 0.0, 0.0, 0.0, 0.0, 0.0, 0.0, 1.6635925208282871E9, 0.0, 2022-09-19 18:02:00.828
133.0, 11830.688933216206, 15432.449034744388, -74291.1859501822, -17446.587079356563, -57712.62886674749, -187500.02235174447, -40778.16495635092, -26293.58634872274, 0.498, -0.862, 0.18, 192.0, 0.0, 0.0, 0.0, 0.0, 0.0, 0.0, 0.0, 0.0, 0.0, 1.6635925208322525E9, 0.0, 2022-09-19 18:02:00.832
134.0, 11860.416753341766, 15452.63265998753, -74294.3375461504, -17449.135178224467, -57728.63271577749, -187500.02235174447, -40721.436228923354, -26288.981889364946, 0.498, -0.862, 0.18, 192.0, 0.0, 0.0, 0.0, 0.0, 0.0, 0.0, 0.0, 0.0, 0.0, 1.6635925208372612E9, 0.0, 2022-09-19 18:02:00.837
135.0, 12013.079167971513, 15548.566347189708, -74352.31797126746, -17498.75605091525, -57812.83173714063, -187500.02235174447, -40688.75797852969, -26371.571585127305, 0.498, -0.862, 0.18, 192.0, 0.0, 0.0, 0.0, 0.0, 0.0, 0.0, 0.0, 0.0, 0.0, 1.663592520840247E9, 0.0, 2022-09-19 18:02:00.840
136.0, 12157.538492386162, 15624.070539959735, -74430.21380069421, -17562.81615052416, -57895.51083988081, -187500.02235174447, -40749.64413042595, -26442.47131853954, 0.496, -0.852, 0.186, 192.0, 15.0, 128.0, 229.0, 96.0, 5.0, 208.0, 0.0, 0.0, 0.0, 1.6635925208442993E9, 0.0, 2022-09-19 18:02:00.844
137.0, 11964.486475525675, 15516.759814829806, -74356.67656143625, -17510.155440587456, -57802.080548057624, -187500.02235174447, -40770.74417719176, -26379.618213131216, 0.496, -0.852, 0.186, 192.0, 0.0, 0.0, 0.0, 0.0, 0.0, 0.0, 0.0, 0.0, 0.0, 1.663592520848261E9, 0.0, 2022-09-19 18:02:00.848
138.0, 11778.609368635342, 15424.62592418503, -74256.25017359856, -17429.420939614887, -57707.95735215633, -187500.02235174447, -40671.01069343218, -26294.72628768996, 0.496, -0.852, 0.186, 192.0, 0.0, 0.0, 0.0, 0.0, 0.0, 0.0, 0.0, 0.0, 0.0, 1.6635925208522751E9, 0.0, 2022-09-19 18:02:00.852
139.0, 11808.404243994266, 15449.01167738577, -74267.67191501522, -17426.35875062451, -57722.530689541185, -187500.02235174447, -40635.940806381805, -26287.26080504189, 0.496, -0.852, 0.186, 192.0, 0.0, 0.0, 0.0, 0.0, 0.0, 0.0, 0.0, 0.0, 0.0, 1.6635925208562703E9, 0.0, 2022-09-19 18:02:00.856
140.0, 11981.205580378244, 15544.654791910029, -74351.08862532242, -17481.187579773377, -57802.75110039129, -187500.02235174447, -40670.69776900981, -26363.815529801315, 0.496, -0.852, 0.186, 192.0, 0.0, 0.0, 0.0, 0.0, 0.0, 0.0, 0.0, 0.0, 0.0, 1.6635925208603277E9, 0.0, 2022-09-19 18:02:00.860
141.0, 12137.176053187377, 15624.383464382108, -74428.73858556016, -17545.068865426645, -57882.39036588554, -187500.02235174447, -40751.65578742693, -26449.825042465334, 0.496, -0.852, 0.186, 192.0, 0.0, 0.0, 0.0, 0.0, 0.0, 0.0, 0.0, 0.0, 0.0, 1.6635925208653E9, 0.0, 2022-09-19 18:02:00.865
142.0, 11938.781969402073, 15511.440099649442, -74345.63479967533, -17493.816315390624, -57792.62576015303, -187500.02235174447, -40767.436119012375, -26358.36170415422, 0.496, -0.852, 0.186, 192.0, 0.0, 0.0, 0.0, 0.0, 0.0, 0.0, 0.0, 0.0, 0.0, 1.6635925208683262E9, 0.0, 2022-09-19 18:02:00.868
143.0, 11777.491781412577, 15422.323694506133, -74279.02660119851, -17433.53366059466, -57716.29455283816, -187500.02235174447, -40713.948394530824, -26282.879863128648, 0.496, -0.852, 0.186, 192.0, 0.0, 0.0, 0.0, 0.0, 0.0, 0.0, 0.0, 0.0, 0.0, 1.663592520872337E9, 0.0, 2022-09-19 18:02:00.872
144.0, 11829.034904126514, 15451.20214834239, -74299.36668865284, -17433.868936761493, -57735.76292225873, -187500.02235174447, -40712.8084555636, -26286.120866074667, 0.496, -0.852, 0.186, 192.0, 0.0, 0.0, 0.0, 0.0, 0.0, 0.0, 0.0, 0.0, 0.0, 1.66359252087631E9, 0.0, 2022-09-19 18:02:00.876
145.0, 12026.177290222322, 15556.344754260153, -74383.2080821047, -17486.55199844265, -57823.001780867795, -187500.02235174447, -40763.07752884359, -26364.843710046258, 0.496, -0.852, 0.186, 192.0, 0.0, 0.0, 0.0, 0.0, 0.0, 0.0, 0.0, 0.0, 0.0, 1.6635925208803391E9, 0.0, 2022-09-19 18:02:00.880
