%OpenBCI Raw EEG Data
%Number of channels = 8
%Sample Rate = 250 Hz
%Board = OpenBCI_GUI$BoardCytonSerial
Sample Index, EXG Channel 0, EXG Channel 1, EXG Channel 2, EXG Channel 3, EXG Channel 4, EXG Channel 5, EXG Channel 6, EXG Channel 7, Accel Channel 0, Accel Channel 1, Accel Channel 2, Other, Other, Other, Other, Other, Other, Other, Analog Channel 0, Analog Channel 1, Analog Channel 2, Timestamp, Other, Timestamp (Formatted)
40.0, -25397.63902397621, -20223.903086650742, -68323.69486375987, -20837.883155093572, -30419.181933305495, 187500.0, -57828.00857162578, -19016.506554663963, 0.636, -0.578, 0.546, 192.0, 19.0, 224.0, 237.0, 240.0, 17.0, 16.0, 0.0, 0.0, 0.0, 1.66359307273037E9, 0.0, 2022-09-19 18:11:12.730
41.0, -25500.971138593097, -20210.76026091102, -68317.92811369039, -20826.50611716582, -30465.226526883427, 187500.0, -57757.37705914701, -19014.293731962887, 0.636, -0.578, 0.546, 192.0, 0.0, 0.0, 0.0, 0.0, 0.0, 0.0, 0.0, 0.0, 0.0, 1.6635930727303977E9, 0.0, 2022-09-19 18:11:12.730
42.0, -25422.4494603216, -20169.11896099078, -68350.33814315058, -20833.971599813893, -30442.137174861098, 187500.0, -57717.009808660725, -19011.656226117164, 0.636, -0.578, 0.546, 192.0, 0.0, 0.0, 0.0, 0.0, 0.0, 0.0, 0.0, 0.0, 0.0, 1.6635930727304137E9, 0.0, 2022-09-19 18:11:12.730
43.0, -25161.44814031698, -20135.546640818913, -68420.2991032957, -20869.197949075457, -30354.473633107384, 187500.0, -57729.727951255794, -19020.686330877106, 0.636, -0.578, 0.546, 192.0, 0.0, 0.0, 0.0, 0.0, 0.0, 0.0, 0.0, 0.0, 0.0, 1.6635930727304287E9, 0.0, 2022-09-19 18:11:12.730
0.0, 0.0, 0.0, 0.0, 0.0, 0.0, 0.0, 0.0, 0.0, 0.636, -0.578, 0.546, 192.0, 0.0, 0.0, 0.0, 0.0, 0.0, 0.0, 0.0, 0.0, 0.0, 1.663593072810472E9, 0.0, 2022-09-19 18:11:12.810
1.0, -27364.167852898583, -19797.11887802111, -68953.5223190215, -20732.427624753433, -23161.995191811944, 187500.0, -58421.983828781114, -19585.090230118065, 0.634, -0.5760000000000001, 0.55, 192.0, 19.0, 208.0, 238.0, 0.0, 17.0, 48.0, 0.0, 0.0, 0.0, 1.6635930728275225E9, 0.0, 2022-09-19 18:11:12.827
2.0, -27381.535158340357, -19844.817500688732, -68917.7148244041, -20742.57531673614, -23162.8669098457, 187500.0, -58548.584109375974, -19605.16209663893, 0.634, -0.5760000000000001, 0.55, 192.0, 0.0, 0.0, 0.0, 0.0, 0.0, 0.0, 0.0, 0.0, 0.0, 1.6635930728304636E9, 0.0, 2022-09-19 18:11:12.830
3.0, -27732.3457875664, -19884.625957563636, -68814.11448885375, -20696.2848539692, -23294.85396085429, 187500.0, -58530.1662719448, -19593.919169177912, 0.634, -0.5760000000000001, 0.55, 192.0, 0.0, 0.0, 0.0, 0.0, 0.0, 0.0, 0.0, 0.0, 0.0, 1.663593072834504E9, 0.0, 2022-09-19 18:11:12.834
4.0, -27853.71575995872, -19862.7883032308, -68814.24859932049, -20674.55895835864, -23335.24356308503, 187500.0, -58445.98960232611, -19577.937671892367, 0.634, -0.5760000000000001, 0.55, 192.0, 0.0, 0.0, 0.0, 0.0, 0.0, 0.0, 0.0, 0.0, 0.0, 1.6635930728387024E9, 0.0, 2022-09-19 18:11:12.838
5.0, -27748.327284851945, -19836.72616919591, -68877.28051868445, -20692.552112645164, -23286.94144331711, 187500.0, -58413.89249728829, -19577.714154447815, 0.634, -0.5760000000000001, 0.55, 192.0, 0.0, 0.0, 0.0, 0.0, 0.0, 0.0, 0.0, 0.0, 0.0, 1.6635930728415148E9, 0.0, 2022-09-19 18:11:12.841
6.0, -27410.7712400879, -19806.5736659257, -68973.32596460891, -20743.335276047623, -23147.041874771345, 187500.0, -58438.90409933378, -19597.8754279465, 0.634, -0.5760000000000001, 0.55, 192.0, 0.0, 0.0, 0.0, 0.0, 0.0, 0.0, 0.0, 0.0, 0.0, 1.6635930728454297E9, 0.0, 2022-09-19 18:11:12.845
7.0, -27416.783859346375, -19840.794186686777, -68928.06368208691, -20747.649162727495, -23142.795043324833, 187500.0, -58555.73666760167, -19613.141669409477, 0.634, -0.5760000000000001, 0.55, 192.0, 0.0, 0.0, 0.0, 0.0, 0.0, 0.0, 0.0, 0.0, 0.0, 1.6635930728496008E9, 0.0, 2022-09-19 18:11:12.849
8.0, -27773.025962475058, -19888.448105865493, -68821.22234359055, -20699.86113308205, -23278.738353102013, 187500.0, -58537.22942319267, -19600.490582047772, 0.64, -0.5700000000000001, 0.554, 192.0, 20.0, 0.0, 238.0, 48.0, 17.0, 80.0, 0.0, 0.0, 0.0, 1.66359307285353E9, 0.0, 2022-09-19 18:11:12.853
9.0, -27894.61945231193, -19864.576442787224, -68809.86765740725, -20672.77081880222, -23317.496277987513, 187500.0, -58444.08970404741, -19578.518817248205, 0.64, -0.5700000000000001, 0.554, 192.0, 0.0, 0.0, 0.0, 0.0, 0.0, 0.0, 0.0, 0.0, 0.0, 1.663593072857526E9, 0.0, 2022-09-19 18:11:12.857
10.0, -27783.01719224658, -19834.848622661666, -68863.95887898908, -20685.91364454194, -23266.31078318486, 187500.0, -58410.38327340881, -19573.44497125685, 0.64, -0.5700000000000001, 0.554, 192.0, 0.0, 0.0, 0.0, 0.0, 0.0, 0.0, 0.0, 0.0, 0.0, 1.6635930728615248E9, 0.0, 2022-09-19 18:11:12.861
11.0, -27444.745891659964, -19820.610561443635, -68968.2297668731, -20741.167156835458, -23128.02054023988, 187500.0, -58441.51925343505, -19591.661642987925, 0.64, -0.5700000000000001, 0.554, 192.0, 0.0, 0.0, 0.0, 0.0, 0.0, 0.0, 0.0, 0.0, 0.0, 1.6635930728665454E9, 0.0, 2022-09-19 18:11:12.866
12.0, -27448.14335681717, -19865.135236398608, -68935.50681299053, -20754.757017464282, -23123.170211693076, 187500.0, -58571.89697884286, -19609.78890774118, 0.64, -0.5700000000000001, 0.554, 192.0, 0.0, 0.0, 0.0, 0.0, 0.0, 0.0, 0.0, 0.0, 0.0, 1.6635930728695347E9, 0.0, 2022-09-19 18:11:12.869
13.0, -27799.535131399054, -19897.969949003455, -68824.57510525885, -20709.628845409017, -23256.140739457696, 187500.0, -58544.38198141837, -19599.9764919253, 0.64, -0.5700000000000001, 0.554, 192.0, 0.0, 0.0, 0.0, 0.0, 0.0, 0.0, 0.0, 0.0, 0.0, 1.6635930728735447E9, 0.0, 2022-09-19 18:11:12.873
14.0, -27924.95076953778, -19875.618204548147, -68820.35062555679, -20689.80284807716, -23301.380670235238, 187500.0, -58454.19269254121, -19587.59362549706, 0.64, -0.5700000000000001, 0.554, 192.0, 0.0, 0.0, 0.0, 0.0, 0.0, 0.0, 0.0, 0.0, 0.0, 1.6635930728776317E9, 0.0, 2022-09-19 18:11:12.877
15.0, -27813.79554436154, -19841.174166342516, -68875.53708261694, -20704.62205465103, -23251.06689346634, 187500.0, -58414.786567066505, -19583.16798009491, 0.64, -0.5700000000000001, 0.554, 192.0, 0.0, 0.0, 0.0, 0.0, 0.0, 0.0, 0.0, 0.0, 0.0, 1.6635930728825648E9, 0.0, 2022-09-19 18:11:12.882
16.0, -27473.110255373747, -19812.78745088428, -68972.14132215278, -20753.30415407469, -23107.591045807727, 187500.0, -58436.020724299044, -19596.91430293492, 0.64, -0.5700000000000001, 0.554, 192.0, 0.0, 0.0, 0.0, 0.0, 0.0, 0.0, 0.0, 0.0, 0.0, 1.663593072885561E9, 0.0, 2022-09-19 18:11:12.885
17.0, -27472.95379316256, -19852.618259503637, -68942.39115028277, -20767.63162227054, -23101.33255736024, 187500.0, -58563.73859211667, -19617.70142527836, 0.64, -0.5700000000000001, 0.554, 192.0, 0.0, 0.0, 0.0, 0.0, 0.0, 0.0, 0.0, 0.0, 0.0, 1.6635930728896005E9, 0.0, 2022-09-19 18:11:12.889
18.0, -27817.70709964122, -19885.989413975407, -68826.85498319328, -20714.456822211367, -23231.754986256958, 187500.0, -58540.02339124959, -19602.166962881918, 0.638, -0.5720000000000001, 0.55, 192.0, 19.0, 240.0, 238.0, 32.0, 17.0, 48.0, 0.0, 0.0, 0.0, 1.6635930728936677E9, 0.0, 2022-09-19 18:11:12.893
19.0, -27944.91087733637, -19861.201329374475, -68816.30495981038, -20689.266406210234, -23278.201911235086, 187500.0, -58446.50369244858, -19585.805485940637, 0.638, -0.5720000000000001, 0.55, 192.0, 0.0, 0.0, 0.0, 0.0, 0.0, 0.0, 0.0, 0.0, 0.0, 1.6635930728976223E9, 0.0, 2022-09-19 18:11:12.897
20.0, -27829.84409688045, -19814.508535207337, -68870.39618139222, -20700.33051971561, -23223.887172208688, 187500.0, -58406.5834768514, -19577.088305603065, 0.638, -0.5720000000000001, 0.55, 192.0, 0.0, 0.0, 0.0, 0.0, 0.0, 0.0, 0.0, 0.0, 0.0, 1.663593072901596E9, 0.0, 2022-09-19 18:11:12.901
21.0, -27480.598089766278, -19783.05963075872, -68968.14035989527, -20750.599592995597, -23075.113961114166, 187500.0, -58428.488186417606, -19596.400212812452, 0.638, -0.5720000000000001, 0.55, 192.0, 0.0, 0.0, 0.0, 0.0, 0.0, 0.0, 0.0, 0.0, 0.0, 1.663593072906594E9, 0.0, 2022-09-19 18:11:12.906
22.0, -27478.944060676586, -19833.596924972167, -68938.61370546982, -20763.83182571314, -23068.877824411134, 187500.0, -58564.34208921696, -19618.819012501124, 0.638, -0.5720000000000001, 0.55, 192.0, 0.0, 0.0, 0.0, 0.0, 0.0, 0.0, 0.0, 0.0, 0.0, 1.6635930729096289E9, 0.0, 2022-09-19 18:11:12.909
23.0, -27832.302788770532, -19875.484094081414, -68824.73156747002, -20709.360624475554, -23203.122401609708, 187500.0, -58548.44999890924, -19605.96675943932, 0.638, -0.5720000000000001, 0.55, 192.0, 0.0, 0.0, 0.0, 0.0, 0.0, 0.0, 0.0, 0.0, 0.0, 1.6635930729136548E9, 0.0, 2022-09-19 18:11:12.913
24.0, -27953.739816396217, -19852.193576358983, -68816.26025632146, -20675.296565925666, -23242.26030615095, 187500.0, -58457.27723327604, -19581.044564371656, 0.638, -0.5720000000000001, 0.55, 192.0, 0.0, 0.0, 0.0, 0.0, 0.0, 0.0, 0.0, 0.0, 0.0, 1.663593072917661E9, 0.0, 2022-09-19 18:11:12.917
25.0, -27840.908210385827, -19821.571686455212, -68874.57595760537, -20690.62986262201, -23189.48783749197, 187500.0, -58422.47556715913, -19578.317651548106, 0.638, -0.5720000000000001, 0.55, 192.0, 0.0, 0.0, 0.0, 0.0, 0.0, 0.0, 0.0, 0.0, 0.0, 1.6635930729216523E9, 0.0, 2022-09-19 18:11:12.921
26.0, -27492.265700371947, -19796.8730088321, -68978.44451408918, -20743.044703369702, -23045.587306688703, 187500.0, -58449.454122716685, -19595.193218611865, 0.638, -0.5720000000000001, 0.55, 192.0, 0.0, 0.0, 0.0, 0.0, 0.0, 0.0, 0.0, 0.0, 0.0, 1.663593072925642E9, 0.0, 2022-09-19 18:11:12.925
27.0, -27477.848825198274, -19844.951611155466, -68949.74487420855, -20756.00871515378, -23031.952742570968, 187500.0, -58579.36246149093, -19612.649931031458, 0.638, -0.5720000000000001, 0.55, 192.0, 0.0, 0.0, 0.0, 0.0, 0.0, 0.0, 0.0, 0.0, 0.0, 1.6635930729296577E9, 0.0, 2022-09-19 18:11:12.929
28.0, -27823.362090988412, -19886.659966309067, -68836.80150947589, -20707.2372087523, -23160.788197611357, 187500.0, -58560.184664748274, -19601.339948337074, 0.632, -0.5640000000000001, 0.55, 192.0, 19.0, 192.0, 238.0, 96.0, 17.0, 48.0, 0.0, 0.0, 0.0, 1.663593072934641E9, 0.0, 2022-09-19 18:11:12.934
29.0, -27944.799118614093, -19866.677506766024, -68833.67226525216, -20685.24309220828, -23205.625796988705, 187500.0, -58469.97302412666, -19589.515875520217, 0.632, -0.5640000000000001, 0.55, 192.0, 0.0, 0.0, 0.0, 0.0, 0.0, 0.0, 0.0, 0.0, 0.0, 1.6635930729376383E9, 0.0, 2022-09-19 18:11:12.937
30.0, -27827.899495112837, -19837.150852340565, -68891.07154501337, -20704.398537206478, -23153.72504636348, 187500.0, -58431.52802366353, -19588.711212719823, 0.632, -0.5640000000000001, 0.55, 192.0, 0.0, 0.0, 0.0, 0.0, 0.0, 0.0, 0.0, 0.0, 0.0, 1.6635930729406393E9, 0.0, 2022-09-19 18:11:12.940
31.0, -27473.691400729585, -19816.542543952768, -68992.21318867365, -20759.339125077622, -23006.89643703657, 187500.0, -58457.366640253866, -19607.665492017924, 0.632, -0.5640000000000001, 0.55, 192.0, 0.0, 0.0, 0.0, 0.0, 0.0, 0.0, 0.0, 0.0, 0.0, 1.6635930729456654E9, 0.0, 2022-09-19 18:11:12.945
32.0, -27454.11127258674, -19868.376239344627, -68955.80219695595, -20771.565529294676, -22991.8760647626, 187500.0, -58584.90569411584, -19624.809280015146, 0.632, -0.5640000000000001, 0.55, 192.0, 0.0, 0.0, 0.0, 0.0, 0.0, 0.0, 0.0, 0.0, 0.0, 1.6635930729497252E9, 0.0, 2022-09-19 18:11:12.949
33.0, -27800.22803547717, -19908.050585752797, -68839.37196008825, -20720.022406580738, -23124.15368844911, 187500.0, -58563.78329560558, -19614.102794421055, 0.632, -0.5640000000000001, 0.55, 192.0, 0.0, 0.0, 0.0, 0.0, 0.0, 0.0, 0.0, 0.0, 0.0, 1.6635930729536965E9, 0.0, 2022-09-19 18:11:12.953
34.0, -27922.00033926968, -19870.052620178776, -68820.93177091262, -20687.299452698167, -23168.387790726163, 187500.0, -58459.244186788106, -19590.87933193199, 0.632, -0.5640000000000001, 0.55, 192.0, 0.0, 0.0, 0.0, 0.0, 0.0, 0.0, 0.0, 0.0, 0.0, 1.6635930729576724E9, 0.0, 2022-09-19 18:11:12.957
35.0, -27810.286320482057, -19834.69216045048, -68880.0521349969, -20703.39270870599, -23120.264484913885, 187500.0, -58424.80014858248, -19587.034831885678, 0.632, -0.5640000000000001, 0.55, 192.0, 0.0, 0.0, 0.0, 0.0, 0.0, 0.0, 0.0, 0.0, 0.0, 1.6635930729627068E9, 0.0, 2022-09-19 18:11:12.962
36.0, -27460.950906390062, -19807.490087448372, -68986.781714771, -20758.333296577133, -22977.235672144376, 187500.0, -58456.60668094238, -19608.760727496236, 0.632, -0.5640000000000001, 0.55, 192.0, 0.0, 0.0, 0.0, 0.0, 0.0, 0.0, 0.0, 0.0, 0.0, 1.663593072965681E9, 0.0, 2022-09-19 18:11:12.965
37.0, -27438.889734612672, -19856.418056061037, -68954.23757484408, -20768.25747111529, -22960.74008473636, 187500.0, -58585.285673771585, -19627.49148934978, 0.632, -0.5640000000000001, 0.55, 192.0, 0.0, 0.0, 0.0, 0.0, 0.0, 0.0, 0.0, 0.0, 0.0, 1.6635930729686801E9, 0.0, 2022-09-19 18:11:12.968
38.0, -27786.995802759626, -19893.65606232358, -68839.86369846627, -20710.835839609605, -23089.843760710213, 187500.0, -58565.862007839925, -19612.11348916453, 0.63, -0.5700000000000001, 0.55, 192.0, 19.0, 176.0, 238.0, 48.0, 17.0, 48.0, 0.0, 0.0, 0.0, 1.6635930729737444E9, 0.0, 2022-09-19 18:11:12.973
39.0, -27915.920664777837, -19871.952518457478, -68832.06293965137, -20679.364583416533, -23133.96610426499, 187500.0, -58474.264559062074, -19591.885160432477, 0.63, -0.5700000000000001, 0.55, 192.0, 0.0, 0.0, 0.0, 0.0, 0.0, 0.0, 0.0, 0.0, 0.0, 1.6635930729777045E9, 0.0, 2022-09-19 18:11:12.977
40.0, -27807.939387314247, -19840.570669242225, -68888.29992870092, -20695.39078419099, -23086.938033931023, 187500.0, -58440.96045982367, -19594.477962789293, 0.63, -0.5700000000000001, 0.55, 192.0, 0.0, 0.0, 0.0, 0.0, 0.0, 0.0, 0.0, 0.0, 0.0, 1.6635930729817169E9, 0.0, 2022-09-19 18:11:12.981
41.0, -27449.551516717856, -19801.946854823454, -68982.93721472469, -20742.99999988079, -22936.48844200235, 187500.0, -58452.78453264052, -19609.900666463454, 0.63, -0.5700000000000001, 0.55, 192.0, 0.0, 0.0, 0.0, 0.0, 0.0, 0.0, 0.0, 0.0, 0.0, 1.6635930729858153E9, 0.0, 2022-09-19 18:11:12.985
42.0, -27421.969464060006, -19833.12753833861, -68950.41542654223, -20751.404255795987, -22917.578866193162, 187500.0, -58577.037880067575, -19626.999750971765, 0.63, -0.5700000000000001, 0.55, 192.0, 0.0, 0.0, 0.0, 0.0, 0.0, 0.0, 0.0, 0.0, 0.0, 1.663593072989786E9, 0.0, 2022-09-19 18:11:12.989
43.0, -27773.87532876436, -19877.048716193287, -68836.1980123756, -20703.57152266163, -23052.963382358957, 187500.0, -58564.34208921696, -19621.41181485794, 0.63, -0.5700000000000001, 0.55, 192.0, 0.0, 0.0, 0.0, 0.0, 0.0, 0.0, 0.0, 0.0, 0.0, 1.6635930729937928E9, 0.0, 2022-09-19 18:11:12.993
44.0, -27907.1364292069, -19861.804826474767, -68825.53623027042, -20680.70568808385, -23105.19940915101, 187500.0, -58474.48807650663, -19609.364224596527, 0.63, -0.5700000000000001, 0.55, 192.0, 0.0, 0.0, 0.0, 0.0, 0.0, 0.0, 0.0, 0.0, 0.0, 1.6635930729967782E9, 0.0, 2022-09-19 18:11:12.996
45.0, -27793.07547725147, -19830.02064585932, -68877.59344310683, -20696.843647580583, -23056.159681816065, 187500.0, -58435.528985921024, -19604.02215767171, 0.63, -0.5700000000000001, 0.55, 192.0, 0.0, 0.0, 0.0, 0.0, 0.0, 0.0, 0.0, 0.0, 0.0, 1.663593073000786E9, 0.0, 2022-09-19 18:11:13.000
46.0, -27435.04523456636, -19801.321005978705, -68978.19864490017, -20751.11368311807, -22907.76645037728, 187500.0, -58455.6455559308, -19620.048358446165, 0.63, -0.5700000000000001, 0.55, 192.0, 0.0, 0.0, 0.0, 0.0, 0.0, 0.0, 0.0, 0.0, 0.0, 1.6635930730057645E9, 0.0, 2022-09-19 18:11:13.005
47.0, -27403.685737095566, -19843.58815474369, -68949.45430153064, -20768.570395537663, -22889.9521100464, 187500.0, -58585.285673771585, -19637.661533076945, 0.63, -0.5700000000000001, 0.55, 192.0, 0.0, 0.0, 0.0, 0.0, 0.0, 0.0, 0.0, 0.0, 0.0, 1.663593073009761E9, 0.0, 2022-09-19 18:11:13.009
48.0, -27753.311723865478, -19889.319823899248, -68835.59451527531, -20723.10694731557, -23024.151983756066, 187500.0, -58572.433420709785, -19626.97739922731, 0.634, -0.56, 0.552, 192.0, 19.0, 208.0, 238.0, 128.0, 17.0, 64.0, 0.0, 0.0, 0.0, 1.6635930730137904E9, 0.0, 2022-09-19 18:11:13.013
49.0, -27883.175359150813, -19872.421905091036, -68828.53136402743, -20700.86696158254, -23072.677620968538, 187500.0, -58483.42877428875, -19611.35352985305, 0.634, -0.56, 0.552, 192.0, 0.0, 0.0, 0.0, 0.0, 0.0, 0.0, 0.0, 0.0, 0.0, 1.663593073017809E9, 0.0, 2022-09-19 18:11:13.017
50.0, -27771.148415940814, -19842.11293960964, -68884.88011179926, -20714.1886012779, -23023.056748277755, 187500.0, -58447.062486059964, -19609.386576340985, 0.634, -0.56, 0.552, 192.0, 0.0, 0.0, 0.0, 0.0, 0.0, 0.0, 0.0, 0.0, 0.0, 1.663593073020785E9, 0.0, 2022-09-19 18:11:13.020
51.0, -27410.815943576807, -19812.58628518418, -68984.79240951448, -20763.988287924327, -22872.629508093538, 187500.0, -58463.781590912535, -19624.74222478178, 0.634, -0.56, 0.552, 192.0, 0.0, 0.0, 0.0, 0.0, 0.0, 0.0, 0.0, 0.0, 0.0, 1.6635930730247777E9, 0.0, 2022-09-19 18:11:13.024
52.0, -27374.7625797704, -19855.21106186045, -68959.95962142464, -20780.372116610066, -22853.541118328707, 187500.0, -58595.992159365676, -19641.349570912073, 0.634, -0.56, 0.552, 192.0, 0.0, 0.0, 0.0, 0.0, 0.0, 0.0, 0.0, 0.0, 0.0, 1.6635930730308602E9, 0.0, 2022-09-19 18:11:13.030
53.0, -27724.187400840212, -19902.306187427785, -68844.71402701308, -20730.23715379681, -22988.03156471629, 187500.0, -58588.079641828495, -19628.653780061457, 0.634, -0.56, 0.552, 192.0, 0.0, 0.0, 0.0, 0.0, 0.0, 0.0, 0.0, 0.0, 0.0, 1.66359307303381E9, 0.0, 2022-09-19 18:11:13.033
54.0, -27850.072425612503, -19884.760068030366, -68833.02406466294, -20703.19154300589, -23036.020760061834, 187500.0, -58496.43748956174, -19604.55859953864, 0.634, -0.56, 0.552, 192.0, 0.0, 0.0, 0.0, 0.0, 0.0, 0.0, 0.0, 0.0, 0.0, 1.6635930730378032E9, 0.0, 2022-09-19 18:11:13.037
55.0, -27737.419633557754, -19848.036151890297, -68884.99187052154, -20713.942732088894, -22988.612710072128, 187500.0, -58452.672773918246, -19597.36133782403, 0.634, -0.56, 0.552, 192.0, 0.0, 0.0, 0.0, 0.0, 0.0, 0.0, 0.0, 0.0, 0.0, 1.663593073041844E9, 0.0, 2022-09-19 18:11:13.041
56.0, -27380.574033328776, -19817.794241642267, -68983.00426995805, -20763.34008733512, -22840.33123735562, 187500.0, -58461.14408506681, -19613.36518685403, 0.634, -0.56, 0.552, 192.0, 0.0, 0.0, 0.0, 0.0, 0.0, 0.0, 0.0, 0.0, 0.0, 1.6635930730458412E9, 0.0, 2022-09-19 18:11:13.045
57.0, -27343.045454388317, -19878.568634816245, -68965.12287439381, -20785.60242481261, -22822.785117958203, 187500.0, -58602.11653734643, -19641.886012779, 0.634, -0.56, 0.552, 192.0, 0.0, 0.0, 0.0, 0.0, 0.0, 0.0, 0.0, 0.0, 0.0, 1.6635930730487757E9, 0.0, 2022-09-19 18:11:13.048
58.0, -27691.419743468734, -19914.64435036711, -68848.53617531493, -20736.115662588556, -22959.421331813497, 187500.0, -58593.55581922005, -19633.6829225639, 0.64, -0.5660000000000001, 0.548, 192.0, 20.0, 0.0, 238.0, 80.0, 17.0, 32.0, 0.0, 0.0, 0.0, 1.663593073052863E9, 0.0, 2022-09-19 18:11:13.052
59.0, -27824.099698555434, -19881.18378891752, -68840.66836126667, -20707.10309828557, -23013.46784990643, 187500.0, -58501.24311461963, -19617.612018300537, 0.64, -0.5660000000000001, 0.548, 192.0, 0.0, 0.0, 0.0, 0.0, 0.0, 0.0, 0.0, 0.0, 0.0, 1.6635930730568297E9, 0.0, 2022-09-19 18:11:13.056
60.0, -27713.413860012755, -19854.428750804516, -68894.9160450597, -20720.782365892217, -22964.78575048277, 187500.0, -58457.88073037633, -19611.465288575328, 0.64, -0.5660000000000001, 0.548, 192.0, 0.0, 0.0, 0.0, 0.0, 0.0, 0.0, 0.0, 0.0, 0.0, 1.663593073061892E9, 0.0, 2022-09-19 18:11:13.061
61.0, -27347.89578293512, -19807.043052559264, -68989.1286479388, -20763.854177457593, -22812.570370742127, 187500.0, -58462.529893223036, -19620.964779968832, 0.64, -0.5660000000000001, 0.548, 192.0, 0.0, 0.0, 0.0, 0.0, 0.0, 0.0, 0.0, 0.0, 0.0, 1.6635930730658607E9, 0.0, 2022-09-19 18:11:13.065
62.0, -27300.666546901055, -19833.01577961633, -68961.54659528096, -20777.376982853053, -22791.492675720772, 187500.0, -58589.621912195915, -19638.712065066346, 0.64, -0.5660000000000001, 0.548, 192.0, 0.0, 0.0, 0.0, 0.0, 0.0, 0.0, 0.0, 0.0, 0.0, 1.663593073069832E9, 0.0, 2022-09-19 18:11:13.069
63.0, -27646.738606302573, -19875.573501059236, -68846.16689040266, -20728.20314505138, -22926.76543316429, 187500.0, -58581.61998768091, -19631.40304462946, 0.64, -0.5660000000000001, 0.548, 192.0, 0.0, 0.0, 0.0, 0.0, 0.0, 0.0, 0.0, 0.0, 0.0, 1.6635930730730095E9, 0.0, 2022-09-19 18:11:13.073
64.0, -27781.251404434614, -19858.60852701766, -68836.35447458678, -20700.57638890462, -22978.30855587823, 187500.0, -58489.016710402575, -19615.309788621642, 0.64, -0.5660000000000001, 0.548, 192.0, 0.0, 0.0, 0.0, 0.0, 0.0, 0.0, 0.0, 0.0, 0.0, 1.663593073076831E9, 0.0, 2022-09-19 18:11:13.076
65.0, -27670.990249036582, -19837.709645951945, -68890.3115857019, -20714.747394889284, -22932.800404167225, 187500.0, -58447.73303839363, -19611.577047297604, 0.64, -0.5660000000000001, 0.548, 192.0, 0.0, 0.0, 0.0, 0.0, 0.0, 0.0, 0.0, 0.0, 0.0, 1.6635930730808933E9, 0.0, 2022-09-19 18:11:13.080
66.0, -27306.50035220389, -19809.43468921598, -68993.7331072966, -20763.87652920205, -22783.06606806112, 187500.0, -58465.681489191236, -19626.619771316025, 0.64, -0.5660000000000001, 0.548, 192.0, 0.0, 0.0, 0.0, 0.0, 0.0, 0.0, 0.0, 0.0, 0.0, 1.6635930730849025E9, 0.0, 2022-09-19 18:11:13.084
67.0, -27249.52575558731, -19837.26261106284, -68965.05581916045, -20773.62188978456, -22752.39947466844, 187500.0, -58593.73463317569, -19640.611963345047, 0.64, -0.5660000000000001, 0.548, 192.0, 0.0, 0.0, 0.0, 0.0, 0.0, 0.0, 0.0, 0.0, 0.0, 1.6635930730899065E9, 0.0, 2022-09-19 18:11:13.089
68.0, -27594.927262655172, -19878.88155923862, -68840.80247173339, -20719.553019947176, -22883.917139043468, 187500.0, -58579.8765516134, -19624.87633524851, 0.632, -0.5660000000000001, 0.544, 192.0, 19.0, 192.0, 238.0, 80.0, 17.0, 0.0, 0.0, 0.0, 0.0, 1.6635930730939357E9, 0.0, 2022-09-19 18:11:13.093
69.0, -27734.4468515452, -19863.212986375453, -68825.13389887022, -20689.534627143697, -22939.818851926193, 187500.0, -58484.52400976706, -19608.939541451877, 0.632, -0.5660000000000001, 0.544, 192.0, 0.0, 0.0, 0.0, 0.0, 0.0, 0.0, 0.0, 0.0, 0.0, 1.6635930730979578E9, 0.0, 2022-09-19 18:11:13.097
70.0, -27628.968969460606, -19833.284000549796, -68877.16875996218, -20701.313996471643, -22893.48368567034, 187500.0, -58445.20729127018, -19606.078518161597, 0.632, -0.5660000000000001, 0.544, 192.0, 0.0, 0.0, 0.0, 0.0, 0.0, 0.0, 0.0, 0.0, 0.0, 1.6635930731020367E9, 0.0, 2022-09-19 18:11:13.102
71.0, -27264.30025867227, -19804.025567057797, -68981.66316529074, -20754.28763083072, -22742.45294838583, 187500.0, -58464.36273626838, -19623.35641662555, 0.632, -0.5660000000000001, 0.544, 192.0, 0.0, 0.0, 0.0, 0.0, 0.0, 0.0, 0.0, 0.0, 0.0, 1.6635930731059432E9, 0.0, 2022-09-19 18:11:13.105
72.0, -27210.54431325726, -19850.092512380186, -68964.96641218262, -20774.046572929212, -22721.19643940883, 187500.0, -58597.84735415547, -19641.617791845536, 0.632, -0.5660000000000001, 0.544, 192.0, 0.0, 0.0, 0.0, 0.0, 0.0, 0.0, 0.0, 0.0, 0.0, 1.6635930731099656E9, 0.0, 2022-09-19 18:11:13.109
73.0, -27554.001218557503, -19897.344100158705, -68846.52451831395, -20722.01171183726, -22853.9434497289, 187500.0, -58586.87264762791, -19626.195088171375, 0.632, -0.5660000000000001, 0.544, 192.0, 0.0, 0.0, 0.0, 0.0, 0.0, 0.0, 0.0, 0.0, 0.0, 1.6635930731129508E9, 0.0, 2022-09-19 18:11:13.112
74.0, -27693.00671732506, -19885.564730830756, -68832.46527105157, -20696.016633035735, -22908.995796322324, 187500.0, -58492.235361604144, -19608.537210051683, 0.632, -0.5660000000000001, 0.544, 192.0, 0.0, 0.0, 0.0, 0.0, 0.0, 0.0, 0.0, 0.0, 0.0, 1.663593073116958E9, 0.0, 2022-09-19 18:11:13.116
75.0, -27592.110942853804, -19854.89813743808, -68882.77904782046, -20708.24303725279, -22865.387542890017, 187500.0, -58451.57753843994, -19603.35160533805, 0.632, -0.5660000000000001, 0.544, 192.0, 0.0, 0.0, 0.0, 0.0, 0.0, 0.0, 0.0, 0.0, 0.0, 1.6635930731219602E9, 0.0, 2022-09-19 18:11:13.121
76.0, -27232.761947245832, -19818.978884098397, -68983.49600833608, -20756.701619231895, -22717.039014940146, 187500.0, -58467.33551828093, -19616.606189800048, 0.632, -0.5660000000000001, 0.544, 192.0, 0.0, 0.0, 0.0, 0.0, 0.0, 0.0, 0.0, 0.0, 0.0, 1.6635930731259816E9, 0.0, 2022-09-19 18:11:13.125
77.0, -27175.273260506783, -19860.55312878527, -68963.31238309293, -20776.34880260811, -22689.52401751566, 187500.0, -58598.3837960224, -19637.84034703259, 0.632, -0.5660000000000001, 0.544, 192.0, 0.0, 0.0, 0.0, 0.0, 0.0, 0.0, 0.0, 0.0, 0.0, 1.6635930731289504E9, 0.0, 2022-09-19 18:11:13.128
78.0, -27521.30061641939, -19907.290626441318, -68848.73734101503, -20726.929095617426, -22821.220495846334, 187500.0, -58592.59469420847, -19629.279628906206, 0.632, -0.5660000000000001, 0.544, 192.0, 0.0, 0.0, 0.0, 0.0, 0.0, 0.0, 0.0, 0.0, 0.0, 1.6635930731329823E9, 0.0, 2022-09-19 18:11:13.132
79.0, -27660.082597742392, -19901.009786249375, -68840.4001403332, -20705.18084826241, -22874.797627305703, 187500.0, -58502.96419894269, -19613.96868395432, 0.638, -0.5660000000000001, 0.546, 192.0, 19.0, 240.0, 238.0, 80.0, 17.0, 16.0, 0.0, 0.0, 0.0, 1.6635930731369805E9, 0.0, 2022-09-19 18:11:13.136
80.0, -27553.330666223846, -19866.16341664355, -68887.6070246228, -20717.228438523824, -22827.85896394956, 187500.0, -58455.71261116417, -19602.412832070928, 0.638, -0.5660000000000001, 0.546, 192.0, 0.0, 0.0, 0.0, 0.0, 0.0, 0.0, 0.0, 0.0, 0.0, 1.6635930731410184E9, 0.0, 2022-09-19 18:11:13.141
81.0, -27193.534635726766, -19827.383140013593, -68994.22484567462, -20768.793912982215, -22683.757267446195, 187500.0, -58475.02451837355, -19618.036701445188, 0.638, -0.5660000000000001, 0.546, 192.0, 0.0, 0.0, 0.0, 0.0, 0.0, 0.0, 0.0, 0.0, 0.0, 1.663593073145016E9, 0.0, 2022-09-19 18:11:13.145
82.0, -27131.240323929826, -19861.335439841205, -68977.25987163304, -20789.893959748028, -22655.884642110424, 187500.0, -58610.49844151717, -19642.98124825731, 0.638, -0.5660000000000001, 0.546, 192.0, 0.0, 0.0, 0.0, 0.0, 0.0, 0.0, 0.0, 0.0, 0.0, 1.6635930731490831E9, 0.0, 2022-09-19 18:11:13.149
83.0, -27479.502854287966, -19897.388803647616, -68852.62654455025, -20734.1934125654, -22788.98928034178, 187500.0, -58595.6792349433, -19629.681960306403, 0.638, -0.5660000000000001, 0.546, 192.0, 0.0, 0.0, 0.0, 0.0, 0.0, 0.0, 0.0, 0.0, 0.0, 1.6635930731540272E9, 0.0, 2022-09-19 18:11:13.154
84.0, -27618.731870500073, -19874.16534115855, -68832.80054721839, -20701.04577553818, -22843.728702512828, 187500.0, -58493.643521504826, -19602.859866960032, 0.638, -0.5660000000000001, 0.546, 192.0, 0.0, 0.0, 0.0, 0.0, 0.0, 0.0, 0.0, 0.0, 0.0, 1.6635930731571088E9, 0.0, 2022-09-19 18:11:13.157
85.0, -27514.34922389379, -19843.677561721513, -68888.16581823419, -20716.58023793462, -22799.919283380426, 187500.0, -58457.836026887424, -19598.031890157687, 0.638, -0.5660000000000001, 0.546, 192.0, 0.0, 0.0, 0.0, 0.0, 0.0, 0.0, 0.0, 0.0, 0.0, 1.663593073161148E9, 0.0, 2022-09-19 18:11:13.161
86.0, -27153.14503349603, -19800.53869492277, -68985.99940371506, -20765.552910036196, -22653.2471362647, 187500.0, -58472.20819857219, -19614.147497909966, 0.638, -0.5660000000000001, 0.546, 192.0, 0.0, 0.0, 0.0, 0.0, 0.0, 0.0, 0.0, 0.0, 0.0, 1.6635930731650553E9, 0.0, 2022-09-19 18:11:13.165
87.0, -27089.777837965234, -19837.083797107196, -68957.00919115654, -20779.38863985403, -22625.888601051403, 187500.0, -58594.33813027598, -19633.794681286177, 0.638, -0.5660000000000001, 0.546, 192.0, 0.0, 0.0, 0.0, 0.0, 0.0, 0.0, 0.0, 0.0, 0.0, 1.6635930731690607E9, 0.0, 2022-09-19 18:11:13.169
88.0, -27433.94999908805, -19888.93984424351, -68838.2990763544, -20725.029197338725, -22755.12638749199, 187500.0, -58588.25845578414, -19622.238829402784, 0.638, -0.5660000000000001, 0.546, 192.0, 0.0, 0.0, 0.0, 0.0, 0.0, 0.0, 0.0, 0.0, 0.0, 1.6635930731731956E9, 0.0, 2022-09-19 18:11:13.173
89.0, -27578.163454313693, -19870.901986468078, -68825.49152678151, -20696.731888858307, -22809.686995707394, 187500.0, -58494.537591283035, -19606.994939684268, 0.64, -0.5660000000000001, 0.55, 192.0, 20.0, 0.0, 238.0, 80.0, 17.0, 48.0, 0.0, 0.0, 0.0, 1.6635930731781201E9, 0.0, 2022-09-19 18:11:13.178
90.0, -27476.507720530957, -19829.059520847743, -68870.9549750036, -20708.310092486157, -22763.79886434065, 187500.0, -58452.538663451516, -19598.456573302337, 0.64, -0.5660000000000001, 0.55, 192.0, 0.0, 0.0, 0.0, 0.0, 0.0, 0.0, 0.0, 0.0, 0.0, 1.663593073182085E9, 0.0, 2022-09-19 18:11:13.182
91.0, -27116.711690033877, -19794.19079949746, -68973.9294617092, -20762.49072104582, -22616.031481746613, 187500.0, -58465.50267523559, -19611.621750786515, 0.64, -0.5660000000000001, 0.55, 192.0, 0.0, 0.0, 0.0, 0.0, 0.0, 0.0, 0.0, 0.0, 0.0, 1.663593073186182E9, 0.0, 2022-09-19 18:11:13.186
92.0, -27047.957724089352, -19836.83792791819, -68962.99945867056, -20779.947433465415, -22584.582577297995, 187500.0, -58595.567476221026, -19635.247544675774, 0.64, -0.5660000000000001, 0.55, 192.0, 0.0, 0.0, 0.0, 0.0, 0.0, 0.0, 0.0, 0.0, 0.0, 1.6635930731891253E9, 0.0, 2022-09-19 18:11:13.189
93.0, -27390.878187522674, -19883.6424808076, -68846.97155320305, -20728.04668284019, -22716.994311451235, 187500.0, -58592.05825234154, -19624.675169548413, 0.64, -0.5660000000000001, 0.55, 192.0, 0.0, 0.0, 0.0, 0.0, 0.0, 0.0, 0.0, 0.0, 0.0, 1.6635930731930928E9, 0.0, 2022-09-19 18:11:13.193
94.0, -27535.046939259406, -19871.25961437936, -68836.42152982016, -20703.4374121949, -22774.550053423653, 187500.0, -58493.17413487127, -19609.051300174153, 0.64, -0.5660000000000001, 0.55, 192.0, 0.0, 0.0, 0.0, 0.0, 0.0, 0.0, 0.0, 0.0, 0.0, 1.6635930731971023E9, 0.0, 2022-09-19 18:11:13.197
95.0, -27439.604990435244, -19842.35880879865, -68887.67407985617, -20716.91551410145, -22733.9145820039, 187500.0, -58452.65042217379, -19606.749070495258, 0.64, -0.5660000000000001, 0.55, 192.0, 0.0, 0.0, 0.0, 0.0, 0.0, 0.0, 0.0, 0.0, 0.0, 1.663593073201098E9, 0.0, 2022-09-19 18:11:13.201
96.0, -27083.139369862005, -19811.267532261318, -68988.6816130497, -20770.090314160625, -22587.689469777284, 187500.0, -58463.356907767884, -19622.84232650308, 0.64, -0.5660000000000001, 0.55, 192.0, 0.0, 0.0, 0.0, 0.0, 0.0, 0.0, 0.0, 0.0, 0.0, 1.663593073205096E9, 0.0, 2022-09-19 18:11:13.205
97.0, -27014.45245915085, -19849.198442601974, -68972.25308087506, -20786.518846335275, -22556.50878626213, 187500.0, -58592.907618630845, -19638.98028599981, 0.64, -0.5660000000000001, 0.55, 192.0, 0.0, 0.0, 0.0, 0.0, 0.0, 0.0, 0.0, 0.0, 0.0, 1.6635930732100947E9, 0.0, 2022-09-19 18:11:13.210
98.0, -27362.80439648681, -19893.70076581249, -68856.58280331884, -20735.4451102549, -22687.49000877023, 187500.0, -58593.91344713133, -19627.424434116416, 0.64, -0.5660000000000001, 0.55, 192.0, 0.0, 0.0, 0.0, 0.0, 0.0, 0.0, 0.0, 0.0, 0.0, 1.6635930732131093E9, 0.0, 2022-09-19 18:11:13.213
99.0, -27512.046994214892, -19878.54628307179, -68844.11052991278, -20707.796002363684, -22744.30814317562, 187500.0, -58500.52785879706, -19609.990073441277, 0.634, -0.56, 0.552, 192.0, 19.0, 208.0, 238.0, 128.0, 17.0, 64.0, 0.0, 0.0, 0.0, 1.6635930732170477E9, 0.0, 2022-09-19 18:11:13.217
100.0, -27416.00154829044, -19846.87386117862, -68896.63712938275, -20718.033101324214, -22703.426802566864, 187500.0, -58458.84185538792, -19605.273855361207, 0.634, -0.56, 0.552, 192.0, 0.0, 0.0, 0.0, 0.0, 0.0, 0.0, 0.0, 0.0, 0.0, 1.663593073221135E9, 0.0, 2022-09-19 18:11:13.221
101.0, -27059.26770678374, -19810.798145627756, -68995.23067417511, -20765.083523402634, -22553.446597271755, 187500.0, -58470.53181773804, -19618.26021888974, 0.634, -0.56, 0.552, 192.0, 0.0, 0.0, 0.0, 0.0, 0.0, 0.0, 0.0, 0.0, 0.0, 1.6635930732251875E9, 0.0, 2022-09-19 18:11:13.225
102.0, -26986.91510998191, -19853.914660682043, -68976.2316913881, -20790.54216033723, -22517.437936954255, 187500.0, -58608.35267404946, -19640.388445900495, 0.634, -0.56, 0.552, 192.0, 0.0, 0.0, 0.0, 0.0, 0.0, 0.0, 0.0, 0.0, 0.0, 1.6635930732292204E9, 0.0, 2022-09-19 18:11:13.229
103.0, -27329.276779803848, -19893.857228023677, -68850.79370150491, -20737.881450400528, -22644.127624526933, 187500.0, -58601.423633268314, -19625.815108515635, 0.634, -0.56, 0.552, 192.0, 0.0, 0.0, 0.0, 0.0, 0.0, 0.0, 0.0, 0.0, 0.0, 1.663593073233158E9, 0.0, 2022-09-19 18:11:13.233
104.0, -27482.185063622605, -19885.095344197198, -68842.05416942289, -20712.95925533286, -22703.806782222604, 187500.0, -58513.7600915146, -19613.901628720956, 0.634, -0.56, 0.552, 192.0, 0.0, 0.0, 0.0, 0.0, 0.0, 0.0, 0.0, 0.0, 0.0, 1.6635930732381775E9, 0.0, 2022-09-19 18:11:13.238
105.0, -27387.07839096527, -19857.289774094796, -68884.76835307699, -20721.3411595036, -22661.427874735342, 187500.0, -58465.77089616906, -19607.665492017924, 0.634, -0.56, 0.552, 192.0, 0.0, 0.0, 0.0, 0.0, 0.0, 0.0, 0.0, 0.0, 0.0, 1.6635930732412171E9, 0.0, 2022-09-19 18:11:13.241
106.0, -27029.517534913724, -19816.63195093059, -68985.61942405933, -20771.073790916656, -22513.101698529925, 187500.0, -58475.82918117395, -19623.199954414362, 0.634, -0.56, 0.552, 192.0, 0.0, 0.0, 0.0, 0.0, 0.0, 0.0, 0.0, 0.0, 0.0, 1.6635930732451563E9, 0.0, 2022-09-19 18:11:13.245
107.0, -26950.638228730946, -19846.87386117862, -68969.12383665131, -20785.691831790427, -22475.14843644481, 187500.0, -58605.558705992546, -19640.790777300692, 0.634, -0.56, 0.552, 192.0, 0.0, 0.0, 0.0, 0.0, 0.0, 0.0, 0.0, 0.0, 0.0, 1.663593073249158E9, 0.0, 2022-09-19 18:11:13.249
108.0, -27300.800657367785, -19906.061280496273, -68860.13673068723, -20744.117587103556, -22610.778821799617, 187500.0, -58611.97365665122, -19637.527422610216, 0.634, -0.56, 0.552, 192.0, 0.0, 0.0, 0.0, 0.0, 0.0, 0.0, 0.0, 0.0, 0.0, 1.6635930732531946E9, 0.0, 2022-09-19 18:11:13.253
109.0, -27448.679798684097, -19877.607509804668, -68844.78108224644, -20713.786269877706, -22666.255851537688, 187500.0, -58513.5142223256, -19620.49539333527, 0.642, -0.5720000000000001, 0.546, 192.0, 20.0, 16.0, 238.0, 32.0, 17.0, 16.0, 0.0, 0.0, 0.0, 1.6635930732572067E9, 0.0, 2022-09-19 18:11:13.257
110.0, -27346.822899201263, -19823.516288222825, -68889.73044034606, -20717.58606643511, -22620.010092259658, 187500.0, -58463.46866649016, -19607.889009462477, 0.642, -0.5720000000000001, 0.546, 192.0, 0.0, 0.0, 0.0, 0.0, 0.0, 0.0, 0.0, 0.0, 0.0, 1.6635930732611969E9, 0.0, 2022-09-19 18:11:13.261
111.0, -26988.658546049424, -19786.25593021583, -68989.79920027246, -20765.30704084719, -22473.896738755317, 187500.0, -58466.91083513628, -19621.54592532467, 0.642, -0.5720000000000001, 0.546, 192.0, 0.0, 0.0, 0.0, 0.0, 0.0, 0.0, 0.0, 0.0, 0.0, 1.6635930732662213E9, 0.0, 2022-09-19 18:11:13.266
112.0, -26907.789934610122, -19820.319988765717, -68974.7788279985, -20785.892997490526, -22439.519755783054, 187500.0, -58591.566513963524, -19640.231983689308, 0.642, -0.5720000000000001, 0.546, 192.0, 0.0, 0.0, 0.0, 0.0, 0.0, 0.0, 0.0, 0.0, 0.0, 1.6635930732693472E9, 0.0, 2022-09-19 18:11:13.269
113.0, -27253.280848655802, -19868.130370155617, -68851.66541953867, -20737.143842833502, -22574.010202170637, 187500.0, -58590.31481627403, -19626.038625960187, 0.642, -0.5720000000000001, 0.546, 192.0, 0.0, 0.0, 0.0, 0.0, 0.0, 0.0, 0.0, 0.0, 0.0, 1.66359307327321E9, 0.0, 2022-09-19 18:11:13.273
114.0, -27405.831504563273, -19855.032247904808, -68835.81803271986, -20709.695900642386, -22634.315208711054, 187500.0, -58496.43748956174, -19607.9784164403, 0.642, -0.5720000000000001, 0.546, 192.0, 0.0, 0.0, 0.0, 0.0, 0.0, 0.0, 0.0, 0.0, 0.0, 1.6635930732773252E9, 0.0, 2022-09-19 18:11:13.277
115.0, -27310.613073183667, -19820.655264932546, -68882.64493735373, -20716.848458868084, -22593.74679252467, 187500.0, -58452.27044251805, -19598.79184946917, 0.642, -0.5720000000000001, 0.546, 192.0, 0.0, 0.0, 0.0, 0.0, 0.0, 0.0, 0.0, 0.0, 0.0, 1.6635930732812479E9, 0.0, 2022-09-19 18:11:13.281
116.0, -26960.58475501356, -19791.91092156302, -68981.46199959064, -20768.704506004397, -22453.713113512174, 187500.0, -58462.75341066759, -19619.400157856962, 0.642, -0.5720000000000001, 0.546, 192.0, 0.0, 0.0, 0.0, 0.0, 0.0, 0.0, 0.0, 0.0, 0.0, 1.6635930732852376E9, 0.0, 2022-09-19 18:11:13.285
117.0, -26881.303117430583, -19825.48324173489, -68963.73706623758, -20789.201055669913, -22418.39735727279, 187500.0, -58591.231237796695, -19638.913230766444, 0.642, -0.5720000000000001, 0.546, 192.0, 0.0, 0.0, 0.0, 0.0, 0.0, 0.0, 0.0, 0.0, 0.0, 1.6635930732892385E9, 0.0, 2022-09-19 18:11:13.289
118.0, -27227.486935554378, -19877.562806315756, -68848.49147182601, -20740.742473690807, -22548.12688209139, 187500.0, -58597.55678147755, -19627.35737888305, 0.642, -0.5720000000000001, 0.546, 192.0, 0.0, 0.0, 0.0, 0.0, 0.0, 0.0, 0.0, 0.0, 0.0, 1.6635930732932305E9, 0.0, 2022-09-19 18:11:13.293
119.0, -27382.31746939629, -19864.576442787224, -68833.73932048552, -20710.053528553668, -22606.062603719547, 187500.0, -58500.349044841416, -19607.68784376238, 0.646, -0.5720000000000001, 0.548, 192.0, 20.0, 48.0, 238.0, 32.0, 17.0, 32.0, 0.0, 0.0, 0.0, 1.6635930732962663E9, 0.0, 2022-09-19 18:11:13.296
120.0, -27291.16705550755, -19832.814613916235, -68885.6624228552, -20719.463612969354, -22565.13655962188, 187500.0, -58460.96527111117, -19599.507105291737, 0.646, -0.5720000000000001, 0.548, 192.0, 0.0, 0.0, 0.0, 0.0, 0.0, 0.0, 0.0, 0.0, 0.0, 1.6635930733012512E9, 0.0, 2022-09-19 18:11:13.301
121.0, -26936.33311227955, -19799.041128044264, -68983.98774671409, -20763.675363501952, -22419.783165429017, 187500.0, -58462.395782756306, -19610.45946007484, 0.646, -0.5720000000000001, 0.548, 192.0, 0.0, 0.0, 0.0, 0.0, 0.0, 0.0, 0.0, 0.0, 0.0, 1.663593073305239E9, 0.0, 2022-09-19 18:11:13.305
122.0, -26851.620000793937, -19845.331590811205, -68976.07522917692, -20785.848294001615, -22382.29928997747, 187500.0, -58590.58303720749, -19634.040550475187, 0.646, -0.5720000000000001, 0.548, 192.0, 0.0, 0.0, 0.0, 0.0, 0.0, 0.0, 0.0, 0.0, 0.0, 1.6635930733092513E9, 0.0, 2022-09-19 18:11:13.309
123.0, -27197.915577640008, -19892.87375126764, -68863.22127142207, -20737.993209122804, -22512.45349794072, 187500.0, -58596.86387739943, -19625.725701537813, 0.646, -0.5720000000000001, 0.548, 192.0, 0.0, 0.0, 0.0, 0.0, 0.0, 0.0, 0.0, 0.0, 0.0, 1.6635930733132603E9, 0.0, 2022-09-19 18:11:13.313
124.0, -27353.327256837758, -19872.287794624306, -68844.31169561288, -20705.113793029046, -22569.56220502403, 187500.0, -58495.744585483626, -19603.776288482703, 0.646, -0.5720000000000001, 0.548, 192.0, 0.0, 0.0, 0.0, 0.0, 0.0, 0.0, 0.0, 0.0, 0.0, 1.6635930733172276E9, 0.0, 2022-09-19 18:11:13.317
125.0, -27265.306087172758, -19845.82332918922, -68897.24062648305, -20716.468479212344, -22534.201745295733, 187500.0, -58450.12467505034, -19599.440050058372, 0.646, -0.5720000000000001, 0.548, 192.0, 0.0, 0.0, 0.0, 0.0, 0.0, 0.0, 0.0, 0.0, 0.0, 1.6635930733212917E9, 0.0, 2022-09-19 18:11:13.321
126.0, -26909.198094510808, -19809.233523515883, -68999.41045038826, -20759.49558728881, -22387.216673757634, 187500.0, -58453.18686404072, -19609.364224596527, 0.646, -0.5720000000000001, 0.548, 192.0, 0.0, 0.0, 0.0, 0.0, 0.0, 0.0, 0.0, 0.0, 0.0, 1.6635930733244133E9, 0.0, 2022-09-19 18:11:13.324
127.0, -26823.30034056906, -19847.142082112085, -68995.74476429757, -20783.903692234006, -22351.319772162413, 187500.0, -58587.40908949484, -19630.55367834016, 0.646, -0.5720000000000001, 0.548, 192.0, 0.0, 0.0, 0.0, 0.0, 0.0, 0.0, 0.0, 0.0, 0.0, 1.663593073328329E9, 0.0, 2022-09-19 18:11:13.328
128.0, -27169.79708311523, -19903.490829883915, -68877.19111170663, -20738.28378180072, -22484.044430738024, 187500.0, -58587.99023485068, -19625.07750094861, 0.646, -0.5720000000000001, 0.548, 192.0, 0.0, 0.0, 0.0, 0.0, 0.0, 0.0, 0.0, 0.0, 0.0, 1.6635930733333037E9, 0.0, 2022-09-19 18:11:13.333
129.0, -27325.02994835734, -19903.17790546154, -68866.70814355709, -20713.607455922065, -22544.28238204508, 187500.0, -58489.016710402575, -19614.236904887784, 0.634, -0.5740000000000001, 0.558, 192.0, 19.0, 208.0, 238.0, 16.0, 17.0, 112.0, 0.0, 0.0, 0.0, 1.6635930733373308E9, 0.0, 2022-09-19 18:11:13.337
130.0, -27232.471374567915, -19843.990486143888, -68915.47964995858, -20717.51901120174, -22504.339814703442, 187500.0, -58443.12857903583, -19605.16209663893, 0.634, -0.5740000000000001, 0.558, 192.0, 0.0, 0.0, 0.0, 0.0, 0.0, 0.0, 0.0, 0.0, 0.0, 1.6635930733413413E9, 0.0, 2022-09-19 18:11:13.341
131.0, -26875.08933247201, -19793.788468097267, -69003.59022660139, -20755.092293631114, -22355.790121053473, 187500.0, -58433.80790159797, -19605.653835016947, 0.634, -0.5740000000000001, 0.558, 192.0, 0.0, 0.0, 0.0, 0.0, 0.0, 0.0, 0.0, 0.0, 0.0, 1.6635930733453352E9, 0.0, 2022-09-19 18:11:13.345
132.0, -26785.101209294942, -19821.102299821654, -69005.51247662456, -20782.026145699758, -22318.038024668458, 187500.0, -58567.739554374166, -19629.16787018393, 0.634, -0.5740000000000001, 0.558, 192.0, 0.0, 0.0, 0.0, 0.0, 0.0, 0.0, 0.0, 0.0, 0.0, 1.663593073349366E9, 0.0, 2022-09-19 18:11:13.349
133.0, -27128.08872796163, -19866.20812013246, -68891.7644490915, -20736.562697477664, -22449.131005898835, 187500.0, -58578.423688223804, -19622.618809058527, 0.634, -0.5740000000000001, 0.558, 192.0, 0.0, 0.0, 0.0, 0.0, 0.0, 0.0, 0.0, 0.0, 0.0, 1.6635930733524735E9, 0.0, 2022-09-19 18:11:13.352
134.0, -27284.193311237494, -19856.93214618351, -68875.93941401714, -20711.77461287673, -22509.83834383945, 187500.0, -58483.71934696667, -19606.190276883874, 0.634, -0.5740000000000001, 0.558, 192.0, 0.0, 0.0, 0.0, 0.0, 0.0, 0.0, 0.0, 0.0, 0.0, 1.6635930733563251E9, 0.0, 2022-09-19 18:11:13.356
135.0, -27195.300423538738, -19822.73397716689, -68919.72648140509, -20721.87760137053, -22470.387514875834, 187500.0, -58441.78747436852, -19600.512933792226, 0.634, -0.5740000000000001, 0.558, 192.0, 0.0, 0.0, 0.0, 0.0, 0.0, 0.0, 0.0, 0.0, 0.0, 1.6635930733614082E9, 0.0, 2022-09-19 18:11:13.361
136.0, -26840.332369844007, -19786.88177906058, -69018.07415700844, -20766.603442025596, -22322.821297981896, 187500.0, -58446.83896861541, -19612.001730442254, 0.634, -0.5740000000000001, 0.558, 192.0, 0.0, 0.0, 0.0, 0.0, 0.0, 0.0, 0.0, 0.0, 0.0, 1.6635930733664217E9, 0.0, 2022-09-19 18:11:13.366
137.0, -26742.05174947402, -19827.047863846765, -69006.13832546929, -20786.094163190624, -22279.414210249688, 187500.0, -58574.69094689977, -19632.25241091876, 0.634, -0.5740000000000001, 0.558, 192.0, 0.0, 0.0, 0.0, 0.0, 0.0, 0.0, 0.0, 0.0, 0.0, 1.6635930733693893E9, 0.0, 2022-09-19 18:11:13.369
138.0, -27081.93237566142, -19878.32276562724, -68884.36602167679, -20740.116624846058, -22406.372118755833, 187500.0, -58580.055365569046, -19625.233963159797, 0.634, -0.5740000000000001, 0.558, 192.0, 0.0, 0.0, 0.0, 0.0, 0.0, 0.0, 0.0, 0.0, 0.0, 1.6635930733733912E9, 0.0, 2022-09-19 18:11:13.373
139.0, -27240.562706060733, -19868.487998066903, -68865.85877726779, -20715.417947222944, -22466.16303517378, 187500.0, -58485.61924524537, -19612.53817230918, 0.636, -0.5660000000000001, 0.554, 192.0, 19.0, 224.0, 238.0, 80.0, 17.0, 80.0, 0.0, 0.0, 0.0, 1.663593073376443E9, 0.0, 2022-09-19 18:11:13.376
140.0, -27158.174175998472, -19837.664942463034, -68907.52242893248, -20719.485964713807, -22428.05331087748, 187500.0, -58441.47454994614, -19602.68105300439, 0.636, -0.5660000000000001, 0.554, 192.0, 0.0, 0.0, 0.0, 0.0, 0.0, 0.0, 0.0, 0.0, 0.0, 1.6635930733805788E9, 0.0, 2022-09-19 18:11:13.380
141.0, -26809.68812819578, -19803.958511824432, -69002.45028763417, -20760.5014157893, -22284.488056241044, 187500.0, -58443.307392991475, -19614.572181054617, 0.636, -0.5660000000000001, 0.554, 192.0, 0.0, 0.0, 0.0, 0.0, 0.0, 0.0, 0.0, 0.0, 0.0, 1.66359307338442E9, 0.0, 2022-09-19 18:11:13.384
142.0, -26713.888551460335, -19840.92829715351, -68994.91774975274, -20782.24966314431, -22241.706817353584, 187500.0, -58574.35567073294, -19634.97932374231, 0.636, -0.5660000000000001, 0.554, 192.0, 0.0, 0.0, 0.0, 0.0, 0.0, 0.0, 0.0, 0.0, 0.0, 1.663593073389405E9, 0.0, 2022-09-19 18:11:13.389
143.0, -27056.429035237914, -19892.538475100813, -68876.52055937298, -20737.635581211518, -22367.770656081517, 187500.0, -58583.78810689308, -19623.624637559013, 0.636, -0.5660000000000001, 0.554, 192.0, 0.0, 0.0, 0.0, 0.0, 0.0, 0.0, 0.0, 0.0, 0.0, 1.663593073393529E9, 0.0, 2022-09-19 18:11:13.393
144.0, -27220.781412217788, -19882.770762773845, -68858.86268125327, -20711.662854154452, -22428.388587044312, 187500.0, -58490.491925536626, -19611.241771130775, 0.636, -0.5660000000000001, 0.554, 192.0, 0.0, 0.0, 0.0, 0.0, 0.0, 0.0, 0.0, 0.0, 0.0, 1.6635930733974066E9, 0.0, 2022-09-19 18:11:13.397
145.0, -27138.079957733153, -19853.981715915408, -68907.50007718803, -20724.358645005064, -22389.362441225345, 187500.0, -58442.94976508019, -19612.627579287004, 0.636, -0.5660000000000001, 0.554, 192.0, 0.0, 0.0, 0.0, 0.0, 0.0, 0.0, 0.0, 0.0, 0.0, 1.6635930734014113E9, 0.0, 2022-09-19 18:11:13.401
146.0, -26790.77855238659, -19821.77285215531, -69009.13345922632, -20776.92994796395, -22245.663076122175, 187500.0, -58449.118846549856, -19630.88895450699, 0.636, -0.5660000000000001, 0.554, 192.0, 0.0, 0.0, 0.0, 0.0, 0.0, 0.0, 0.0, 0.0, 0.0, 1.6635930734044788E9, 0.0, 2022-09-19 18:11:13.404
147.0, -26686.842940669412, -19849.041980390786, -68998.06934572093, -20794.811343528196, -22199.886703477707, 187500.0, -58570.48881894217, -19648.50212913777, 0.636, -0.5660000000000001, 0.554, 192.0, 0.0, 0.0, 0.0, 0.0, 0.0, 0.0, 0.0, 0.0, 0.0, 1.6635930734084806E9, 0.0, 2022-09-19 18:11:13.408
148.0, -27026.477697667804, -19896.56178910277, -68874.26303318299, -20741.904764402483, -22328.56569630691, 187500.0, -58580.01066208013, -19635.426358631415, 0.636, -0.5660000000000001, 0.554, 192.0, 0.0, 0.0, 0.0, 0.0, 0.0, 0.0, 0.0, 0.0, 0.0, 1.663593073412428E9, 0.0, 2022-09-19 18:11:13.412
149.0, -27193.400525260036, -19902.149725216597, -68852.31362012788, -20711.260522754255, -22391.2846912485, 187500.0, -58487.60855050189, -19611.88997171998, 0.644, -0.5640000000000001, 0.556, 192.0, 20.0, 32.0, 238.0, 96.0, 17.0, 96.0, 0.0, 0.0, 0.0, 1.6635930734164598E9, 0.0, 2022-09-19 18:11:13.416
150.0, -27111.928416720442, -19856.93214618351, -68895.72070786008, -20717.474307712833, -22355.81247279793, 187500.0, -58443.46385520266, -19602.792811726667, 0.644, -0.5640000000000001, 0.556, 192.0, 0.0, 0.0, 0.0, 0.0, 0.0, 0.0, 0.0, 0.0, 0.0, 1.663593073421492E9, 0.0, 2022-09-19 18:11:13.421
151.0, -26765.454025918727, -19805.232561258385, -68993.33077589641, -20762.96010767938, -22215.10824145177, 187500.0, -58441.80982611297, -19616.65089328896, 0.644, -0.5640000000000001, 0.556, 192.0, 0.0, 0.0, 0.0, 0.0, 0.0, 0.0, 0.0, 0.0, 0.0, 1.6635930734254413E9, 0.0, 2022-09-19 18:11:13.425
152.0, -26663.105388057877, -19829.618314459123, -68991.40852587325, -20788.105820191602, -22174.49512177648, 187500.0, -58573.327490487995, -19644.389408157997, 0.644, -0.5640000000000001, 0.556, 192.0, 0.0, 0.0, 0.0, 0.0, 0.0, 0.0, 0.0, 0.0, 0.0, 1.6635930734294572E9, 0.0, 2022-09-19 18:11:13.429
153.0, -27005.601168346548, -19883.21779766295, -68875.58178610585, -20740.116624846058, -22304.98460590656, 187500.0, -58585.39743249386, -19633.213535930343, 0.644, -0.5640000000000001, 0.556, 192.0, 0.0, 0.0, 0.0, 0.0, 0.0, 0.0, 0.0, 0.0, 0.0, 1.6635930734324553E9, 0.0, 2022-09-19 18:11:13.432
154.0, -27170.46763544889, -19855.74750372738, -68853.54296607291, -20703.280949983713, -22367.636545614787, 187500.0, -58484.59106500043, -19608.961893196334, 0.644, -0.5640000000000001, 0.556, 192.0, 0.0, 0.0, 0.0, 0.0, 0.0, 0.0, 0.0, 0.0, 0.0, 1.66359307343649E9, 0.0, 2022-09-19 18:11:13.436
155.0, -27088.190864108907, -19815.469660218914, -68899.40874569521, -20710.992301820792, -22331.69494053065, 187500.0, -58435.03724754301, -19601.049375659153, 0.644, -0.5640000000000001, 0.556, 192.0, 0.0, 0.0, 0.0, 0.0, 0.0, 0.0, 0.0, 0.0, 0.0, 1.6635930734405143E9, 0.0, 2022-09-19 18:11:13.440
156.0, -26743.638723330347, -19787.26175871632, -68997.64466257628, -20757.77450296575, -22191.92948245162, 187500.0, -58437.652401644285, -19612.15819265344, 0.644, -0.5640000000000001, 0.556, 192.0, 0.0, 0.0, 0.0, 0.0, 0.0, 0.0, 0.0, 0.0, 0.0, 1.6635930734444933E9, 0.0, 2022-09-19 18:11:13.444
157.0, -26637.534992401004, -19830.15475632605, -68994.04603171897, -20780.126247421056, -22145.48255747349, 187500.0, -58568.90184508584, -19633.861736519546, 0.644, -0.5640000000000001, 0.556, 192.0, 0.0, 0.0, 0.0, 0.0, 0.0, 0.0, 0.0, 0.0, 0.0, 1.663593073450518E9, 0.0, 2022-09-19 18:11:13.450
158.0, -26979.203758144828, -19879.060373194265, -68872.09491397082, -20733.276991042734, -22273.49099796903, 187500.0, -58577.35080448995, -19625.770405026724, 0.644, -0.5640000000000001, 0.556, 192.0, 0.0, 0.0, 0.0, 0.0, 0.0, 0.0, 0.0, 0.0, 0.0, 1.6635930734535015E9, 0.0, 2022-09-19 18:11:13.453
159.0, -27141.633885101546, -19856.75333222787, -68841.2942101114, -20699.81642959314, -22331.270257386, 187500.0, -58467.71549793667, -19602.949273937855, 0.636, -0.5640000000000001, 0.558, 192.0, 19.0, 224.0, 238.0, 96.0, 17.0, 112.0, 0.0, 0.0, 0.0, 1.6635930734575815E9, 0.0, 2022-09-19 18:11:13.457
160.0, -27067.761369676755, -19833.619276716625, -68900.57103640688, -20718.748357146786, -22301.94476866064, 187500.0, -58435.685448132215, -19604.91622744992, 0.636, -0.5640000000000001, 0.558, 192.0, 0.0, 0.0, 0.0, 0.0, 0.0, 0.0, 0.0, 0.0, 0.0, 1.663593073460554E9, 0.0, 2022-09-19 18:11:13.460
161.0, -26724.595037054427, -19801.321005978705, -69002.71850856763, -20766.67049725896, -22162.447531515067, 187500.0, -58436.95949756617, -19616.27091363322, 0.636, -0.5640000000000001, 0.558, 192.0, 0.0, 0.0, 0.0, 0.0, 0.0, 0.0, 0.0, 0.0, 0.0, 1.66359307346457E9, 0.0, 2022-09-19 18:11:13.464
162.0, -26609.68471880969, -19831.227640059908, -68997.01881373153, -20785.803590512704, -22111.887885557164, 187500.0, -58563.336260716474, -19633.0347219747, 0.636, -0.5640000000000001, 0.558, 192.0, 0.0, 0.0, 0.0, 0.0, 0.0, 0.0, 0.0, 0.0, 0.0, 1.663593073468602E9, 0.0, 2022-09-19 18:11:13.468
163.0, -26952.80634794311, -19882.435486607013, -68876.02882099495, -20738.552002734184, -22241.148023742204, 187500.0, -58577.462563212226, -19622.685864291892, 0.636, -0.5640000000000001, 0.558, 192.0, 0.0, 0.0, 0.0, 0.0, 0.0, 0.0, 0.0, 0.0, 0.0, 1.6635930734726064E9, 0.0, 2022-09-19 18:11:13.472
164.0, -27129.98862624033, -19878.32276562724, -68863.31067839988, -20715.596761178585, -22310.840762953852, 187500.0, -58490.44722204772, -19612.135840908988, 0.636, -0.5640000000000001, 0.558, 192.0, 0.0, 0.0, 0.0, 0.0, 0.0, 0.0, 0.0, 0.0, 0.0, 1.6635930734775436E9, 0.0, 2022-09-19 18:11:13.477
165.0, -27056.764311404742, -19843.945782654977, -68907.09774578783, -20724.224534538334, -22278.117809071282, 187500.0, -58441.45219820168, -19605.96675943932, 0.636, -0.5640000000000001, 0.558, 192.0, 0.0, 0.0, 0.0, 0.0, 0.0, 0.0, 0.0, 0.0, 0.0, 1.6635930734816105E9, 0.0, 2022-09-19 18:11:13.481
166.0, -26713.776792738056, -19808.138288037575, -69006.25008419158, -20773.24191012882, -22136.206583524538, 187500.0, -58437.7418086221, -19617.70142527836, 0.636, -0.5640000000000001, 0.558, 192.0, 0.0, 0.0, 0.0, 0.0, 0.0, 0.0, 0.0, 0.0, 0.0, 1.6635930734856255E9, 0.0, 2022-09-19 18:11:13.485
167.0, -26601.280462894498, -19847.49971002337, -69003.83609579041, -20796.554779595706, -22086.89863525613, 187500.0, -58567.98542356318, -19636.16396619844, 0.636, -0.5640000000000001, 0.558, 192.0, 0.0, 0.0, 0.0, 0.0, 0.0, 0.0, 0.0, 0.0, 0.0, 1.663593073488616E9, 0.0, 2022-09-19 18:11:13.488
168.0, -26939.082376847553, -19897.768783303356, -68886.37767867776, -20745.92807840444, -22213.87889550673, 187500.0, -58588.75019416216, -19623.84815500357, 0.636, -0.5640000000000001, 0.558, 192.0, 0.0, 0.0, 0.0, 0.0, 0.0, 0.0, 0.0, 0.0, 0.0, 1.6635930734925659E9, 0.0, 2022-09-19 18:11:13.492
169.0, -27108.463896329868, -19884.357736630172, -68863.71300980008, -20713.071014055135, -22276.84375963733, 187500.0, -58487.74266096862, -19601.049375659153, 0.646, -0.5740000000000001, 0.554, 192.0, 20.0, 48.0, 238.0, 16.0, 17.0, 80.0, 0.0, 0.0, 0.0, 1.6635930734965887E9, 0.0, 2022-09-19 18:11:13.496
170.0, -27032.87029658202, -19850.472492035926, -68909.57878942238, -20720.558848447665, -22241.50565165349, 187500.0, -58439.77581736754, -19593.40507905544, 0.646, -0.5740000000000001, 0.554, 192.0, 0.0, 0.0, 0.0, 0.0, 0.0, 0.0, 0.0, 0.0, 0.0, 1.6635930735006363E9, 0.0, 2022-09-19 18:11:13.500
171.0, -26689.256929070587, -19806.886590348076, -69007.56883711444, -20766.402276325498, -22102.70131858603, 187500.0, -58437.45123594419, -19604.469192560817, 0.646, -0.5740000000000001, 0.554, 192.0, 0.0, 0.0, 0.0, 0.0, 0.0, 0.0, 0.0, 0.0, 0.0, 1.6635930735046115E9, 0.0, 2022-09-19 18:11:13.504
172.0, -26574.033686403476, -19837.754349440856, -69008.35114817038, -20794.319605150176, -22057.975477930962, 187500.0, -58561.659879882325, -19625.6809980489, 0.646, -0.5740000000000001, 0.554, 192.0, 0.0, 0.0, 0.0, 0.0, 0.0, 0.0, 0.0, 0.0, 0.0, 1.663593073509581E9, 0.0, 2022-09-19 18:11:13.509
173.0, -26918.407013226395, -19896.65119608059, -68898.82760033937, -20754.645258742006, -22191.415392329145, 187500.0, -58588.705490673245, -19622.59645731407, 0.646, -0.5740000000000001, 0.554, 192.0, 0.0, 0.0, 0.0, 0.0, 0.0, 0.0, 0.0, 0.0, 0.0, 1.6635930735126472E9, 0.0, 2022-09-19 18:11:13.512
174.0, -27097.153913635484, -19889.677451810534, -68879.06865824088, -20730.505374730277, -22262.940974586127, 187500.0, -58490.44722204772, -19612.448765331363, 0.646, -0.5740000000000001, 0.554, 192.0, 0.0, 0.0, 0.0, 0.0, 0.0, 0.0, 0.0, 0.0, 0.0, 1.6635930735166326E9, 0.0, 2022-09-19 18:11:13.516
175.0, -27021.8285348211, -19852.126521125618, -68913.35623423533, -20730.930057874928, -22229.905096281185, 187500.0, -58431.99741029709, -19603.30690184914, 0.646, -0.5740000000000001, 0.554, 192.0, 0.0, 0.0, 0.0, 0.0, 0.0, 0.0, 0.0, 0.0, 0.0, 1.6635930735206296E9, 0.0, 2022-09-19 18:11:13.520
176.0, -26683.110199345378, -19811.714567150422, -69011.90507553877, -20776.661727030485, -22096.442830138545, 187500.0, -58433.42792194223, -19618.17081191192, 0.646, -0.5740000000000001, 0.554, 192.0, 0.0, 0.0, 0.0, 0.0, 0.0, 0.0, 0.0, 0.0, 0.0, 1.6635930735246615E9, 0.0, 2022-09-19 18:11:13.524
177.0, -26565.137692110264, -19844.59398324418, -69008.39585165928, -20796.465372617888, -22051.091140638728, 187500.0, -58559.80468509254, -19634.30877140865, 0.646, -0.5740000000000001, 0.554, 192.0, 0.0, 0.0, 0.0, 0.0, 0.0, 0.0, 0.0, 0.0, 0.0, 1.6635930735286705E9, 0.0, 2022-09-19 18:11:13.528
178.0, -26907.789934610122, -19903.35671941718, -68891.45152466912, -20746.15159584899, -22185.939214937596, 187500.0, -58582.51405745913, -19623.736396281292, 0.646, -0.5740000000000001, 0.554, 192.0, 0.0, 0.0, 0.0, 0.0, 0.0, 0.0, 0.0, 0.0, 0.0, 1.6635930735326571E9, 0.0, 2022-09-19 18:11:13.532
179.0, -27079.83131168262, -19870.142027156595, -68859.1085504423, -20702.90097032797, -22253.888518081727, 187500.0, -58479.76308819808, -19598.30011109115, 0.646, -0.5740000000000001, 0.554, 192.0, 0.0, 0.0, 0.0, 0.0, 0.0, 0.0, 0.0, 0.0, 0.0, 1.663593073538699E9, 0.0, 2022-09-19 18:11:13.538
180.0, -27010.20562770434, -19834.669808706025, -68902.58269340787, -20707.90776108596, -22227.044072990906, 187500.0, -58435.08195103192, -19590.097020876055, 0.64, -0.5720000000000001, 0.548, 192.0, 20.0, 0.0, 238.0, 32.0, 17.0, 32.0, 0.0, 0.0, 0.0, 1.663593073542682E9, 0.0, 2022-09-19 18:11:13.542
181.0, -26676.248213797597, -19805.031395558286, -69002.539694612, -20758.26624134377, -22094.98996674895, 187500.0, -58435.886613832314, -19609.11835540752, 0.64, -0.5720000000000001, 0.548, 192.0, 0.0, 0.0, 0.0, 0.0, 0.0, 0.0, 0.0, 0.0, 0.0, 1.6635930735456955E9, 0.0, 2022-09-19 18:11:13.545
182.0, -26550.139671580753, -19838.26843956333, -69006.78652605851, -20786.96588122438, -22044.810300446785, 187500.0, -58561.369307204404, -19627.826765516613, 0.64, -0.5720000000000001, 0.548, 192.0, 0.0, 0.0, 0.0, 0.0, 0.0, 0.0, 0.0, 0.0, 0.0, 1.6635930735486925E9, 0.0, 2022-09-19 18:11:13.548
183.0, -26891.584919880024, -19893.611358834667, -68890.62451012427, -20742.262392313765, -22174.942156665584, 187500.0, -58578.91542660182, -19619.668378790426, 0.64, -0.5720000000000001, 0.548, 192.0, 0.0, 0.0, 0.0, 0.0, 0.0, 0.0, 0.0, 0.0, 0.0, 1.6635930735527155E9, 0.0, 2022-09-19 18:11:13.552
184.0, -27072.008201123263, -19881.586120317712, -68868.45157962461, -20710.90289484297, -22244.634895877232, 187500.0, -58479.4054602868, -19604.91622744992, 0.64, -0.5720000000000001, 0.548, 192.0, 0.0, 0.0, 0.0, 0.0, 0.0, 0.0, 0.0, 0.0, 0.0, 1.663593073556714E9, 0.0, 2022-09-19 18:11:13.556
185.0, -27000.594377588557, -19845.68921872249, -68908.39414696624, -20714.456822211367, -22214.97413098504, 187500.0, -58426.27536371653, -19595.908474434433, 0.64, -0.5720000000000001, 0.548, 192.0, 0.0, 0.0, 0.0, 0.0, 0.0, 0.0, 0.0, 0.0, 0.0, 1.6635930735607336E9, 0.0, 2022-09-19 18:11:13.560
186.0, -26661.13843454581, -19808.853543860143, -69004.61840684633, -20757.126302376546, -22079.03082120786, 187500.0, -58423.36963693734, -19606.883180961988, 0.64, -0.5720000000000001, 0.548, 192.0, 0.0, 0.0, 0.0, 0.0, 0.0, 0.0, 0.0, 0.0, 0.0, 1.6635930735657303E9, 0.0, 2022-09-19 18:11:13.565
187.0, -26537.376825496773, -19847.007971645355, -69010.29574993798, -20784.574244567662, -22029.32054153926, 187500.0, -58554.39556293435, -19631.06776846263, 0.64, -0.5720000000000001, 0.548, 192.0, 0.0, 0.0, 0.0, 0.0, 0.0, 0.0, 0.0, 0.0, 0.0, 1.6635930735688477E9, 0.0, 2022-09-19 18:11:13.568
188.0, -26881.481931386224, -19900.22747519344, -68894.04432702593, -20744.25169757029, -22163.207490826546, 187500.0, -58578.513095201626, -19628.98905622829, 0.64, -0.5720000000000001, 0.548, 192.0, 0.0, 0.0, 0.0, 0.0, 0.0, 0.0, 0.0, 0.0, 0.0, 1.6635930735726984E9, 0.0, 2022-09-19 18:11:13.572
189.0, -27061.05584634016, -19879.954442972477, -68862.01427722147, -20706.790173863195, -22232.296732937903, 187500.0, -58474.37631778435, -19605.29620710566, 0.64, -0.5720000000000001, 0.548, 192.0, 0.0, 0.0, 0.0, 0.0, 0.0, 0.0, 0.0, 0.0, 0.0, 1.663593073576703E9, 0.0, 2022-09-19 18:11:13.576
190.0, -26998.20274093184, -19846.113901867142, -68906.56130392091, -20715.797926878684, -22208.000386714983, 187500.0, -58430.924526563234, -19599.462401802826, 0.64, -0.5760000000000001, 0.546, 192.0, 20.0, 0.0, 238.0, 0.0, 17.0, 16.0, 0.0, 0.0, 0.0, 1.6635930735807717E9, 0.0, 2022-09-19 18:11:13.580
191.0, -26668.738027660613, -19815.87199161911, -69009.78165981552, -20765.709372247384, -22079.254338652416, 187500.0, -58434.81373009846, -19615.421547343918, 0.64, -0.5760000000000001, 0.546, 192.0, 0.0, 0.0, 0.0, 0.0, 0.0, 0.0, 0.0, 0.0, 0.0, 1.6635930735848014E9, 0.0, 2022-09-19 18:11:13.584
192.0, -26542.405967999217, -19847.11973036763, -69009.0887557374, -20793.514942349786, -22032.6509514631, 187500.0, -58565.41497295081, -19634.88991676449, 0.64, -0.5760000000000001, 0.546, 192.0, 0.0, 0.0, 0.0, 0.0, 0.0, 0.0, 0.0, 0.0, 0.0, 1.6635930735887623E9, 0.0, 2022-09-19 18:11:13.588
193.0, -26882.308945931072, -19896.718251313956, -68888.43403916765, -20749.973744150848, -22167.275508317412, 187500.0, -58593.44406049777, -19629.234925417295, 0.64, -0.5760000000000001, 0.546, 192.0, 0.0, 0.0, 0.0, 0.0, 0.0, 0.0, 0.0, 0.0, 0.0, 1.6635930735927608E9, 0.0, 2022-09-19 18:11:13.592
194.0, -27067.40374176547, -19876.914605726553, -68855.46521609607, -20717.429604223922, -22241.63976212022, 187500.0, -58488.748489469115, -19608.045471673664, 0.64, -0.5760000000000001, 0.546, 192.0, 0.0, 0.0, 0.0, 0.0, 0.0, 0.0, 0.0, 0.0, 0.0, 1.6635930735978885E9, 0.0, 2022-09-19 18:11:13.597
195.0, -27003.7236218123, -19836.480300006904, -68894.64782412622, -20722.01171183726, -22216.605808330278, 187500.0, -58441.496901690596, -19598.83655295808, 0.64, -0.5760000000000001, 0.546, 192.0, 0.0, 0.0, 0.0, 0.0, 0.0, 0.0, 0.0, 0.0, 0.0, 1.6635930736008008E9, 0.0, 2022-09-19 18:11:13.600
196.0, -26670.459111983673, -19800.44928794495, -68996.81764803144, -20770.671459516463, -22086.183379433558, 187500.0, -58444.93907033671, -19613.946332209867, 0.64, -0.5760000000000001, 0.546, 192.0, 0.0, 0.0, 0.0, 0.0, 0.0, 0.0, 0.0, 0.0, 0.0, 1.6635930736047199E9, 0.0, 2022-09-19 18:11:13.604
197.0, -26538.494412719538, -19829.953590625955, -69000.12570621082, -20794.319605150176, -22035.199050331004, 187500.0, -58568.70067938574, -19634.7334545533, 0.64, -0.5760000000000001, 0.546, 192.0, 0.0, 0.0, 0.0, 0.0, 0.0, 0.0, 0.0, 0.0, 0.0, 1.663593073608828E9, 0.0, 2022-09-19 18:11:13.608
198.0, -26879.537329618615, -19885.050640708287, -68881.9073297867, -20748.16325284997, -22169.08599961829, 187500.0, -58588.146697061864, -19625.92686723791, 0.64, -0.5760000000000001, 0.546, 192.0, 0.0, 0.0, 0.0, 0.0, 0.0, 0.0, 0.0, 0.0, 0.0, 1.6635930736128173E9, 0.0, 2022-09-19 18:11:13.612
199.0, -27067.359038276558, -19884.06716395225, -68857.99096321952, -20722.10111881508, -22246.758311600486, 187500.0, -58495.610475016896, -19613.856925232045, 0.64, -0.5760000000000001, 0.546, 192.0, 0.0, 0.0, 0.0, 0.0, 0.0, 0.0, 0.0, 0.0, 0.0, 1.6635930736168127E9, 0.0, 2022-09-19 18:11:13.616
200.0, -27007.143438713963, -19856.55216652777, -68902.69445213013, -20731.33238927512, -22221.903171766186, 187500.0, -58453.61154718537, -19611.241771130775, 0.642, -0.5720000000000001, 0.546, 192.0, 20.0, 16.0, 238.0, 32.0, 17.0, 16.0, 0.0, 0.0, 0.0, 1.663593073621935E9, 0.0, 2022-09-19 18:11:13.621
201.0, -26679.220995810152, -19817.0789858197, -68998.9410637547, -20776.751134008307, -22091.883074269663, 187500.0, -58448.22477677164, -19624.988093970787, 0.642, -0.5720000000000001, 0.546, 192.0, 0.0, 0.0, 0.0, 0.0, 0.0, 0.0, 0.0, 0.0, 0.0, 1.6635930736248147E9, 0.0, 2022-09-19 18:11:13.624
202.0, -26546.295171534442, -19841.665904720536, -69001.98090100061, -20798.901712763516, -22038.97649514395, 187500.0, -58566.51020842913, -19640.008466244755, 0.642, -0.5720000000000001, 0.546, 192.0, 0.0, 0.0, 0.0, 0.0, 0.0, 0.0, 0.0, 0.0, 0.0, 1.6635930736278243E9, 0.0, 2022-09-19 18:11:13.627
203.0, -26885.952280277288, -19892.806696034277, -68881.97438502006, -20749.660819728473, -22171.499988019466, 187500.0, -58586.44796448326, -19627.446785860873, 0.642, -0.5720000000000001, 0.546, 192.0, 0.0, 0.0, 0.0, 0.0, 0.0, 0.0, 0.0, 0.0, 0.0, 1.6635930736328335E9, 0.0, 2022-09-19 18:11:13.632
204.0, -27079.250166326783, -19884.693012797, -68853.252393395, -20717.787232135204, -22247.607677889788, 187500.0, -58485.48513477864, -19611.621750786515, 0.642, -0.5720000000000001, 0.546, 192.0, 0.0, 0.0, 0.0, 0.0, 0.0, 0.0, 0.0, 0.0, 0.0, 1.6635930736368463E9, 0.0, 2022-09-19 18:11:13.636
205.0, -27024.622502878014, -19857.379181072614, -68901.95684456312, -20729.09721482959, -22226.552334612887, 187500.0, -58440.82634935693, -19610.68297751939, 0.642, -0.5720000000000001, 0.546, 192.0, 0.0, 0.0, 0.0, 0.0, 0.0, 0.0, 0.0, 0.0, 0.0, 1.6635930736408353E9, 0.0, 2022-09-19 18:11:13.640
206.0, -26696.85652218539, -19827.092567335676, -69000.8856655223, -20776.259395630288, -22096.286367927358, 187500.0, -58440.312259234466, -19625.569239326625, 0.642, -0.5720000000000001, 0.546, 192.0, 0.0, 0.0, 0.0, 0.0, 0.0, 0.0, 0.0, 0.0, 0.0, 1.6635930736448865E9, 0.0, 2022-09-19 18:11:13.644
207.0, -26557.9180786512, -19846.471529778424, -69012.70973833917, -20801.338052909145, -22039.89291666662, 187500.0, -58564.40914445033, -19646.98221051481, 0.642, -0.5720000000000001, 0.546, 192.0, 0.0, 0.0, 0.0, 0.0, 0.0, 0.0, 0.0, 0.0, 0.0, 1.6635930736498802E9, 0.0, 2022-09-19 18:11:13.649
208.0, -26891.74138209121, -19890.951501244486, -68898.78289685046, -20757.416875054467, -22167.610784484245, 187500.0, -58589.26428428463, -19639.673190077923, 0.642, -0.5720000000000001, 0.546, 192.0, 0.0, 0.0, 0.0, 0.0, 0.0, 0.0, 0.0, 0.0, 0.0, 1.6635930736529615E9, 0.0, 2022-09-19 18:11:13.652
209.0, -27077.953765148373, -19877.294585382293, -68873.54777736042, -20727.085557828614, -22237.77291032945, 187500.0, -58491.69891973722, -19624.541059081683, 0.642, -0.5720000000000001, 0.546, 192.0, 0.0, 0.0, 0.0, 0.0, 0.0, 0.0, 0.0, 0.0, 0.0, 1.6635930736558456E9, 0.0, 2022-09-19 18:11:13.655
210.0, -27017.53699988568, -19851.41126530305, -68917.98304533756, -20740.273087057245, -22213.811840273363, 187500.0, -58450.83993087291, -19622.59645731407, 0.634, -0.5680000000000001, 0.548, 192.0, 19.0, 208.0, 238.0, 64.0, 17.0, 32.0, 0.0, 0.0, 0.0, 1.6635930736608603E9, 0.0, 2022-09-19 18:11:13.660
211.0, -26684.13837959032, -19811.66986366151, -69010.16163947125, -20777.555796808698, -22078.136751429647, 187500.0, -58440.87105284585, -19627.55854458315, 0.634, -0.5680000000000001, 0.548, 192.0, 0.0, 0.0, 0.0, 0.0, 0.0, 0.0, 0.0, 0.0, 0.0, 1.663593073665007E9, 0.0, 2022-09-19 18:11:13.665
212.0, -26541.802470898925, -19838.22373607442, -69017.87299130834, -20801.807439542707, -22022.436204247024, 187500.0, -58562.03985953807, -19645.752864569768, 0.634, -0.5680000000000001, 0.548, 192.0, 0.0, 0.0, 0.0, 0.0, 0.0, 0.0, 0.0, 0.0, 0.0, 1.6635930736689284E9, 0.0, 2022-09-19 18:11:13.668
213.0, -26874.999925494187, -19892.51612335636, -68890.13277174626, -20750.957220906883, -22150.846976142762, 187500.0, -58577.529618445595, -19633.12412895252, 0.634, -0.5680000000000001, 0.548, 192.0, 0.0, 0.0, 0.0, 0.0, 0.0, 0.0, 0.0, 0.0, 0.0, 1.6635930736728969E9, 0.0, 2022-09-19 18:11:13.672
214.0, -27065.705009186866, -19883.08368719622, -68862.43896036613, -20716.75905189026, -22228.139308469214, 187500.0, -58480.74656495411, -19616.181506655397, 0.634, -0.5680000000000001, 0.548, 192.0, 0.0, 0.0, 0.0, 0.0, 0.0, 0.0, 0.0, 0.0, 0.0, 1.6635930736779938E9, 0.0, 2022-09-19 18:11:13.677
215.0, -27007.29990092515, -19852.618259503637, -68906.91893183219, -20726.459708983864, -22207.39688961469, 187500.0, -58439.172320267244, -19614.080442676597, 0.634, -0.5680000000000001, 0.548, 192.0, 0.0, 0.0, 0.0, 0.0, 0.0, 0.0, 0.0, 0.0, 0.0, 1.6635930736809394E9, 0.0, 2022-09-19 18:11:13.680
216.0, -26681.299708044495, -19831.182936570996, -69008.038223748, -20774.583014796142, -22079.94724273053, 187500.0, -58444.492035447605, -19626.75388178276, 0.634, -0.5680000000000001, 0.548, 192.0, 0.0, 0.0, 0.0, 0.0, 0.0, 0.0, 0.0, 0.0, 0.0, 1.6635930736839151E9, 0.0, 2022-09-19 18:11:13.683
217.0, -26538.717930164094, -19847.052675134262, -69017.69417735269, -20804.579055855163, -22026.5489252268, 187500.0, -58567.89601658536, -19648.680943093415, 0.634, -0.5680000000000001, 0.548, 192.0, 0.0, 0.0, 0.0, 0.0, 0.0, 0.0, 0.0, 0.0, 0.0, 1.663593073689953E9, 0.0, 2022-09-19 18:11:13.689
218.0, -26873.03297198212, -19881.966099973455, -68891.87620781377, -20752.566546507664, -22156.881947145695, 187500.0, -58586.760888905636, -19636.8345185321, 0.634, -0.5680000000000001, 0.548, 192.0, 0.0, 0.0, 0.0, 0.0, 0.0, 0.0, 0.0, 0.0, 0.0, 1.6635930736929765E9, 0.0, 2022-09-19 18:11:13.692
219.0, -27062.419302751936, -19871.68429752401, -68860.38259987625, -20711.729909387817, -22233.39196841621, 187500.0, -58487.04975689051, -19610.973550197312, 0.634, -0.5680000000000001, 0.548, 192.0, 0.0, 0.0, 0.0, 0.0, 0.0, 0.0, 0.0, 0.0, 0.0, 1.6635930736969342E9, 0.0, 2022-09-19 18:11:13.696
220.0, -27002.851903778545, -19843.92343091052, -68902.58269340787, -20713.942732088894, -22213.72243329554, 187500.0, -58442.43567495772, -19599.954140180846, 0.636, -0.5700000000000001, 0.548, 192.0, 19.0, 224.0, 238.0, 48.0, 17.0, 32.0, 0.0, 0.0, 0.0, 1.6635930737009282E9, 0.0, 2022-09-19 18:11:13.700
221.0, -26682.685516200727, -19801.030433300788, -68994.7389357971, -20760.993154167314, -22090.586673091257, 187500.0, -58432.690314375206, -19613.78986999868, 0.636, -0.5700000000000001, 0.548, 192.0, 0.0, 0.0, 0.0, 0.0, 0.0, 0.0, 0.0, 0.0, 0.0, 1.663593073705105E9, 0.0, 2022-09-19 18:11:13.705
222.0, -26535.186354540154, -19817.43661373098, -68999.54456085498, -20786.988232968837, -22035.176698586547, 187500.0, -58552.45096116674, -19632.69944580787, 0.636, -0.5700000000000001, 0.548, 192.0, 0.0, 0.0, 0.0, 0.0, 0.0, 0.0, 0.0, 0.0, 0.0, 1.663593073708964E9, 0.0, 2022-09-19 18:11:13.708
223.0, -26868.249698668686, -19876.154646415074, -68884.4107251657, -20743.58114523663, -22167.320211806324, 187500.0, -58590.76185116314, -19627.715006794337, 0.636, -0.5700000000000001, 0.548, 192.0, 0.0, 0.0, 0.0, 0.0, 0.0, 0.0, 0.0, 0.0, 0.0, 1.6635930737119744E9, 0.0, 2022-09-19 18:11:13.711
224.0, -27063.96157311935, -19874.299451625284, -68860.0026202205, -20716.066147812147, -22248.099416267803, 187500.0, -58497.689187251235, -19613.40989034294, 0.636, -0.5700000000000001, 0.548, 192.0, 0.0, 0.0, 0.0, 0.0, 0.0, 0.0, 0.0, 0.0, 0.0, 1.6635930737159636E9, 0.0, 2022-09-19 18:11:13.715
225.0, -27012.64196784997, -19843.20817508795, -68903.29794923043, -20721.05058682568, -22230.97798001504, 187500.0, -58451.30931750647, -19607.933712951388, 0.636, -0.5700000000000001, 0.548, 192.0, 0.0, 0.0, 0.0, 0.0, 0.0, 0.0, 0.0, 0.0, 0.0, 1.663593073721025E9, 0.0, 2022-09-19 18:11:13.721
226.0, -26687.62525172535, -19803.220904257407, -68992.32494739591, -20759.71910473336, -22103.438926153056, 187500.0, -58441.407494712774, -19619.623675301515, 0.636, -0.5700000000000001, 0.548, 192.0, 0.0, 0.0, 0.0, 0.0, 0.0, 0.0, 0.0, 0.0, 0.0, 1.6635930737249277E9, 0.0, 2022-09-19 18:11:13.724
227.0, -26535.05224407342, -19825.01385510133, -68999.54456085498, -20787.748192280316, -22043.044512634817, 187500.0, -58557.457751924725, -19641.193108700885, 0.636, -0.5700000000000001, 0.548, 192.0, 0.0, 0.0, 0.0, 0.0, 0.0, 0.0, 0.0, 0.0, 0.0, 1.6635930737290037E9, 0.0, 2022-09-19 18:11:13.729
228.0, -26868.003829479676, -19880.73675402841, -68880.54387337493, -20741.01069462427, -22174.80804619885, 187500.0, -58587.252627283655, -19635.269896420228, 0.636, -0.5700000000000001, 0.548, 192.0, 0.0, 0.0, 0.0, 0.0, 0.0, 0.0, 0.0, 0.0, 0.0, 1.6635930737330427E9, 0.0, 2022-09-19 18:11:13.733
229.0, -27067.046113854187, -19877.27223363784, -68853.52061432846, -20710.053528553668, -22255.944878571616, 187500.0, -58491.251884848105, -19618.17081191192, 0.636, -0.5700000000000001, 0.548, 192.0, 0.0, 0.0, 0.0, 0.0, 0.0, 0.0, 0.0, 0.0, 0.0, 1.6635930737370143E9, 0.0, 2022-09-19 18:11:13.737
230.0, -27011.7255463273, -19844.21400358844, -68890.82567582437, -20711.2381710098, -22233.43667190512, 187500.0, -58440.044038301, -19605.027986172197, 0.636, -0.5660000000000001, 0.548, 192.0, 19.0, 224.0, 238.0, 80.0, 17.0, 32.0, 0.0, 0.0, 0.0, 1.663593073740088E9, 0.0, 2022-09-19 18:11:13.740
231.0, -26686.552367991495, -19796.58243615418, -68986.35703162635, -20747.872680172048, -22102.366042419202, 187500.0, -58430.41043644076, -19609.900666463454, 0.636, -0.5660000000000001, 0.548, 192.0, 0.0, 0.0, 0.0, 0.0, 0.0, 0.0, 0.0, 0.0, 0.0, 1.6635930737441845E9, 0.0, 2022-09-19 18:11:13.744
232.0, -26539.142613308744, -19827.36078826914, -69009.82636330443, -20783.814285256183, -22048.520690026366, 187500.0, -58563.269205483106, -19640.164928455943, 0.636, -0.5660000000000001, 0.548, 192.0, 0.0, 0.0, 0.0, 0.0, 0.0, 0.0, 0.0, 0.0, 0.0, 1.6635930737491655E9, 0.0, 2022-09-19 18:11:13.749
233.0, -26868.89789925789, -19885.65413780858, -68888.99283277904, -20740.787177179718, -22176.86440668874, 187500.0, -58595.92510413231, -19638.17562319942, 0.636, -0.5660000000000001, 0.548, 192.0, 0.0, 0.0, 0.0, 0.0, 0.0, 0.0, 0.0, 0.0, 0.0, 1.6635930737531135E9, 0.0, 2022-09-19 18:11:13.753
234.0, -27069.68361969991, -19882.88252149612, -68857.11924518576, -20709.360624475554, -22256.771893116464, 187500.0, -58501.82425997547, -19622.752919525257, 0.636, -0.5660000000000001, 0.548, 192.0, 0.0, 0.0, 0.0, 0.0, 0.0, 0.0, 0.0, 0.0, 0.0, 1.663593073757031E9, 0.0, 2022-09-19 18:11:13.757
235.0, -27016.598226618557, -19848.72905596841, -68896.16774274918, -20713.85332511107, -22235.649494606198, 187500.0, -58456.53962570902, -19612.426413586905, 0.636, -0.5660000000000001, 0.548, 192.0, 0.0, 0.0, 0.0, 0.0, 0.0, 0.0, 0.0, 0.0, 0.0, 1.6635930737601123E9, 0.0, 2022-09-19 18:11:13.760
236.0, -26693.168484350263, -19813.860334618133, -68988.79337177199, -20755.874604687047, -22109.540952389354, 187500.0, -58448.60475642738, -19623.624637559013, 0.636, -0.5660000000000001, 0.548, 192.0, 0.0, 0.0, 0.0, 0.0, 0.0, 0.0, 0.0, 0.0, 0.0, 1.663593073765104E9, 0.0, 2022-09-19 18:11:13.765
237.0, -26534.9628370956, -19828.76894816982, -69000.77390680002, -20782.026145699758, -22047.201937103502, 187500.0, -58567.471333440706, -19643.584745357603, 0.636, -0.5660000000000001, 0.548, 192.0, 0.0, 0.0, 0.0, 0.0, 0.0, 0.0, 0.0, 0.0, 0.0, 1.6635930737690544E9, 0.0, 2022-09-19 18:11:13.769
238.0, -26864.27108815564, -19877.87573073813, -68879.73921057454, -20740.317790546156, -22175.210377599047, 187500.0, -58600.32839779001, -19635.31459990914, 0.636, -0.5660000000000001, 0.548, 192.0, 0.0, 0.0, 0.0, 0.0, 0.0, 0.0, 0.0, 0.0, 0.0, 1.663593073772025E9, 0.0, 2022-09-19 18:11:13.772
239.0, -27065.101512086574, -19874.478265580925, -68849.27378288195, -20708.064223297148, -22253.97792505955, 187500.0, -58504.57352454347, -19617.612018300537, 0.636, -0.5660000000000001, 0.548, 192.0, 0.0, 0.0, 0.0, 0.0, 0.0, 0.0, 0.0, 0.0, 0.0, 1.663593073777123E9, 0.0, 2022-09-19 18:11:13.777
240.0, -27021.716776098823, -19853.288811837294, -68894.13373400376, -20715.90968560096, -22238.01877951846, 187500.0, -58458.3501170099, -19614.371015354518, 0.642, -0.5680000000000001, 0.548, 192.0, 20.0, 16.0, 238.0, 64.0, 17.0, 32.0, 0.0, 0.0, 0.0, 1.6635930737810693E9, 0.0, 2022-09-19 18:11:13.781
241.0, -26697.169446607764, -19809.993482827365, -68989.15099968326, -20754.801720953194, -22107.931626788573, 187500.0, -58444.0450005585, -19620.54009682418, 0.642, -0.5680000000000001, 0.548, 192.0, 0.0, 0.0, 0.0, 0.0, 0.0, 0.0, 0.0, 0.0, 0.0, 1.6635930737850692E9, 0.0, 2022-09-19 18:11:13.785
242.0, -26530.648950415725, -19816.58724744168, -68996.95175849817, -20778.15929390899, -22040.20584108899, 187500.0, -58556.49662691315, -19635.918097009435, 0.642, -0.5680000000000001, 0.548, 192.0, 0.0, 0.0, 0.0, 0.0, 0.0, 0.0, 0.0, 0.0, 0.0, 1.6635930737881012E9, 0.0, 2022-09-19 18:11:13.788
243.0, -26864.494605600194, -19867.97390794443, -68879.78391406345, -20738.70846494537, -22172.23759558649, 187500.0, -58592.03590059709, -19630.732492295803, 0.642, -0.5680000000000001, 0.548, 192.0, 0.0, 0.0, 0.0, 0.0, 0.0, 0.0, 0.0, 0.0, 0.0, 1.6635930737921224E9, 0.0, 2022-09-19 18:11:13.792
244.0, -27069.236584810806, -19859.97198342943, -68850.1007974268, -20706.00786280726, -22255.27432623796, 187500.0, -58494.17996337175, -19616.539134566683, 0.642, -0.5680000000000001, 0.548, 192.0, 0.0, 0.0, 0.0, 0.0, 0.0, 0.0, 0.0, 0.0, 0.0, 1.66359307379611E9, 0.0, 2022-09-19 18:11:13.796
245.0, -27023.974302288807, -19835.765044184333, -68892.63616712525, -20708.46655469734, -22238.35405568529, 187500.0, -58452.91864310726, -19610.21359088583, 0.642, -0.5680000000000001, 0.548, 192.0, 0.0, 0.0, 0.0, 0.0, 0.0, 0.0, 0.0, 0.0, 0.0, 1.66359307380011E9, 0.0, 2022-09-19 18:11:13.800
246.0, -26703.60674901089, -19798.661148388524, -68986.28997639299, -20748.699694716895, -22111.70907160152, 187500.0, -58444.2461662586, -19619.288399134686, 0.642, -0.5680000000000001, 0.548, 192.0, 0.0, 0.0, 0.0, 0.0, 0.0, 0.0, 0.0, 0.0, 0.0, 1.6635930738051848E9, 0.0, 2022-09-19 18:11:13.805
247.0, -26539.656703431214, -19819.515325965327, -68998.5387323545, -20778.695735775917, -22047.716027225975, 187500.0, -58561.034031037576, -19639.51672786674, 0.642, -0.5680000000000001, 0.548, 192.0, 0.0, 0.0, 0.0, 0.0, 0.0, 0.0, 0.0, 0.0, 0.0, 1.6635930738107636E9, 0.0, 2022-09-19 18:11:13.810
248.0, -26865.343971889495, -19878.568634816245, -68884.8577600548, -20736.987380622315, -22173.19872059807, 187500.0, -58600.2836943011, -19631.335989396095, 0.642, -0.5680000000000001, 0.548, 192.0, 0.0, 0.0, 0.0, 0.0, 0.0, 0.0, 0.0, 0.0, 0.0, 1.6635930738133173E9, 0.0, 2022-09-19 18:11:13.813
249.0, -27071.36000053406, -19874.12063766964, -68848.53617531493, -20700.0846505266, -22256.45896869409, 187500.0, -58501.265466364086, -19611.286474619686, 0.642, -0.5680000000000001, 0.548, 192.0, 0.0, 0.0, 0.0, 0.0, 0.0, 0.0, 0.0, 0.0, 0.0, 1.6635930738161309E9, 0.0, 2022-09-19 18:11:13.816
250.0, -27025.270703467217, -19848.30437282376, -68887.1599897337, -20705.60553140706, -22241.103320253293, 187500.0, -58452.672773918246, -19605.229151872296, 0.636, -0.5700000000000001, 0.548, 192.0, 19.0, 224.0, 238.0, 48.0, 17.0, 32.0, 0.0, 0.0, 0.0, 1.6635930738201497E9, 0.0, 2022-09-19 18:11:13.820
251.0, -26706.266606601075, -19809.546447938257, -68980.41146760124, -20746.129244104533, -22113.653673369132, 187500.0, -58443.307392991475, -19615.7791752552, 0.636, -0.5700000000000001, 0.548, 192.0, 0.0, 0.0, 0.0, 0.0, 0.0, 0.0, 0.0, 0.0, 0.0, 1.6635930738241503E9, 0.0, 2022-09-19 18:11:13.824
252.0, -26541.44484298764, -19830.19945981496, -68996.54942709797, -20776.54996830821, -22048.811262704286, 187500.0, -58557.83773158047, -19639.092044722085, 0.636, -0.5700000000000001, 0.548, 192.0, 0.0, 0.0, 0.0, 0.0, 0.0, 0.0, 0.0, 0.0, 0.0, 1.6635930738281384E9, 0.0, 2022-09-19 18:11:13.828
253.0, -26867.02035272364, -19885.162399430563, -68878.21929195158, -20735.86979339955, -22176.506778777457, 187500.0, -58595.74629017667, -19634.867565020035, 0.636, -0.5700000000000001, 0.548, 192.0, 0.0, 0.0, 0.0, 0.0, 0.0, 0.0, 0.0, 0.0, 0.0, 1.6635930738321671E9, 0.0, 2022-09-19 18:11:13.832
254.0, -27073.349305790583, -19877.49575108239, -68844.6022682908, -20698.698842370373, -22256.950707072105, 187500.0, -58502.62892277586, -19615.309788621642, 0.636, -0.5700000000000001, 0.548, 192.0, 0.0, 0.0, 0.0, 0.0, 0.0, 0.0, 0.0, 0.0, 0.0, 1.663593073837243E9, 0.0, 2022-09-19 18:11:13.837
255.0, -27031.05980528114, -19856.149835127573, -68891.25035896902, -20707.95246457487, -22240.566878386366, 187500.0, -58461.03232634453, -19612.49346882027, 0.636, -0.5700000000000001, 0.548, 192.0, 0.0, 0.0, 0.0, 0.0, 0.0, 0.0, 0.0, 0.0, 0.0, 1.6635930738411725E9, 0.0, 2022-09-19 18:11:13.841
0.0, -26713.553275293503, -19821.079948077197, -68985.6864792927, -20751.87364242955, -22113.98894953596, 187500.0, -58449.05179131649, -19622.46234684734, 0.636, -0.5700000000000001, 0.548, 192.0, 0.0, 0.0, 0.0, 0.0, 0.0, 0.0, 0.0, 0.0, 0.0, 1.6635930738442461E9, 0.0, 2022-09-19 18:11:13.844
1.0, -26545.244639545042, -19839.20721283045, -69000.97507250012, -20783.858988745094, -22047.47015803697, 187500.0, -58563.604481649934, -19642.467158134838, 0.636, -0.5700000000000001, 0.548, 192.0, 0.0, 0.0, 0.0, 0.0, 0.0, 0.0, 0.0, 0.0, 0.0, 1.6635930738481224E9, 0.0, 2022-09-19 18:11:13.848
2.0, -26872.42947488183, -19897.20998969197, -68884.0083937655, -20739.021389367746, -22175.657412488155, 187500.0, -58603.681159458305, -19633.012370230244, 0.636, -0.5700000000000001, 0.548, 192.0, 0.0, 0.0, 0.0, 0.0, 0.0, 0.0, 0.0, 0.0, 0.0, 1.6635930738522E9, 0.0, 2022-09-19 18:11:13.852
3.0, -27081.284175072215, -19889.23041692143, -68850.72664627155, -20703.124487772526, -22258.291811739426, 187500.0, -58508.55213505652, -19613.432242087394, 0.636, -0.5700000000000001, 0.548, 192.0, 0.0, 0.0, 0.0, 0.0, 0.0, 0.0, 0.0, 0.0, 0.0, 1.6635930738561883E9, 0.0, 2022-09-19 18:11:13.856
4.0, -27034.79254660518, -19865.582271287713, -68895.47483867107, -20713.652159410973, -22239.58340163033, 187500.0, -58466.95553862519, -19604.960930938832, 0.644, -0.5720000000000001, 0.548, 192.0, 20.0, 32.0, 238.0, 32.0, 17.0, 32.0, 0.0, 0.0, 0.0, 1.663593073860284E9, 0.0, 2022-09-19 18:11:13.860
5.0, -26714.179124138253, -19826.801994657755, -68994.9848049861, -20755.11464537557, -22113.072528013294, 187500.0, -58460.80880889998, -19613.74516650977, 0.644, -0.5720000000000001, 0.548, 192.0, 0.0, 0.0, 0.0, 0.0, 0.0, 0.0, 0.0, 0.0, 0.0, 1.6635930738651989E9, 0.0, 2022-09-19 18:11:13.865
6.0, -26545.19993605613, -19838.000218629866, -69008.97699701512, -20782.137904422034, -22047.291344081324, 187500.0, -58573.55100793255, -19632.87825976351, 0.644, -0.5720000000000001, 0.548, 192.0, 0.0, 0.0, 0.0, 0.0, 0.0, 0.0, 0.0, 0.0, 0.0, 1.6635930738693123E9, 0.0, 2022-09-19 18:11:13.869
7.0, -26864.98634397821, -19882.36843137365, -68885.23773971054, -20738.86492715656, -22172.125836864216, 187500.0, -58606.36336879294, -19626.0833294491, 0.644, -0.5720000000000001, 0.548, 192.0, 0.0, 0.0, 0.0, 0.0, 0.0, 0.0, 0.0, 0.0, 0.0, 1.6635930738722088E9, 0.0, 2022-09-19 18:11:13.872
8.0, -27070.488282500304, -19868.97973644492, -68848.35736135929, -20704.219723250833, -22254.6037739043, 187500.0, -58506.11579491089, -19608.87248621851, 0.644, -0.5720000000000001, 0.548, 192.0, 0.0, 0.0, 0.0, 0.0, 0.0, 0.0, 0.0, 0.0, 0.0, 1.6635930738762035E9, 0.0, 2022-09-19 18:11:13.876
9.0, -27030.478659925302, -19832.971076127422, -68889.84219906834, -20712.042833810192, -22239.35988418578, 187500.0, -58455.55614895299, -19607.41962282892, 0.644, -0.5720000000000001, 0.548, 192.0, 0.0, 0.0, 0.0, 0.0, 0.0, 0.0, 0.0, 0.0, 0.0, 1.663593073880222E9, 0.0, 2022-09-19 18:11:13.880
10.0, -26717.733051506646, -19798.482334432883, -68982.02079320203, -20756.20988085388, -22116.022958281395, 187500.0, -58445.0955325479, -19620.294227635175, 0.644, -0.5720000000000001, 0.548, 192.0, 0.0, 0.0, 0.0, 0.0, 0.0, 0.0, 0.0, 0.0, 0.0, 1.6635930738842287E9, 0.0, 2022-09-19 18:11:13.884
11.0, -26539.500241220027, -19823.762157411835, -68999.07517422142, -20783.657823044996, -22044.49737602441, 187500.0, -58564.85617933943, -19637.058035976654, 0.644, -0.5720000000000001, 0.548, 192.0, 0.0, 0.0, 0.0, 0.0, 0.0, 0.0, 0.0, 0.0, 0.0, 1.6635930738882775E9, 0.0, 2022-09-19 18:11:13.888
12.0, -26860.87362299843, -19883.26250115186, -68884.92481528816, -20742.977648136337, -22172.63992698669, 187500.0, -58613.49357527418, -19635.40400688696, 0.644, -0.5720000000000001, 0.548, 192.0, 0.0, 0.0, 0.0, 0.0, 0.0, 0.0, 0.0, 0.0, 0.0, 1.6635930738932593E9, 0.0, 2022-09-19 18:11:13.893
13.0, -27075.49507325829, -19875.88642548161, -68845.58574504683, -20705.069089540135, -22260.459930951587, 187500.0, -58511.882544980355, -19622.015311958232, 0.644, -0.5720000000000001, 0.548, 192.0, 0.0, 0.0, 0.0, 0.0, 0.0, 0.0, 0.0, 0.0, 0.0, 1.6635930738972225E9, 0.0, 2022-09-19 18:11:13.897
14.0, -27035.932485572397, -19840.45891051995, -68881.57205361988, -20703.77268836173, -22243.629067376743, 187500.0, -58462.08285833393, -19614.77334675471, 0.636, -0.5760000000000001, 0.554, 192.0, 19.0, 224.0, 238.0, 0.0, 17.0, 80.0, 0.0, 0.0, 0.0, 1.6635930739002194E9, 0.0, 2022-09-19 18:11:13.900
15.0, -26722.76219400909, -19800.44928794495, -68976.18698789919, -20743.2458690698, -22118.861629827217, 187500.0, -58454.19269254121, -19629.21257367284, 0.636, -0.5760000000000001, 0.554, 192.0, 0.0, 0.0, 0.0, 0.0, 0.0, 0.0, 0.0, 0.0, 0.0, 1.6635930739043496E9, 0.0, 2022-09-19 18:11:13.904
16.0, -26539.500241220027, -19817.838945131178, -68991.36382238434, -20773.934814206936, -22043.31273356828, 187500.0, -58562.44219093826, -19645.328181425117, 0.636, -0.5760000000000001, 0.554, 192.0, 0.0, 0.0, 0.0, 0.0, 0.0, 0.0, 0.0, 0.0, 0.0, 1.663593073908316E9, 0.0, 2022-09-19 18:11:13.908
17.0, -26863.153500932873, -19879.283890638817, -68879.04630649643, -20744.117587103556, -22170.51651126343, 187500.0, -58611.6830839733, -19645.685809336403, 0.636, -0.5760000000000001, 0.554, 192.0, 0.0, 0.0, 0.0, 0.0, 0.0, 0.0, 0.0, 0.0, 0.0, 1.6635930739123576E9, 0.0, 2022-09-19 18:11:13.912
18.0, -27077.707895959367, -19875.08176268122, -68838.50024205449, -20709.51708668674, -22256.101340782803, 187500.0, -58512.10606242491, -19626.30684689365, 0.636, -0.5760000000000001, 0.554, 192.0, 0.0, 0.0, 0.0, 0.0, 0.0, 0.0, 0.0, 0.0, 0.0, 1.6635930739163475E9, 0.0, 2022-09-19 18:11:13.916
19.0, -27036.06659603913, -19838.64841921907, -68872.96663200458, -20707.28191224121, -22238.242296963013, 187500.0, -58456.941957109215, -19609.945369952366, 0.636, -0.5760000000000001, 0.554, 192.0, 0.0, 0.0, 0.0, 0.0, 0.0, 0.0, 0.0, 0.0, 0.0, 1.6635930739203265E9, 0.0, 2022-09-19 18:11:13.920
20.0, -26724.885609732344, -19804.830229858188, -68972.52130180852, -20752.25362208529, -22113.81013558032, 187500.0, -58450.795227384006, -19623.758748025746, 0.636, -0.5760000000000001, 0.554, 192.0, 0.0, 0.0, 0.0, 0.0, 0.0, 0.0, 0.0, 0.0, 0.0, 1.6635930739253416E9, 0.0, 2022-09-19 18:11:13.925
21.0, -26546.40693025672, -19827.673712691514, -68995.23067417511, -20786.49649459082, -22043.715064968477, 187500.0, -58567.046650296055, -19647.87628029302, 0.636, -0.5760000000000001, 0.554, 192.0, 0.0, 0.0, 0.0, 0.0, 0.0, 0.0, 0.0, 0.0, 0.0, 1.663593073928344E9, 0.0, 2022-09-19 18:11:13.928
22.0, -26864.31579164455, -19881.116733684154, -68878.77808556295, -20745.458691770877, -22167.05199087286, 187500.0, -58610.677255472816, -19638.9355825109, 0.636, -0.5760000000000001, 0.554, 192.0, 0.0, 0.0, 0.0, 0.0, 0.0, 0.0, 0.0, 0.0, 0.0, 1.663593073932338E9, 0.0, 2022-09-19 18:11:13.932
23.0, -27079.496035515793, -19873.919471969544, -68837.06973040936, -20709.204162264366, -22252.659172136686, 187500.0, -58513.089539180946, -19616.539134566683, 0.636, -0.5760000000000001, 0.554, 192.0, 0.0, 0.0, 0.0, 0.0, 0.0, 0.0, 0.0, 0.0, 0.0, 1.6635930739363577E9, 0.0, 2022-09-19 18:11:13.936
24.0, -27042.369787975527, -19845.82332918922, -68878.57691986285, -20714.30036000018, -22237.5493928849, 187500.0, -58465.03328860203, -19611.778212997702, 0.636, -0.5760000000000001, 0.554, 192.0, 0.0, 0.0, 0.0, 0.0, 0.0, 0.0, 0.0, 0.0, 0.0, 1.663593073940369E9, 0.0, 2022-09-19 18:11:13.940
25.0, -26733.558086581004, -19818.040110831276, -68977.7292582666, -20757.43922679892, -22115.777089092386, 187500.0, -58460.294718777506, -19623.7810997702, 0.638, -0.5740000000000001, 0.558, 192.0, 19.0, 240.0, 238.0, 16.0, 17.0, 112.0, 0.0, 0.0, 0.0, 1.663593073944445E9, 0.0, 2022-09-19 18:11:13.944
26.0, -26552.419549515194, -19845.130425111107, -69001.66797657823, -20788.105820191602, -22046.64314349212, 187500.0, -58577.462563212226, -19644.702332580368, 0.638, -0.5740000000000001, 0.558, 192.0, 0.0, 0.0, 0.0, 0.0, 0.0, 0.0, 0.0, 0.0, 0.0, 1.6635930739483635E9, 0.0, 2022-09-19 18:11:13.948
27.0, -26869.389637635904, -19893.32078615675, -68888.99283277904, -20744.139938848013, -22171.321174063825, 187500.0, -58624.82590971302, -19639.114396466543, 0.638, -0.5740000000000001, 0.558, 192.0, 0.0, 0.0, 0.0, 0.0, 0.0, 0.0, 0.0, 0.0, 0.0, 1.6635930739534087E9, 0.0, 2022-09-19 18:11:13.953
28.0, -27084.033439640218, -19882.502541840382, -68848.22325089255, -20702.073955783126, -22255.900175082705, 187500.0, -58520.04093170654, -19616.583838055594, 0.638, -0.5740000000000001, 0.558, 192.0, 0.0, 0.0, 0.0, 0.0, 0.0, 0.0, 0.0, 0.0, 0.0, 1.6635930739563854E9, 0.0, 2022-09-19 18:11:13.956
29.0, -27044.224982765318, -19849.77958795781, -68885.43890541064, -20703.4374121949, -22237.77291032945, 187500.0, -58468.676622948245, -19608.671320518413, 0.638, -0.5740000000000001, 0.558, 192.0, 0.0, 0.0, 0.0, 0.0, 0.0, 0.0, 0.0, 0.0, 0.0, 1.6635930739604356E9, 0.0, 2022-09-19 18:11:13.960
30.0, -26733.580438325458, -19814.53088695179, -68982.11020017984, -20747.135072605022, -22112.267865212903, 187500.0, -58459.42300074375, -19622.55175382516, 0.638, -0.5740000000000001, 0.558, 192.0, 0.0, 0.0, 0.0, 0.0, 0.0, 0.0, 0.0, 0.0, 0.0, 1.6635930739643805E9, 0.0, 2022-09-19 18:11:13.964
31.0, -26547.703331435125, -19832.479337749402, -69005.73599406911, -20781.042668943726, -22039.78115794434, 187500.0, -58571.673461398306, -19648.74799832678, 0.638, -0.5740000000000001, 0.558, 192.0, 0.0, 0.0, 0.0, 0.0, 0.0, 0.0, 0.0, 0.0, 0.0, 1.6635930739685287E9, 0.0, 2022-09-19 18:11:13.968
32.0, -26866.46155911226, -19891.867922767153, -68893.75375434801, -20745.92807840444, -22165.554423994356, 187500.0, -58619.685008488304, -19648.524480882228, 0.638, -0.5740000000000001, 0.558, 192.0, 0.0, 0.0, 0.0, 0.0, 0.0, 0.0, 0.0, 0.0, 0.0, 1.663593073972417E9, 0.0, 2022-09-19 18:11:13.972
33.0, -27083.675811728936, -19885.251806408385, -68854.59349806231, -20711.595798921087, -22252.100378525305, 187500.0, -58524.44422536424, -19631.514803351736, 0.638, -0.5740000000000001, 0.558, 192.0, 0.0, 0.0, 0.0, 0.0, 0.0, 0.0, 0.0, 0.0, 0.0, 1.663593073977434E9, 0.0, 2022-09-19 18:11:13.977
34.0, -27046.102529299562, -19852.327686825716, -68884.99187052154, -20709.561790175652, -22241.103320253293, 187500.0, -58468.408402014786, -19622.954085225356, 0.638, -0.5740000000000001, 0.558, 192.0, 0.0, 0.0, 0.0, 0.0, 0.0, 0.0, 0.0, 0.0, 0.0, 1.663593073980389E9, 0.0, 2022-09-19 18:11:13.980
35.0, -26735.837964515445, -19804.07027054671, -68975.71760126563, -20743.022351625248, -22118.816926338306, 187500.0, -58452.91864310726, -19632.45357661886, 0.634, -0.5720000000000001, 0.556, 192.0, 19.0, 208.0, 238.0, 32.0, 17.0, 96.0, 0.0, 0.0, 0.0, 1.6635930739834404E9, 0.0, 2022-09-19 18:11:13.983
36.0, -26548.373883768785, -19827.629009202603, -69005.80304930247, -20780.550930565707, -22046.576088258756, 187500.0, -58574.042746310566, -19658.046324020186, 0.634, -0.5720000000000001, 0.556, 192.0, 0.0, 0.0, 0.0, 0.0, 0.0, 0.0, 0.0, 0.0, 0.0, 1.6635930739884453E9, 0.0, 2022-09-19 18:11:13.988
37.0, -26866.618021323447, -19878.54628307179, -68888.34463218984, -20739.893107401505, -22174.07043863183, 187500.0, -58617.91922067633, -19653.128940240018, 0.634, -0.5720000000000001, 0.556, 192.0, 0.0, 0.0, 0.0, 0.0, 0.0, 0.0, 0.0, 0.0, 0.0, 1.6635930739924755E9, 0.0, 2022-09-19 18:11:13.992
38.0, -27088.21321585336, -19870.07497192323, -68846.59157354731, -20697.290682469687, -22264.326782742355, 187500.0, -58519.77271077308, -19628.877297506013, 0.634, -0.5720000000000001, 0.556, 192.0, 0.0, 0.0, 0.0, 0.0, 0.0, 0.0, 0.0, 0.0, 0.0, 1.6635930739964807E9, 0.0, 2022-09-19 18:11:13.996
39.0, -27056.138462559997, -19838.40255003006, -68887.29410020044, -20702.498638927776, -22254.670829137664, 187500.0, -58472.54347473902, -19622.372939869518, 0.634, -0.5720000000000001, 0.556, 192.0, 0.0, 0.0, 0.0, 0.0, 0.0, 0.0, 0.0, 0.0, 0.0, 1.6635930740004852E9, 0.0, 2022-09-19 18:11:14.000
40.0, -26752.557069368017, -19801.43276470098, -68981.66316529074, -20749.325543561645, -22136.295990502356, 187500.0, -58460.51823622206, -19636.208669687352, 0.634, -0.5720000000000001, 0.556, 192.0, 0.0, 0.0, 0.0, 0.0, 0.0, 0.0, 0.0, 0.0, 0.0, 1.663593074004498E9, 0.0, 2022-09-19 18:11:14.004
41.0, -26556.8675466618, -19824.276247534304, -69009.24521794858, -20785.714183534885, -22058.914251198086, 187500.0, -58577.14963878985, -19657.889861809, 0.634, -0.5720000000000001, 0.556, 192.0, 0.0, 0.0, 0.0, 0.0, 0.0, 0.0, 0.0, 0.0, 0.0, 1.6635930740085263E9, 0.0, 2022-09-19 18:11:14.008
42.0, -26874.061152227063, -19889.45393436598, -68896.68183287166, -20754.35468606409, -22186.989746926993, 187500.0, -58630.74912199368, -19662.56137640016, 0.634, -0.5720000000000001, 0.556, 192.0, 0.0, 0.0, 0.0, 0.0, 0.0, 0.0, 0.0, 0.0, 0.0, 1.6635930740115733E9, 0.0, 2022-09-19 18:11:14.011
43.0, -27095.20931186787, -19883.307204640772, -68848.98321020404, -20713.62980766652, -22275.904986370206, 187500.0, -58526.500585854126, -19642.98124825731, 0.634, -0.5720000000000001, 0.556, 192.0, 0.0, 0.0, 0.0, 0.0, 0.0, 0.0, 0.0, 0.0, 0.0, 1.6635930740165372E9, 0.0, 2022-09-19 18:11:14.016
44.0, -27063.939221374898, -19846.091550122685, -68880.14154197474, -20712.24399951029, -22264.147968786714, 187500.0, -58472.72228869466, -19635.627524331514, 0.634, -0.5720000000000001, 0.556, 192.0, 0.0, 0.0, 0.0, 0.0, 0.0, 0.0, 0.0, 0.0, 0.0, 1.663593074020513E9, 0.0, 2022-09-19 18:11:14.020
45.0, -26759.061427004508, -19804.450250202448, -68979.69621177868, -20754.1982238529, -22144.90141211765, 187500.0, -58465.03328860203, -19646.959858770355, 0.632, -0.5680000000000001, 0.556, 192.0, 19.0, 192.0, 238.0, 64.0, 17.0, 96.0, 0.0, 0.0, 0.0, 1.6635930740245035E9, 0.0, 2022-09-19 18:11:14.024
46.0, -26565.78589269947, -19825.88557313509, -69012.08388949442, -20789.603387070107, -22070.22423389247, 187500.0, -58588.21375229523, -19669.356306714573, 0.632, -0.5680000000000001, 0.556, 192.0, 0.0, 0.0, 0.0, 0.0, 0.0, 0.0, 0.0, 0.0, 0.0, 1.663593074028519E9, 0.0, 2022-09-19 18:11:14.028
47.0, -26883.47123664275, -19879.708573783468, -68887.89759730072, -20746.35276154909, -22193.76232549695, 187500.0, -58628.625706270424, -19660.28149846572, 0.632, -0.5680000000000001, 0.556, 192.0, 0.0, 0.0, 0.0, 0.0, 0.0, 0.0, 0.0, 0.0, 0.0, 1.6635930740325463E9, 0.0, 2022-09-19 18:11:14.032
48.0, -27109.648538786, -19878.054544693776, -68853.40885560619, -20713.406290221967, -22284.84568415233, 187500.0, -58539.91163252731, -19641.640143589993, 0.632, -0.5680000000000001, 0.556, 192.0, 0.0, 0.0, 0.0, 0.0, 0.0, 0.0, 0.0, 0.0, 0.0, 1.6635930740365407E9, 0.0, 2022-09-19 18:11:14.036
49.0, -27077.663192470456, -19850.11486412464, -68890.78097233546, -20716.624941423528, -22271.993431090526, 187500.0, -58491.0060156591, -19633.74997779727, 0.632, -0.5680000000000001, 0.556, 192.0, 0.0, 0.0, 0.0, 0.0, 0.0, 0.0, 0.0, 0.0, 0.0, 1.6635930740395305E9, 0.0, 2022-09-19 18:11:14.039
50.0, -26771.10901726592, -19806.327796736696, -68979.36093561184, -20755.025238397746, -22148.030656341394, 187500.0, -58468.72132643716, -19639.27085867773, 0.632, -0.5680000000000001, 0.556, 192.0, 0.0, 0.0, 0.0, 0.0, 0.0, 0.0, 0.0, 0.0, 0.0, 1.66359307404359E9, 0.0, 2022-09-19 18:11:14.043
51.0, -26575.59830851535, -19824.164488812028, -69003.34435741238, -20790.005718470304, -22071.811207748797, 187500.0, -58577.84254286797, -19662.360210700062, 0.632, -0.5680000000000001, 0.556, 192.0, 0.0, 0.0, 0.0, 0.0, 0.0, 0.0, 0.0, 0.0, 0.0, 1.6635930740486145E9, 0.0, 2022-09-19 18:11:14.048
52.0, -26889.014469267666, -19880.289719139306, -68889.95395779061, -20751.00192439579, -22195.908092964663, 187500.0, -58628.24572661469, -19664.12599851203, 0.632, -0.5680000000000001, 0.556, 192.0, 0.0, 0.0, 0.0, 0.0, 0.0, 0.0, 0.0, 0.0, 0.0, 1.6635930740525575E9, 0.0, 2022-09-19 18:11:14.052
53.0, -27117.60575981209, -19879.641518550103, -68846.61392529178, -20714.85915361156, -22287.237320809047, 187500.0, -58531.328562656476, -19646.289306436694, 0.632, -0.5680000000000001, 0.556, 192.0, 0.0, 0.0, 0.0, 0.0, 0.0, 0.0, 0.0, 0.0, 0.0, 1.6635930740565805E9, 0.0, 2022-09-19 18:11:14.056
54.0, -27091.78949496621, -19855.725151982922, -68884.50013214351, -20723.464575226855, -22277.804884648907, 187500.0, -58482.937035910734, -19643.584745357603, 0.632, -0.5680000000000001, 0.556, 192.0, 0.0, 0.0, 0.0, 0.0, 0.0, 0.0, 0.0, 0.0, 0.0, 1.6635930740606115E9, 0.0, 2022-09-19 18:11:14.060
55.0, -26789.660965163825, -19807.914770593023, -68973.99651694257, -20763.00481116829, -22156.636077956686, 187500.0, -58461.63582344483, -19654.9394315409, 0.638, -0.5720000000000001, 0.552, 192.0, 19.0, 240.0, 238.0, 32.0, 17.0, 64.0, 0.0, 0.0, 0.0, 1.6635930740646396E9, 0.0, 2022-09-19 18:11:14.064
56.0, -26587.377677843295, -19823.6280469451, -69003.76904055703, -20797.381794140554, -22072.995850204927, 187500.0, -58575.920292844814, -19672.619661405046, 0.638, -0.5720000000000001, 0.552, 192.0, 0.0, 0.0, 0.0, 0.0, 0.0, 0.0, 0.0, 0.0, 0.0, 1.6635930740675876E9, 0.0, 2022-09-19 18:11:14.067
57.0, -26898.22338798325, -19880.245015650395, -68892.25618746951, -20760.032029155736, -22194.075249919326, 187500.0, -58635.487691818205, -19671.055039293176, 0.638, -0.5720000000000001, 0.552, 192.0, 0.0, 0.0, 0.0, 0.0, 0.0, 0.0, 0.0, 0.0, 0.0, 1.6635930740716076E9, 0.0, 2022-09-19 18:11:14.071
58.0, -27125.27240816026, -19874.701783025477, -68845.42928283564, -20718.122508302036, -22284.085724840847, 187500.0, -58532.87083302389, -19649.17268147143, 0.638, -0.5720000000000001, 0.552, 192.0, 0.0, 0.0, 0.0, 0.0, 0.0, 0.0, 0.0, 0.0, 0.0, 1.663593074076583E9, 0.0, 2022-09-19 18:11:14.076
59.0, -27098.003279924786, -19845.465701277935, -68882.22025420908, -20717.921342601938, -22272.596928190822, 187500.0, -58483.02644288856, -19635.716931309336, 0.638, -0.5720000000000001, 0.552, 192.0, 0.0, 0.0, 0.0, 0.0, 0.0, 0.0, 0.0, 0.0, 0.0, 1.663593074080626E9, 0.0, 2022-09-19 18:11:14.080
60.0, -26800.769782158113, -19805.277264747296, -68975.49408382108, -20759.607346011086, -22154.53501397789, 187500.0, -58468.72132643716, -19644.54587036918, 0.638, -0.5720000000000001, 0.552, 192.0, 0.0, 0.0, 0.0, 0.0, 0.0, 0.0, 0.0, 0.0, 0.0, 1.6635930740846364E9, 0.0, 2022-09-19 18:11:14.084
61.0, -26593.479704079593, -19816.20726778594, -69008.038223748, -20794.721936550373, -22071.6100420487, 187500.0, -58579.49657195766, -19664.394219445494, 0.638, -0.5720000000000001, 0.552, 192.0, 0.0, 0.0, 0.0, 0.0, 0.0, 0.0, 0.0, 0.0, 0.0, 1.663593074088632E9, 0.0, 2022-09-19 18:11:14.088
62.0, -26898.26809147216, -19867.07983816622, -68888.88107405676, -20752.275973829746, -22189.716659750542, 187500.0, -58630.391494082396, -19657.398123430983, 0.638, -0.5720000000000001, 0.552, 192.0, 0.0, 0.0, 0.0, 0.0, 0.0, 0.0, 0.0, 0.0, 0.0, 1.663593074092721E9, 0.0, 2022-09-19 18:11:14.092
63.0, -27128.33459715064, -19863.816483475744, -68842.5459078009, -20708.377147719522, -22279.391858505234, 187500.0, -58527.97580098818, -19635.471062120327, 0.638, -0.5720000000000001, 0.552, 192.0, 0.0, 0.0, 0.0, 0.0, 0.0, 0.0, 0.0, 0.0, 0.0, 1.66359307409664E9, 0.0, 2022-09-19 18:11:14.096
64.0, -27100.84195147061, -19838.916640152533, -68884.72364958806, -20712.95925533286, -22268.528910699955, 187500.0, -58478.93607365323, -19632.87825976351, 0.638, -0.5720000000000001, 0.552, 192.0, 0.0, 0.0, 0.0, 0.0, 0.0, 0.0, 0.0, 0.0, 0.0, 1.6635930740996644E9, 0.0, 2022-09-19 18:11:14.099
65.0, -26797.752296656647, -19804.025567057797, -68977.17046465522, -20754.041761641714, -22146.510737718432, 187500.0, -58466.35204152489, -19644.79173955819, 0.638, -0.5700000000000001, 0.554, 192.0, 19.0, 240.0, 238.0, 48.0, 17.0, 80.0, 0.0, 0.0, 0.0, 1.6635930741046739E9, 0.0, 2022-09-19 18:11:14.104
66.0, -26589.814017988923, -19820.856430632644, -69010.27339819353, -20788.88813124754, -22062.155254144105, 187500.0, -58576.09910680045, -19667.568167158148, 0.638, -0.5700000000000001, 0.554, 192.0, 0.0, 0.0, 0.0, 0.0, 0.0, 0.0, 0.0, 0.0, 0.0, 1.6635930741086855E9, 0.0, 2022-09-19 18:11:14.108
67.0, -26899.94447230631, -19882.88252149612, -68894.87134157078, -20753.72883721934, -22182.988784669495, 187500.0, -58630.45854931576, -19662.539024655704, 0.638, -0.5700000000000001, 0.554, 192.0, 0.0, 0.0, 0.0, 0.0, 0.0, 0.0, 0.0, 0.0, 0.0, 1.6635930741136348E9, 0.0, 2022-09-19 18:11:14.113
68.0, -27133.60960884209, -19877.339288871204, -68849.54200381541, -20719.39655773599, -22276.575538703866, 187500.0, -58531.596783589936, -19643.003600001764, 0.638, -0.5700000000000001, 0.554, 192.0, 0.0, 0.0, 0.0, 0.0, 0.0, 0.0, 0.0, 0.0, 0.0, 1.6635930741176405E9, 0.0, 2022-09-19 18:11:14.117
69.0, -27106.876922473544, -19850.11486412464, -68888.38933567874, -20723.688092671408, -22265.533776942942, 187500.0, -58481.86415217688, -19634.465233619838, 0.638, -0.5700000000000001, 0.554, 192.0, 0.0, 0.0, 0.0, 0.0, 0.0, 0.0, 0.0, 0.0, 0.0, 1.6635930741206503E9, 0.0, 2022-09-19 18:11:14.120
70.0, -26809.039927606576, -19818.151869553552, -68980.76909551253, -20765.19528212491, -22147.15893830764, 187500.0, -58468.02842235904, -19645.730512825314, 0.638, -0.5700000000000001, 0.554, 192.0, 0.0, 0.0, 0.0, 0.0, 0.0, 0.0, 0.0, 0.0, 0.0, 1.663593074123773E9, 0.0, 2022-09-19 18:11:14.123
71.0, -26600.25228264955, -19828.54543072527, -69012.21799996114, -20801.472163375875, -22062.22230937747, 187500.0, -58579.92125510231, -19667.36700145805, 0.638, -0.5700000000000001, 0.554, 192.0, 0.0, 0.0, 0.0, 0.0, 0.0, 0.0, 0.0, 0.0, 0.0, 1.6635930741277196E9, 0.0, 2022-09-19 18:11:14.127
72.0, -26904.101896774995, -19884.424791863537, -68896.05598402691, -20763.675363501952, -22177.222034600025, 187500.0, -58634.07953191752, -19664.30481246767, 0.638, -0.5700000000000001, 0.554, 192.0, 0.0, 0.0, 0.0, 0.0, 0.0, 0.0, 0.0, 0.0, 0.0, 1.663593074131766E9, 0.0, 2022-09-19 18:11:14.131
73.0, -27130.36860589607, -19879.283890638817, -68844.8481374798, -20719.53066820272, -22262.516291441476, 187500.0, -58529.65218182233, -19642.534213368202, 0.638, -0.5700000000000001, 0.554, 192.0, 0.0, 0.0, 0.0, 0.0, 0.0, 0.0, 0.0, 0.0, 0.0, 1.6635930741366484E9, 0.0, 2022-09-19 18:11:14.136
74.0, -27102.205407882382, -19854.74167522689, -68880.0521349969, -20720.536496703207, -22249.44052093512, 187500.0, -58476.09740210741, -19633.861736519546, 0.638, -0.5700000000000001, 0.554, 192.0, 0.0, 0.0, 0.0, 0.0, 0.0, 0.0, 0.0, 0.0, 0.0, 1.6635930741407764E9, 0.0, 2022-09-19 18:11:14.140
75.0, -26809.844590406967, -19829.283038292295, -68977.10340942185, -20765.977593180847, -22135.290162001867, 187500.0, -58467.76020142558, -19647.250431448276, 0.636, -0.5680000000000001, 0.554, 192.0, 19.0, 224.0, 238.0, 64.0, 17.0, 80.0, 0.0, 0.0, 0.0, 1.663593074144715E9, 0.0, 2022-09-19 18:11:14.144
76.0, -26598.508846582037, -19847.007971645355, -69010.76513657154, -20806.277788433767, -22053.97451567346, 187500.0, -58575.16033353333, -19673.37962071653, 0.636, -0.5680000000000001, 0.554, 192.0, 0.0, 0.0, 0.0, 0.0, 0.0, 0.0, 0.0, 0.0, 0.0, 1.6635930741477504E9, 0.0, 2022-09-19 18:11:14.147
77.0, -26898.916292061367, -19906.41890840756, -68899.81107709541, -20775.611195041085, -22170.360049052248, 187500.0, -58635.59945054048, -19676.330050984627, 0.636, -0.5680000000000001, 0.554, 192.0, 0.0, 0.0, 0.0, 0.0, 0.0, 0.0, 0.0, 0.0, 0.0, 1.663593074151793E9, 0.0, 2022-09-19 18:11:14.151
78.0, -27133.8554780311, -19912.61034162168, -68851.50895732749, -20740.34014229061, -22260.83991060733, 187500.0, -58540.44807439424, -19657.822806575634, 0.636, -0.5680000000000001, 0.554, 192.0, 0.0, 0.0, 0.0, 0.0, 0.0, 0.0, 0.0, 0.0, 0.0, 1.6635930741557145E9, 0.0, 2022-09-19 18:11:14.155
79.0, -27112.531913820734, -19880.334422628217, -68882.80139956491, -20737.970857378346, -22250.133425013235, 187500.0, -58481.64063473233, -19649.239736704796, 0.636, -0.5680000000000001, 0.554, 192.0, 0.0, 0.0, 0.0, 0.0, 0.0, 0.0, 0.0, 0.0, 0.0, 1.663593074159808E9, 0.0, 2022-09-19 18:11:14.159
80.0, -26818.450012022262, -19829.998294114863, -68976.45520883265, -20774.024221184758, -22132.29502824486, 187500.0, -58466.32968978044, -19662.248451977786, 0.636, -0.5680000000000001, 0.554, 192.0, 0.0, 0.0, 0.0, 0.0, 0.0, 0.0, 0.0, 0.0, 0.0, 1.6635930741637084E9, 0.0, 2022-09-19 18:11:14.163
81.0, -26598.26297739303, -19848.796111201777, -69012.26270345005, -20809.898771035525, -22045.5032045249, 187500.0, -58577.954301590245, -19685.628376678036, 0.636, -0.5680000000000001, 0.554, 192.0, 0.0, 0.0, 0.0, 0.0, 0.0, 0.0, 0.0, 0.0, 0.0, 1.6635930741687324E9, 0.0, 2022-09-19 18:11:14.168
82.0, -26894.93768154832, -19912.85621081069, -68902.00154805202, -20772.928985706447, -22161.017019869927, 187500.0, -58646.32828787903, -19684.376678988538, 0.636, -0.5680000000000001, 0.554, 192.0, 0.0, 0.0, 0.0, 0.0, 0.0, 0.0, 0.0, 0.0, 0.0, 1.6635930741727428E9, 0.0, 2022-09-19 18:11:14.172
83.0, -27127.865210517077, -19900.02630949334, -68851.5983643053, -20722.77167114874, -22249.97696280205, 187500.0, -58547.35476343093, -19659.23096647632, 0.636, -0.5680000000000001, 0.554, 192.0, 0.0, 0.0, 0.0, 0.0, 0.0, 0.0, 0.0, 0.0, 0.0, 1.6635930741768556E9, 0.0, 2022-09-19 18:11:14.176
84.0, -27100.17139913695, -19853.244108348383, -68879.85096929681, -20716.91551410145, -22236.208288217582, 187500.0, -58487.18386735724, -19647.339838426095, 0.636, -0.5680000000000001, 0.554, 192.0, 0.0, 0.0, 0.0, 0.0, 0.0, 0.0, 0.0, 0.0, 0.0, 1.6635930741797497E9, 0.0, 2022-09-19 18:11:14.179
85.0, -26801.395631002863, -19810.596979927657, -68972.43189483069, -20756.58986050962, -22114.346577447246, 187500.0, -58469.14600958181, -19656.79462633069, 0.642, -0.5720000000000001, 0.548, 192.0, 20.0, 16.0, 238.0, 32.0, 17.0, 32.0, 0.0, 0.0, 0.0, 1.6635930741857953E9, 0.0, 2022-09-19 18:11:14.185
86.0, -26581.946203940657, -19831.20528831545, -69012.97795927263, -20797.73942205184, -22026.392463015614, 187500.0, -58580.90473185835, -19681.202731275884, 0.642, -0.5720000000000001, 0.548, 192.0, 0.0, 0.0, 0.0, 0.0, 0.0, 0.0, 0.0, 0.0, 0.0, 1.663593074188809E9, 0.0, 2022-09-19 18:11:14.188
87.0, -26878.307983673574, -19900.696861827, -68897.03946078295, -20760.412008811476, -22137.48063295849, 187500.0, -58643.28845063311, -19677.71585914086, 0.642, -0.5720000000000001, 0.548, 192.0, 0.0, 0.0, 0.0, 0.0, 0.0, 0.0, 0.0, 0.0, 0.0, 1.6635930741928144E9, 0.0, 2022-09-19 18:11:14.192
88.0, -27112.017823698265, -19889.811562277268, -68847.88797472573, -20717.317845501646, -22226.64174159071, 187500.0, -58546.08071399698, -19657.778103086723, 0.642, -0.5720000000000001, 0.548, 192.0, 0.0, 0.0, 0.0, 0.0, 0.0, 0.0, 0.0, 0.0, 0.0, 1.6635930741978328E9, 0.0, 2022-09-19 18:11:14.197
89.0, -27085.151026862983, -19838.40255003006, -68880.94620477513, -20712.847496610582, -22211.86723850575, 187500.0, -58484.99339640062, -19644.97055351383, 0.642, -0.5720000000000001, 0.548, 192.0, 0.0, 0.0, 0.0, 0.0, 0.0, 0.0, 0.0, 0.0, 0.0, 1.6635930742008908E9, 0.0, 2022-09-19 18:11:14.200
90.0, -26795.092439066466, -19799.15288676654, -68976.85754023284, -20753.259450585778, -22093.067716725793, 187500.0, -58470.01772761557, -19654.626507118526, 0.642, -0.5720000000000001, 0.548, 192.0, 0.0, 0.0, 0.0, 0.0, 0.0, 0.0, 0.0, 0.0, 0.0, 1.663593074204856E9, 0.0, 2022-09-19 18:11:14.204
91.0, -26567.55168051144, -19812.34041599517, -69009.0887557374, -20790.855084759605, -22002.118468537148, 187500.0, -58574.69094689977, -19672.686716638415, 0.642, -0.5720000000000001, 0.548, 192.0, 0.0, 0.0, 0.0, 0.0, 0.0, 0.0, 0.0, 0.0, 0.0, 1.6635930742079103E9, 0.0, 2022-09-19 18:11:14.207
92.0, -26859.84544275349, -19877.294585382293, -68893.8655130703, -20755.33816282012, -22112.98312103547, 187500.0, -58632.17963363882, -19669.22219624784, 0.642, -0.5720000000000001, 0.548, 192.0, 0.0, 0.0, 0.0, 0.0, 0.0, 0.0, 0.0, 0.0, 0.0, 1.6635930742118745E9, 0.0, 2022-09-19 18:11:14.211
93.0, -27095.298718845694, -19876.98166095992, -68846.77038750295, -20720.111813558557, -22203.574741312834, 187500.0, -58536.849443536936, -19655.587632130104, 0.642, -0.5720000000000001, 0.548, 192.0, 0.0, 0.0, 0.0, 0.0, 0.0, 0.0, 0.0, 0.0, 0.0, 1.6635930742158923E9, 0.0, 2022-09-19 18:11:14.215
94.0, -27071.628221467523, -19848.05850363475, -68880.74503907503, -20719.19539203589, -22191.68361326261, 187500.0, -58488.03323364654, -19648.569184371136, 0.642, -0.5720000000000001, 0.548, 192.0, 0.0, 0.0, 0.0, 0.0, 0.0, 0.0, 0.0, 0.0, 0.0, 1.6635930742198558E9, 0.0, 2022-09-19 18:11:14.219
95.0, -26777.926299324787, -19816.0284538303, -68973.66124077573, -20760.456712300387, -22072.437056593546, 187500.0, -58474.5998352289, -19656.258184463764, 0.634, -0.5660000000000001, 0.548, 192.0, 19.0, 208.0, 238.0, 80.0, 17.0, 32.0, 0.0, 0.0, 0.0, 1.6635930742248735E9, 0.0, 2022-09-19 18:11:14.224
96.0, -26544.14940406673, -19824.790337656777, -69004.66311033526, -20791.16800918198, -21973.64234610109, 187500.0, -58574.84740911096, -19671.546777671192, 0.634, -0.5660000000000001, 0.548, 192.0, 0.0, 0.0, 0.0, 0.0, 0.0, 0.0, 0.0, 0.0, 0.0, 1.6635930742279403E9, 0.0, 2022-09-19 18:11:14.227
97.0, -26830.430547050306, -19881.40730636207, -68892.8596845698, -20753.080636630137, -22083.456466610012, 187500.0, -58637.9910871972, -19669.64687939249, 0.634, -0.5660000000000001, 0.548, 192.0, 0.0, 0.0, 0.0, 0.0, 0.0, 0.0, 0.0, 0.0, 0.0, 1.6635930742318585E9, 0.0, 2022-09-19 18:11:14.231
98.0, -27064.140387074996, -19876.489922581903, -68846.07748342484, -20711.215819265344, -22172.52816826441, 187500.0, -58544.9184232853, -19648.815053560145, 0.634, -0.5660000000000001, 0.548, 192.0, 0.0, 0.0, 0.0, 0.0, 0.0, 0.0, 0.0, 0.0, 0.0, 1.66359307423589E9, 0.0, 2022-09-19 18:11:14.235
99.0, -27041.72158738632, -19846.426826289517, -68880.81209430839, -20708.377147719522, -22160.122950091714, 187500.0, -58490.067242391975, -19637.59447784358, 0.634, -0.5660000000000001, 0.548, 192.0, 0.0, 0.0, 0.0, 0.0, 0.0, 0.0, 0.0, 0.0, 0.0, 1.6635930742400029E9, 0.0, 2022-09-19 18:11:14.240
100.0, -26752.311200179007, -19810.798145627756, -68975.27056637652, -20748.40912203898, -22041.25637307839, 187500.0, -58473.90693115079, -19649.440902404895, 0.634, -0.5660000000000001, 0.548, 192.0, 0.0, 0.0, 0.0, 0.0, 0.0, 0.0, 0.0, 0.0, 0.0, 1.663593074244023E9, 0.0, 2022-09-19 18:11:14.244
101.0, -26524.8598486018, -19828.54543072527, -69019.16939248674, -20791.72680279336, -21946.7308457769, 187500.0, -58582.96109234823, -19675.61479516206, 0.634, -0.5660000000000001, 0.548, 192.0, 0.0, 0.0, 0.0, 0.0, 0.0, 0.0, 0.0, 0.0, 0.0, 1.6635930742478764E9, 0.0, 2022-09-19 18:11:14.247
102.0, -26809.35285202895, -19882.41313486256, -68903.25324574152, -20754.86877618656, -22049.7053324825, 187500.0, -58643.51196807766, -19671.7926468602, 0.634, -0.5660000000000001, 0.548, 192.0, 0.0, 0.0, 0.0, 0.0, 0.0, 0.0, 0.0, 0.0, 0.0, 1.6635930742529037E9, 0.0, 2022-09-19 18:11:14.252
103.0, -27055.06557882614, -19894.50542861288, -68858.08037019735, -20721.542325203696, -22145.05787432884, 187500.0, -58553.769714089605, -19658.269841464742, 0.634, -0.5660000000000001, 0.548, 192.0, 0.0, 0.0, 0.0, 0.0, 0.0, 0.0, 0.0, 0.0, 0.0, 1.663593074256896E9, 0.0, 2022-09-19 18:11:14.256
104.0, -27035.753671616756, -19866.655155021566, -68895.02780378197, -20721.989360092804, -22132.4738422005, 187500.0, -58503.992379187635, -19651.944297783888, 0.634, -0.5660000000000001, 0.548, 192.0, 0.0, 0.0, 0.0, 0.0, 0.0, 0.0, 0.0, 0.0, 0.0, 1.663593074259886E9, 0.0, 2022-09-19 18:11:14.259
105.0, -26742.811708785503, -19823.762157411835, -68985.88764499279, -20763.138921635025, -22011.707366908475, 187500.0, -58482.13237311034, -19661.980231044323, 0.634, -0.5700000000000001, 0.546, 192.0, 19.0, 208.0, 238.0, 48.0, 17.0, 16.0, 0.0, 0.0, 0.0, 1.6635930742649453E9, 0.0, 2022-09-19 18:11:14.264
106.0, -26504.966796036577, -19828.992465614374, -69021.58338088791, -20801.1592389535, -21912.15269710454, 187500.0, -58582.33524350348, -19678.788742874713, 0.634, -0.5700000000000001, 0.546, 192.0, 0.0, 0.0, 0.0, 0.0, 0.0, 0.0, 0.0, 0.0, 0.0, 1.6635930742689114E9, 0.0, 2022-09-19 18:11:14.268
107.0, -26792.119657053907, -19885.207102919474, -68905.55547542042, -20766.312869347676, -22019.776346656843, 187500.0, -58645.43421810082, -19677.961728329865, 0.634, -0.5700000000000001, 0.546, 192.0, 0.0, 0.0, 0.0, 0.0, 0.0, 0.0, 0.0, 0.0, 0.0, 1.6635930742739704E9, 0.0, 2022-09-19 18:11:14.273
108.0, -27029.472831424813, -19884.02246046334, -68850.43607359364, -20723.799851393684, -22110.882057056675, 187500.0, -58549.50053089864, -19654.760617585256, 0.634, -0.5700000000000001, 0.546, 192.0, 0.0, 0.0, 0.0, 0.0, 0.0, 0.0, 0.0, 0.0, 0.0, 1.663593074276893E9, 0.0, 2022-09-19 18:11:14.276
109.0, -27008.90922652593, -19854.764026971345, -68881.7061640866, -20722.794022893195, -22096.621644094186, 187500.0, -58498.739719240635, -19641.729550567812, 0.634, -0.5700000000000001, 0.546, 192.0, 0.0, 0.0, 0.0, 0.0, 0.0, 0.0, 0.0, 0.0, 0.0, 1.663593074281997E9, 0.0, 2022-09-19 18:11:14.281
110.0, -26721.08581317494, -19824.142137067574, -68972.47659831961, -20763.63066001304, -21974.089380990194, 187500.0, -58481.14889635431, -19653.285402451205, 0.634, -0.5700000000000001, 0.546, 192.0, 0.0, 0.0, 0.0, 0.0, 0.0, 0.0, 0.0, 0.0, 0.0, 1.6635930742849288E9, 0.0, 2022-09-19 18:11:14.284
111.0, -26486.504255116495, -19837.150852340565, -69015.61546511835, -20805.78605005575, -21876.36755423159, 187500.0, -58590.00189185166, -19677.626452163036, 0.634, -0.5700000000000001, 0.546, 192.0, 0.0, 0.0, 0.0, 0.0, 0.0, 0.0, 0.0, 0.0, 0.0, 1.6635930742890143E9, 0.0, 2022-09-19 18:11:14.289
112.0, -26760.76015958311, -19879.909739483566, -68897.08416427186, -20765.575261780654, -21976.659831602556, 187500.0, -58649.72575303623, -19675.391277717506, 0.634, -0.5700000000000001, 0.546, 192.0, 0.0, 0.0, 0.0, 0.0, 0.0, 0.0, 0.0, 0.0, 0.0, 1.6635930742919323E9, 0.0, 2022-09-19 18:11:14.291
113.0, -27006.763459058224, -19872.198387646484, -68839.77429148844, -20721.788194392706, -22070.201882148016, 187500.0, -58548.76292333161, -19660.907347310465, 0.634, -0.5700000000000001, 0.546, 192.0, 0.0, 0.0, 0.0, 0.0, 0.0, 0.0, 0.0, 0.0, 0.0, 1.6635930742959747E9, 0.0, 2022-09-19 18:11:14.295
114.0, -26984.501121580735, -19835.87680290661, -68865.70231505661, -20713.272179755233, -22055.65089650761, 187500.0, -58488.72613772466, -19645.97638201432, 0.634, -0.5700000000000001, 0.546, 192.0, 0.0, 0.0, 0.0, 0.0, 0.0, 0.0, 0.0, 0.0, 0.0, 1.663593074299965E9, 0.0, 2022-09-19 18:11:14.299
115.0, -26693.012022139075, -19792.894398319055, -68959.6243452578, -20751.06897962916, -21933.923296204008, 187500.0, -58473.795172428516, -19650.782007072212, 0.64, -0.5660000000000001, 0.546, 192.0, 20.0, 0.0, 238.0, 80.0, 17.0, 16.0, 0.0, 0.0, 0.0, 1.663593074304046E9, 0.0, 2022-09-19 18:11:14.304
116.0, -26451.61318202176, -19803.377366468594, -69003.43376439021, -20793.02320397177, -21833.720425810865, 187500.0, -58580.949435347255, -19676.173588773443, 0.64, -0.5660000000000001, 0.546, 192.0, 0.0, 0.0, 0.0, 0.0, 0.0, 0.0, 0.0, 0.0, 0.0, 1.6635930743090155E9, 0.0, 2022-09-19 18:11:14.309
117.0, -26730.250028401617, -19864.643498020592, -68889.55162639041, -20756.925136676447, -21937.276057872303, 187500.0, -58642.193215154795, -19674.497207939294, 0.64, -0.5660000000000001, 0.546, 192.0, 0.0, 0.0, 0.0, 0.0, 0.0, 0.0, 0.0, 0.0, 0.0, 1.6635930743119948E9, 0.0, 2022-09-19 18:11:14.311
118.0, -26973.034676675165, -19870.477303323427, -68838.58964903232, -20713.00395882177, -22028.51587873887, 187500.0, -58544.85136805193, -19652.45838790636, 0.64, -0.5660000000000001, 0.546, 192.0, 0.0, 0.0, 0.0, 0.0, 0.0, 0.0, 0.0, 0.0, 0.0, 1.6635930743149564E9, 0.0, 2022-09-19 18:11:14.314
119.0, -26955.689722977844, -19841.889422165088, -68868.56333834688, -20709.76295587575, -22017.6976344225, 187500.0, -58487.31797782397, -19640.231983689308, 0.64, -0.5660000000000001, 0.546, 192.0, 0.0, 0.0, 0.0, 0.0, 0.0, 0.0, 0.0, 0.0, 0.0, 1.6635930743201473E9, 0.0, 2022-09-19 18:11:14.320
120.0, -26671.33083001743, -19809.725261893902, -68963.44649355966, -20753.840595941616, -21901.49091499936, 187500.0, -58473.59400672842, -19653.531271640215, 0.64, -0.5660000000000001, 0.546, 192.0, 0.0, 0.0, 0.0, 0.0, 0.0, 0.0, 0.0, 0.0, 0.0, 1.6635930743240876E9, 0.0, 2022-09-19 18:11:14.324
121.0, -26422.46650725204, -19812.11689855062, -69004.73016556862, -20791.056250459704, -21796.750640481787, 187500.0, -58578.20017077925, -19671.680888137926, 0.64, -0.5660000000000001, 0.546, 192.0, 0.0, 0.0, 0.0, 0.0, 0.0, 0.0, 0.0, 0.0, 0.0, 1.663593074328068E9, 0.0, 2022-09-19 18:11:14.328
122.0, -26696.744763463113, -19870.231434134417, -68892.12207700277, -20754.622906997552, -21897.95933937542, 187500.0, -58648.27288964664, -19665.869434579545, 0.64, -0.5660000000000001, 0.546, 192.0, 0.0, 0.0, 0.0, 0.0, 0.0, 0.0, 0.0, 0.0, 0.0, 1.6635930743320415E9, 0.0, 2022-09-19 18:11:14.332
123.0, -26944.7597199392, -19874.724134769935, -68839.55077404389, -20714.1886012779, -21993.78126785532, 187500.0, -58549.9699175322, -19646.132844225507, 0.64, -0.5660000000000001, 0.546, 192.0, 0.0, 0.0, 0.0, 0.0, 0.0, 0.0, 0.0, 0.0, 0.0, 1.6635930743370843E9, 0.0, 2022-09-19 18:11:14.337
124.0, -26932.555667466604, -19847.723227467923, -68872.69841107112, -20717.250790268277, -21988.729773608422, 187500.0, -58496.504544795105, -19638.84617553308, 0.64, -0.5660000000000001, 0.546, 192.0, 0.0, 0.0, 0.0, 0.0, 0.0, 0.0, 0.0, 0.0, 0.0, 1.6635930743400793E9, 0.0, 2022-09-19 18:11:14.340
125.0, -26646.69920762768, -19813.748575895857, -68962.7312377371, -20759.786159966727, -21873.841807108143, 187500.0, -58478.84666667541, -19646.89280353699, 0.64, -0.5660000000000001, 0.546, 192.0, 0.0, 0.0, 0.0, 0.0, 0.0, 0.0, 0.0, 0.0, 0.0, 1.66359307434509E9, 0.0, 2022-09-19 18:11:14.345
126.0, -26394.32566098281, -19826.645532446568, -69005.04308999098, -20795.146619695024, -21770.21911981334, 187500.0, -58581.35176674745, -19663.03076303372, 0.644, -0.5700000000000001, 0.548, 192.0, 20.0, 32.0, 238.0, 48.0, 17.0, 32.0, 0.0, 0.0, 0.0, 1.6635930743490589E9, 0.0, 2022-09-19 18:11:14.349
127.0, -26666.167577048254, -19882.010803462363, -68896.79359159393, -20759.49558728881, -21873.305365241216, 187500.0, -58654.06199146056, -19662.047286277688, 0.644, -0.5700000000000001, 0.548, 192.0, 0.0, 0.0, 0.0, 0.0, 0.0, 0.0, 0.0, 0.0, 0.0, 1.6635930743530965E9, 0.0, 2022-09-19 18:11:14.353
128.0, -26904.548931664103, -19878.83685574971, -68848.17854740364, -20716.66964491244, -21964.075799474216, 187500.0, -58559.290594970065, -19641.863661034546, 0.644, -0.5700000000000001, 0.548, 192.0, 0.0, 0.0, 0.0, 0.0, 0.0, 0.0, 0.0, 0.0, 0.0, 1.6635930743570907E9, 0.0, 2022-09-19 18:11:14.357
129.0, -26887.494550644704, -19857.7368089839, -68884.8577600548, -20715.350891989576, -21953.391665624582, 187500.0, -58504.10413790991, -19628.8325940171, 0.644, -0.5700000000000001, 0.548, 192.0, 0.0, 0.0, 0.0, 0.0, 0.0, 0.0, 0.0, 0.0, 0.0, 1.6635930743611429E9, 0.0, 2022-09-19 18:11:14.361
130.0, -26603.35917512884, -19806.7748316258, -68976.6787262772, -20751.650124984997, -21836.6038008456, 187500.0, -58477.32674805245, -19636.007503987254, 0.644, -0.5700000000000001, 0.548, 192.0, 0.0, 0.0, 0.0, 0.0, 0.0, 0.0, 0.0, 0.0, 0.0, 1.663593074366122E9, 0.0, 2022-09-19 18:11:14.366
131.0, -26349.44335811655, -19809.25587526034, -69018.00710177507, -20786.54119807973, -21729.8295175826, 187500.0, -58568.63362415238, -19653.017181517742, 0.644, -0.5700000000000001, 0.548, 192.0, 0.0, 0.0, 0.0, 0.0, 0.0, 0.0, 0.0, 0.0, 0.0, 1.663593074369233E9, 0.0, 2022-09-19 18:11:14.369
132.0, -26623.989835261087, -19880.848512750686, -68917.96069359311, -20758.02037215476, -21832.960466499386, 187500.0, -58643.08728493301, -19655.02883851872, 0.644, -0.5700000000000001, 0.548, 192.0, 0.0, 0.0, 0.0, 0.0, 0.0, 0.0, 0.0, 0.0, 0.0, 1.6635930743731167E9, 0.0, 2022-09-19 18:11:14.373
133.0, -26875.379905149926, -19882.703707540477, -68866.66344006818, -20717.608418179563, -21930.078796157693, 187500.0, -58550.752228588135, -19636.99098074329, 0.644, -0.5700000000000001, 0.548, 192.0, 0.0, 0.0, 0.0, 0.0, 0.0, 0.0, 0.0, 0.0, 0.0, 1.6635930743760755E9, 0.0, 2022-09-19 18:11:14.376
134.0, -26860.44893985378, -19847.052675134262, -68897.68766137215, -20712.601627421576, -21916.71245297342, 187500.0, -58491.49775403712, -19623.423471858918, 0.644, -0.5700000000000001, 0.548, 192.0, 0.0, 0.0, 0.0, 0.0, 0.0, 0.0, 0.0, 0.0, 0.0, 1.663593074380072E9, 0.0, 2022-09-19 18:11:14.380
135.0, -26575.441846304162, -19793.96728205291, -68985.39590661478, -20743.2458690698, -21795.677756747933, 187500.0, -58464.2509775461, -19626.709178293848, 0.644, -0.5700000000000001, 0.548, 192.0, 0.0, 0.0, 0.0, 0.0, 0.0, 0.0, 0.0, 0.0, 0.0, 1.6635930743842528E9, 0.0, 2022-09-19 18:11:14.384
136.0, -26327.02455842788, -19801.991558312366, -69035.50851768357, -20785.1553899235, -21692.25623515323, 187500.0, -58559.11178101442, -19650.066751249644, 0.64, -0.5660000000000001, 0.548, 192.0, 20.0, 0.0, 238.0, 80.0, 17.0, 32.0, 0.0, 0.0, 0.0, 1.663593074388138E9, 0.0, 2022-09-19 18:11:14.388
137.0, -26603.672099551215, -19862.74359974189, -68930.90235363273, -20757.528633776743, -21795.007204414273, 187500.0, -58634.97360169573, -19652.771312328736, 0.64, -0.5660000000000001, 0.548, 192.0, 0.0, 0.0, 0.0, 0.0, 0.0, 0.0, 0.0, 0.0, 0.0, 1.6635930743921444E9, 0.0, 2022-09-19 18:11:14.392
138.0, -26854.570431062035, -19864.30822185376, -68873.7042395716, -20716.15555478997, -21889.979766604873, 187500.0, -58535.62009759189, -19634.26406791974, 0.64, -0.5660000000000001, 0.548, 192.0, 0.0, 0.0, 0.0, 0.0, 0.0, 0.0, 0.0, 0.0, 0.0, 1.6635930743961048E9, 0.0, 2022-09-19 18:11:14.396
139.0, -26842.008750678153, -19836.59205872918, -68902.56034166341, -20710.254694253767, -21881.08377231166, 187500.0, -58476.99147188562, -19624.809280015146, 0.64, -0.5660000000000001, 0.548, 192.0, 0.0, 0.0, 0.0, 0.0, 0.0, 0.0, 0.0, 0.0, 0.0, 1.6635930743991475E9, 0.0, 2022-09-19 18:11:14.399
140.0, -26559.39329378525, -19798.258816988327, -68990.64856656177, -20746.084540615626, -21762.150140064972, 187500.0, -58458.57363445445, -19632.565335341136, 0.64, -0.5660000000000001, 0.548, 192.0, 0.0, 0.0, 0.0, 0.0, 0.0, 0.0, 0.0, 0.0, 0.0, 1.6635930744041543E9, 0.0, 2022-09-19 18:11:14.404
141.0, -26307.15385760711, -19802.215075756918, -69036.64845665079, -20788.93283473645, -21657.409865547404, 187500.0, -58563.000984549646, -19654.917079796443, 0.64, -0.5660000000000001, 0.548, 192.0, 0.0, 0.0, 0.0, 0.0, 0.0, 0.0, 0.0, 0.0, 0.0, 1.663593074408092E9, 0.0, 2022-09-19 18:11:14.408
142.0, -26576.335916082375, -19862.184806130506, -68924.0180163405, -20754.667610486464, -21757.903308618465, 187500.0, -58635.53239530711, -19653.21834721784, 0.64, -0.5660000000000001, 0.548, 192.0, 0.0, 0.0, 0.0, 0.0, 0.0, 0.0, 0.0, 0.0, 0.0, 1.6635930744121933E9, 0.0, 2022-09-19 18:11:14.412
