%OpenBCI Raw EEG Data
%Number of channels = 8
%Sample Rate = 250 Hz
%Board = OpenBCI_GUI$BoardCytonSerial
Sample Index, EXG Channel 0, EXG Channel 1, EXG Channel 2, EXG Channel 3, EXG Channel 4, EXG Channel 5, EXG Channel 6, EXG Channel 7, Accel Channel 0, Accel Channel 1, Accel Channel 2, Other, Other, Other, Other, Other, Other, Other, Analog Channel 0, Analog Channel 1, Analog Channel 2, Timestamp, Other, Timestamp (Formatted)
187.0, -18606.508506120266, -20400.37010912539, -30054.692036472803, -17611.72176739237, 187500.0, 187500.0, -27649.912554015227, -32456.006998539808, 0.0, 0.0, 0.0, 192.0, 0.0, 0.0, 0.0, 0.0, 0.0, 0.0, 0.0, 0.0, 0.0, 1.6635876539530265E9, 0.0, 2022-09-19 16:40:53.953
188.0, -18624.05462551768, -20398.649024802333, -30060.928173175835, -17608.838392357637, 187500.0, 187500.0, -27681.070885785924, -32458.66685612999, 0.726, -0.548, 0.488, 192.0, 22.0, 176.0, 238.0, 224.0, 15.0, 64.0, 0.0, 0.0, 0.0, 1.663587653953065E9, 0.0, 2022-09-19 16:40:53.953
189.0, -18630.26841047626, -20393.485771833155, -30054.334408561517, -17600.23297074234, 187500.0, 187500.0, -27741.01826441506, -32447.5580391357, 0.726, -0.548, 0.488, 192.0, 0.0, 0.0, 0.0, 0.0, 0.0, 0.0, 0.0, 0.0, 0.0, 1.663587653953078E9, 0.0, 2022-09-19 16:40:53.953
190.0, -18632.88356457753, -20401.13006843687, -30055.004960895178, -17601.14939226501, 187500.0, 187500.0, -27760.888965235827, -32444.294684445227, 0.726, -0.548, 0.488, 192.0, 0.0, 0.0, 0.0, 0.0, 0.0, 0.0, 0.0, 0.0, 0.0, 1.6635876539530892E9, 0.0, 2022-09-19 16:40:53.953
0.0, 0.0, 0.0, 0.0, 0.0, 0.0, 0.0, 0.0, 0.0, 0.726, -0.548, 0.488, 192.0, 0.0, 0.0, 0.0, 0.0, 0.0, 0.0, 0.0, 0.0, 0.0, 1.663587654033944E9, 0.0, 2022-09-19 16:40:54.033
1.0, -18609.21306719936, -19848.72905596841, -30689.5933377258, -17170.610090566886, 187500.0, 187500.0, -24102.824819424728, -31894.88880573378, 0.736, -0.54, 0.486, 192.0, 23.0, 0.0, 239.0, 32.0, 15.0, 48.0, 0.0, 0.0, 0.0, 1.6635876540510025E9, 0.0, 2022-09-19 16:40:54.051
2.0, -18591.309319890657, -19852.282983336805, -30686.911128391162, -17164.91039573078, 187500.0, 187500.0, -24071.04063880928, -31889.233814386585, 0.736, -0.54, 0.486, 192.0, 0.0, 0.0, 0.0, 0.0, 0.0, 0.0, 0.0, 0.0, 0.0, 1.6635876540542212E9, 0.0, 2022-09-19 16:40:54.054
3.0, -18600.227665928327, -19874.97000395894, -30691.8955674047, -17167.905529487794, 187500.0, 187500.0, -24045.783167574784, -31889.479683575595, 0.736, -0.54, 0.486, 192.0, 0.0, 0.0, 0.0, 0.0, 0.0, 0.0, 0.0, 0.0, 0.0, 1.663587654058022E9, 0.0, 2022-09-19 16:40:54.058
4.0, -18613.571657368142, -19875.41703884805, -30690.710924948566, -17164.284546886032, 187500.0, 187500.0, -24082.417676737034, -31881.96949743861, 0.736, -0.54, 0.486, 192.0, 0.0, 0.0, 0.0, 0.0, 0.0, 0.0, 0.0, 0.0, 0.0, 1.66358765406205E9, 0.0, 2022-09-19 16:40:54.062
5.0, -18615.426852157932, -19851.567727514237, -30679.043314342896, -17153.913337458773, 187500.0, 187500.0, -24127.3446830922, -31874.861642701824, 0.736, -0.54, 0.486, 192.0, 0.0, 0.0, 0.0, 0.0, 0.0, 0.0, 0.0, 0.0, 0.0, 1.6635876540650716E9, 0.0, 2022-09-19 16:40:54.065
6.0, -18605.97206425334, -19851.679486236513, -30672.650715428677, -17149.979430434636, 187500.0, 187500.0, -24139.01229369787, -31871.620639755805, 0.736, -0.54, 0.486, 192.0, 0.0, 0.0, 0.0, 0.0, 0.0, 0.0, 0.0, 0.0, 0.0, 1.6635876540690558E9, 0.0, 2022-09-19 16:40:54.069
7.0, -18590.81758151264, -19857.06625665024, -30678.05983758686, -17156.372029348855, 187500.0, 187500.0, -24116.124107375636, -31876.806244469437, 0.736, -0.54, 0.486, 192.0, 0.0, 0.0, 0.0, 0.0, 0.0, 0.0, 0.0, 0.0, 0.0, 1.6635876540749924E9, 0.0, 2022-09-19 16:40:54.074
8.0, -18589.454125100867, -19875.774666759335, -30682.999573111487, -17161.244709640112, 187500.0, 187500.0, -24084.56344420474, -31879.711971248624, 0.744, -0.536, 0.486, 192.0, 23.0, 64.0, 239.0, 64.0, 15.0, 48.0, 0.0, 0.0, 0.0, 1.6635876540791628E9, 0.0, 2022-09-19 16:40:54.079
9.0, -18618.31022719267, -19911.98449277693, -30682.93251787812, -17159.255404383588, 187500.0, 187500.0, -24120.750918477886, -31873.96757292361, 0.744, -0.536, 0.486, 192.0, 0.0, 0.0, 0.0, 0.0, 0.0, 0.0, 0.0, 0.0, 0.0, 1.6635876540820818E9, 0.0, 2022-09-19 16:40:54.082
10.0, -18628.077939519637, -19882.055506951274, -30681.41259925516, -17156.126160159845, 187500.0, 187500.0, -24171.869358047174, -31871.128901377786, 0.744, -0.536, 0.486, 192.0, 0.0, 0.0, 0.0, 0.0, 0.0, 0.0, 0.0, 0.0, 0.0, 1.663587654086097E9, 0.0, 2022-09-19 16:40:54.086
11.0, -18629.128471509037, -19849.444311790983, -30680.607936454766, -17154.718000259163, 187500.0, 187500.0, -24184.87807332016, -31876.113340391323, 0.744, -0.536, 0.486, 192.0, 0.0, 0.0, 0.0, 0.0, 0.0, 0.0, 0.0, 0.0, 0.0, 1.663587654091107E9, 0.0, 2022-09-19 16:40:54.091
12.0, -18604.7427183083, -19832.345227282673, -30677.992782353496, -17157.199043893703, 187500.0, 187500.0, -24162.88395677614, -31883.444712572662, 0.744, -0.536, 0.486, 192.0, 0.0, 0.0, 0.0, 0.0, 0.0, 0.0, 0.0, 0.0, 0.0, 1.6635876540951E9, 0.0, 2022-09-19 16:40:54.095
13.0, -18602.619302585044, -19846.516233267335, -30679.98208761002, -17160.417695095264, 187500.0, 187500.0, -24132.23971512791, -31883.936450950678, 0.744, -0.536, 0.486, 192.0, 0.0, 0.0, 0.0, 0.0, 0.0, 0.0, 0.0, 0.0, 0.0, 1.6635876540980966E9, 0.0, 2022-09-19 16:40:54.098
14.0, -18601.92639850693, -19853.40057055957, -30674.014171840452, -17150.426465323744, 187500.0, 187500.0, -24161.274631175358, -31878.50497704804, 0.744, -0.536, 0.486, 192.0, 0.0, 0.0, 0.0, 0.0, 0.0, 0.0, 0.0, 0.0, 0.0, 1.6635876541010444E9, 0.0, 2022-09-19 16:40:54.101
15.0, -18606.39674739799, -19843.051712876764, -30669.610878182757, -17144.905584443284, 187500.0, 187500.0, -24212.437774233553, -31871.352418822342, 0.744, -0.536, 0.486, 192.0, 0.0, 0.0, 0.0, 0.0, 0.0, 0.0, 0.0, 0.0, 0.0, 1.663587654105153E9, 0.0, 2022-09-19 16:40:54.105
16.0, -18609.280122432723, -19860.0390386628, -30670.661410172157, -17144.05621815398, 187500.0, 187500.0, -24225.22297206199, -31870.950087422145, 0.744, -0.536, 0.486, 192.0, 0.0, 0.0, 0.0, 0.0, 0.0, 0.0, 0.0, 0.0, 0.0, 1.6635876541101277E9, 0.0, 2022-09-19 16:40:54.110
17.0, -18597.120773449038, -19856.30629733876, -30673.902413118176, -17142.357485575376, 187500.0, 187500.0, -24197.484457192953, -31874.392256068262, 0.744, -0.536, 0.486, 192.0, 0.0, 0.0, 0.0, 0.0, 0.0, 0.0, 0.0, 0.0, 0.0, 1.6635876541141355E9, 0.0, 2022-09-19 16:40:54.114
18.0, -18595.042061214695, -19861.156625885564, -30673.053046828874, -17141.30695358598, 187500.0, 187500.0, -24155.93256425054, -31875.956878180135, 0.748, -0.534, 0.488, 192.0, 23.0, 96.0, 239.0, 80.0, 15.0, 64.0, 0.0, 0.0, 0.0, 1.6635876541180708E9, 0.0, 2022-09-19 16:40:54.118
19.0, -18623.294666206202, -19879.79798076129, -30677.45634048657, -17147.073703655446, 187500.0, 187500.0, -24187.202654743513, -31878.817901470415, 0.748, -0.534, 0.488, 192.0, 0.0, 0.0, 0.0, 0.0, 0.0, 0.0, 0.0, 0.0, 0.0, 1.6635876541211393E9, 0.0, 2022-09-19 16:40:54.121
20.0, -18615.672721346942, -19849.846643191177, -30670.236727027506, -17142.133968130824, 187500.0, 187500.0, -24238.768129201908, -31874.526366534996, 0.748, -0.534, 0.488, 192.0, 0.0, 0.0, 0.0, 0.0, 0.0, 0.0, 0.0, 0.0, 0.0, 1.6635876541251287E9, 0.0, 2022-09-19 16:40:54.125
21.0, -18593.142162935994, -19814.486183462883, -30664.961715336052, -17139.272944840544, 187500.0, 187500.0, -24246.926515928095, -31872.559413022926, 0.748, -0.534, 0.488, 192.0, 0.0, 0.0, 0.0, 0.0, 0.0, 0.0, 0.0, 0.0, 0.0, 1.6635876541291187E9, 0.0, 2022-09-19 16:40:54.129
22.0, -18601.658177573467, -19838.82723317471, -30671.421369483636, -17145.553785032487, 187500.0, 187500.0, -24221.55728597132, -31875.196918868653, 0.748, -0.534, 0.488, 192.0, 0.0, 0.0, 0.0, 0.0, 0.0, 0.0, 0.0, 0.0, 0.0, 1.6635876541331828E9, 0.0, 2022-09-19 16:40:54.133
23.0, -18611.58235211162, -19863.32474509773, -30681.300840532884, -17155.567366548465, 187500.0, 187500.0, -24186.375640198665, -31880.226061371097, 0.748, -0.534, 0.488, 192.0, 0.0, 0.0, 0.0, 0.0, 0.0, 0.0, 0.0, 0.0, 0.0, 1.6635876541382616E9, 0.0, 2022-09-19 16:40:54.138
24.0, -18609.146011965993, -19854.74167522689, -30670.88492761671, -17147.96777343366, 187500.0, 187500.0, -24206.961596842004, -31874.571070023903, 0.748, -0.534, 0.488, 192.0, 0.0, 0.0, 0.0, 0.0, 0.0, 0.0, 0.0, 0.0, 0.0, 1.663587654142135E9, 0.0, 2022-09-19 16:40:54.142
25.0, -18603.53572410771, -19841.017704131333, -30658.412654210646, -17140.524642530043, 187500.0, 187500.0, -24254.459053809533, -31873.408779312227, 0.748, -0.534, 0.488, 192.0, 0.0, 0.0, 0.0, 0.0, 0.0, 0.0, 0.0, 0.0, 0.0, 1.6635876541462207E9, 0.0, 2022-09-19 16:40:54.146
26.0, -18585.5872733101, -19840.324800053215, -30659.083206544306, -17139.608221007376, 187500.0, 187500.0, -24264.98672544798, -31869.474872288094, 0.748, -0.534, 0.488, 192.0, 0.0, 0.0, 0.0, 0.0, 0.0, 0.0, 0.0, 0.0, 0.0, 1.6635876541502037E9, 0.0, 2022-09-19 16:40:54.150
27.0, -18571.86330221454, -19869.27030912284, -30665.632267669713, -17145.82200596595, 187500.0, 187500.0, -24239.952771658038, -31880.226061371097, 0.748, -0.534, 0.488, 192.0, 0.0, 0.0, 0.0, 0.0, 0.0, 0.0, 0.0, 0.0, 0.0, 1.663587654154245E9, 0.0, 2022-09-19 16:40:54.154
28.0, -18578.702936017864, -19881.452009850982, -30673.678895673624, -17153.086322913925, 187500.0, 187500.0, -24198.356175226712, -31889.725552764605, 0.746, -0.53, 0.484, 192.0, 23.0, 80.0, 239.0, 112.0, 15.0, 32.0, 0.0, 0.0, 0.0, 1.6635876541571972E9, 0.0, 2022-09-19 16:40:54.157
29.0, -18600.58529383961, -19854.20523335996, -30678.46216898706, -17153.82393048095, 187500.0, 187500.0, -24222.65252144963, -31889.658497531236, 0.746, -0.53, 0.484, 192.0, 0.0, 0.0, 0.0, 0.0, 0.0, 0.0, 0.0, 0.0, 0.0, 1.6635876541611981E9, 0.0, 2022-09-19 16:40:54.161
30.0, -18616.410328913968, -19845.30923906675, -30681.34554402179, -17152.3487153469, 187500.0, 187500.0, -24272.18398716259, -31890.239642887074, 0.746, -0.53, 0.484, 192.0, 0.0, 0.0, 0.0, 0.0, 0.0, 0.0, 0.0, 0.0, 0.0, 1.6635876541653907E9, 0.0, 2022-09-19 16:40:54.165
31.0, -18592.49396234679, -19810.619331672115, -30675.84701488579, -17148.213642622668, 187500.0, 187500.0, -24277.61546106523, -31892.78774175498, 0.746, -0.53, 0.484, 192.0, 0.0, 0.0, 0.0, 0.0, 0.0, 0.0, 0.0, 0.0, 0.0, 1.6635876541702244E9, 0.0, 2022-09-19 16:40:54.170
32.0, -18585.81079075465, -19832.904020894053, -30682.753703922477, -17155.232090381633, 187500.0, 187500.0, -24250.793367718863, -31897.16868366822, 0.746, -0.53, 0.484, 192.0, 0.0, 0.0, 0.0, 0.0, 0.0, 0.0, 0.0, 0.0, 0.0, 1.6635876541732624E9, 0.0, 2022-09-19 16:40:54.173
33.0, -18578.993508695785, -19849.48901527989, -30689.950965637086, -17161.87055848486, 187500.0, 187500.0, -24206.26869276389, -31904.030669216, 0.746, -0.53, 0.484, 192.0, 0.0, 0.0, 0.0, 0.0, 0.0, 0.0, 0.0, 0.0, 0.0, 1.663587654177282E9, 0.0, 2022-09-19 16:40:54.177
34.0, -18591.309319890657, -19836.59205872918, -30679.06566608735, -17152.21460488017, 187500.0, 187500.0, -24224.395957517143, -31897.995698213068, 0.746, -0.53, 0.484, 192.0, 0.0, 0.0, 0.0, 0.0, 0.0, 0.0, 0.0, 0.0, 0.0, 1.6635876541813571E9, 0.0, 2022-09-19 16:40:54.181
35.0, -18597.5901600826, -19847.097378623173, -30668.44858747108, -17145.062046654468, 187500.0, 187500.0, -24268.585356305284, -31890.329049864897, 0.746, -0.53, 0.484, 192.0, 0.0, 0.0, 0.0, 0.0, 0.0, 0.0, 0.0, 0.0, 0.0, 1.663587654185298E9, 0.0, 2022-09-19 16:40:54.185
36.0, -18601.702881062374, -19874.858245236665, -30673.768302651442, -17150.06883741246, 187500.0, 187500.0, -24281.258795411446, -31893.167721410722, 0.746, -0.53, 0.484, 192.0, 0.0, 0.0, 0.0, 0.0, 0.0, 0.0, 0.0, 0.0, 0.0, 1.6635876541892002E9, 0.0, 2022-09-19 16:40:54.189
37.0, -18603.826296785628, -19875.931128970522, -30687.35816328027, -17160.909433473284, 187500.0, 187500.0, -24258.772940489405, -31899.31445113593, 0.746, -0.53, 0.484, 192.0, 0.0, 0.0, 0.0, 0.0, 0.0, 0.0, 0.0, 0.0, 0.0, 1.6635876541943583E9, 0.0, 2022-09-19 16:40:54.194
38.0, -18595.06441295915, -19861.89423345259, -30695.516550006458, -17164.642174797318, 187500.0, 187500.0, -24211.901332366626, -31901.84019825938, 0.742, -0.528, 0.488, 192.0, 23.0, 48.0, 239.0, 128.0, 15.0, 64.0, 0.0, 0.0, 0.0, 1.663587654198272E9, 0.0, 2022-09-19 16:40:54.198
39.0, -18609.43658464391, -19885.49767559739, -30685.860596401766, -17156.50613981559, 187500.0, 187500.0, -24228.598085474743, -31892.07248593241, 0.742, -0.528, 0.488, 192.0, 0.0, 0.0, 0.0, 0.0, 0.0, 0.0, 0.0, 0.0, 0.0, 1.6635876542012417E9, 0.0, 2022-09-19 16:40:54.201
40.0, -18607.804907298676, -19866.61045153266, -30678.68568643161, -17149.644154267808, 187500.0, 187500.0, -24274.75443777495, -31885.366962595817, 0.742, -0.528, 0.488, 192.0, 0.0, 0.0, 0.0, 0.0, 0.0, 0.0, 0.0, 0.0, 0.0, 1.6635876542052963E9, 0.0, 2022-09-19 16:40:54.205
41.0, -18568.689354501887, -19800.985729811877, -30679.535052720912, -17145.82200596595, 187500.0, 187500.0, -24284.61155707974, -31881.209538127132, 0.742, -0.528, 0.488, 192.0, 0.0, 0.0, 0.0, 0.0, 0.0, 0.0, 0.0, 0.0, 0.0, 1.663587654209296E9, 0.0, 2022-09-19 16:40:54.209
42.0, -18551.09853161556, -19831.78643367129, -30683.156035322674, -17146.53726178852, 187500.0, 187500.0, -24263.109178913735, -31880.181357882186, 0.742, -0.528, 0.488, 192.0, 0.0, 0.0, 0.0, 0.0, 0.0, 0.0, 0.0, 0.0, 0.0, 1.6635876542132912E9, 0.0, 2022-09-19 16:40:54.213
43.0, -18566.230662611804, -19891.28677741132, -30701.707983220578, -17165.938575975728, 187500.0, 187500.0, -24230.185059331066, -31896.83340750139, 0.742, -0.528, 0.488, 192.0, 0.0, 0.0, 0.0, 0.0, 0.0, 0.0, 0.0, 0.0, 0.0, 1.6635876542172968E9, 0.0, 2022-09-19 16:40:54.217
44.0, -18582.189808152893, -19901.12154497165, -30698.6457942302, -17160.708267773185, 187500.0, 187500.0, -24248.4240828066, -31890.485512076084, 0.742, -0.528, 0.488, 192.0, 0.0, 0.0, 0.0, 0.0, 0.0, 0.0, 0.0, 0.0, 0.0, 1.663587654221352E9, 0.0, 2022-09-19 16:40:54.221
45.0, -18591.734003035308, -19865.828140476722, -30693.75076219449, -17149.577099034443, 187500.0, 187500.0, -24301.129496232214, -31880.583689282383, 0.742, -0.528, 0.488, 192.0, 0.0, 0.0, 0.0, 0.0, 0.0, 0.0, 0.0, 0.0, 0.0, 1.6635876542263243E9, 0.0, 2022-09-19 16:40:54.226
46.0, -18575.90896796095, -19803.31031123523, -30687.11229409126, -17148.526567045043, 187500.0, 187500.0, -24315.76988885044, -31881.813035227424, 0.742, -0.528, 0.488, 192.0, 0.0, 0.0, 0.0, 0.0, 0.0, 0.0, 0.0, 0.0, 0.0, 1.6635876542303045E9, 0.0, 2022-09-19 16:40:54.230
47.0, -18560.598023009064, -19805.97016882541, -30687.805198169375, -17151.58875603542, 187500.0, 187500.0, -24299.60957760925, -31881.16483463822, 0.742, -0.528, 0.488, 192.0, 0.0, 0.0, 0.0, 0.0, 0.0, 0.0, 0.0, 0.0, 0.0, 1.663587654233354E9, 0.0, 2022-09-19 16:40:54.233
48.0, -18542.87308965601, -19798.705851877436, -30691.47088426005, -17155.522663059553, 187500.0, 187500.0, -24261.36574284622, -31887.87035797481, 0.744, -0.53, 0.48, 192.0, 23.0, 64.0, 239.0, 112.0, 15.0, 0.0, 0.0, 0.0, 0.0, 1.663587654237363E9, 0.0, 2022-09-19 16:40:54.237
49.0, -18544.884746656986, -19810.574628183203, -30691.426180771137, -17155.63442178183, 187500.0, 187500.0, -24279.202434921557, -31886.417494585217, 0.744, -0.53, 0.48, 192.0, 0.0, 0.0, 0.0, 0.0, 0.0, 0.0, 0.0, 0.0, 0.0, 1.6635876542423508E9, 0.0, 2022-09-19 16:40:54.242
50.0, -18548.61748798102, -19811.938084594978, -30683.78188416742, -17152.482825813633, 187500.0, 187500.0, -24334.880630359727, -31879.93548869318, 0.744, -0.53, 0.48, 192.0, 0.0, 0.0, 0.0, 0.0, 0.0, 0.0, 0.0, 0.0, 0.0, 1.6635876542473967E9, 0.0, 2022-09-19 16:40:54.247
51.0, -18546.15879609094, -19824.0303783453, -30681.34554402179, -17151.92403220225, 187500.0, 187500.0, -24354.840738158317, -31879.86843345981, 0.744, -0.53, 0.48, 192.0, 0.0, 0.0, 0.0, 0.0, 0.0, 0.0, 0.0, 0.0, 0.0, 1.6635876542505572E9, 0.0, 2022-09-19 16:40:54.250
52.0, -18548.952764147853, -19851.41126530305, -30686.754666179975, -17154.58388979243, 187500.0, 187500.0, -24338.501612961485, -31882.461235816627, 0.744, -0.53, 0.48, 192.0, 0.0, 0.0, 0.0, 0.0, 0.0, 0.0, 0.0, 0.0, 0.0, 1.6635876542554164E9, 0.0, 2022-09-19 16:40:54.255
53.0, -18568.15291263496, -19875.439390592503, -30695.807122684375, -17161.87055848486, 187500.0, 187500.0, -24302.202379966067, -31885.791645740468, 0.744, -0.53, 0.48, 192.0, 0.0, 0.0, 0.0, 0.0, 0.0, 0.0, 0.0, 0.0, 0.0, 1.6635876542584076E9, 0.0, 2022-09-19 16:40:54.258
54.0, -18563.77197072172, -19845.152776855564, -30690.129779592728, -17156.327325859944, 187500.0, 187500.0, -24317.33451096231, -31881.388352082773, 0.744, -0.53, 0.48, 192.0, 0.0, 0.0, 0.0, 0.0, 0.0, 0.0, 0.0, 0.0, 0.0, 1.6635876542624E9, 0.0, 2022-09-19 16:40:54.262
55.0, -18542.49311000027, -19820.11882306562, -30677.41163699766, -17145.44202631021, 187500.0, 187500.0, -24371.381029055243, -31871.754750222535, 0.744, -0.53, 0.48, 192.0, 0.0, 0.0, 0.0, 0.0, 0.0, 0.0, 0.0, 0.0, 0.0, 1.6635876542654405E9, 0.0, 2022-09-19 16:40:54.265
56.0, -18555.099493873062, -19837.01674187383, -30682.59724171129, -17150.515872301563, 187500.0, 187500.0, -24393.509256065998, -31875.956878180135, 0.744, -0.53, 0.48, 192.0, 0.0, 0.0, 0.0, 0.0, 0.0, 0.0, 0.0, 0.0, 0.0, 1.6635876542693996E9, 0.0, 2022-09-19 16:40:54.269
57.0, -18565.269537600227, -19905.189562462518, -30697.46115177407, -17165.648003297807, 187500.0, 187500.0, -24389.932976953147, -31886.573956796405, 0.744, -0.53, 0.48, 192.0, 0.0, 0.0, 0.0, 0.0, 0.0, 0.0, 0.0, 0.0, 0.0, 1.663587654273374E9, 0.0, 2022-09-19 16:40:54.273
58.0, -18560.061581142138, -19932.413987209082, -30706.871236189752, -17178.030869726048, 187500.0, 187500.0, -24357.411188770675, -31898.330974379896, 0.742, -0.53, 0.47600000000000003, 192.0, 23.0, 48.0, 239.0, 112.0, 14.0, 224.0, 0.0, 0.0, 0.0, 1.663587654277475E9, 0.0, 2022-09-19 16:40:54.277
59.0, -18558.25108984126, -19900.853324038188, -30703.965509410562, -17166.072686442458, 187500.0, 187500.0, -24366.240127830522, -31890.887843476277, 0.742, -0.53, 0.47600000000000003, 192.0, 0.0, 0.0, 0.0, 0.0, 0.0, 0.0, 0.0, 0.0, 0.0, 1.663587654282426E9, 0.0, 2022-09-19 16:40:54.282
60.0, -18559.838063697585, -19829.506555736847, -30695.158922095172, -17151.96873569116, 187500.0, 187500.0, -24417.671491822184, -31880.31546834892, 0.742, -0.53, 0.47600000000000003, 192.0, 0.0, 0.0, 0.0, 0.0, 0.0, 0.0, 0.0, 0.0, 0.0, 1.6635876542854536E9, 0.0, 2022-09-19 16:40:54.285
61.0, -18551.94789790486, -19795.129572764585, -30684.49713998999, -17146.4478548107, 187500.0, 187500.0, -24435.776404830984, -31876.806244469437, 0.742, -0.53, 0.47600000000000003, 192.0, 0.0, 0.0, 0.0, 0.0, 0.0, 0.0, 0.0, 0.0, 0.0, 1.6635876542884583E9, 0.0, 2022-09-19 16:40:54.288
62.0, -18533.19478430686, -19796.135401265074, -30682.507834733467, -17148.30304960049, 187500.0, 187500.0, -24422.387709902254, -31878.773197981503, 0.742, -0.53, 0.47600000000000003, 192.0, 0.0, 0.0, 0.0, 0.0, 0.0, 0.0, 0.0, 0.0, 0.0, 1.663587654293471E9, 0.0, 2022-09-19 16:40:54.293
63.0, -18522.220077779304, -19802.01391005682, -30685.83824465731, -17150.024133923547, 187500.0, 187500.0, -24385.06029666189, -31881.053075915945, 0.742, -0.53, 0.47600000000000003, 192.0, 0.0, 0.0, 0.0, 0.0, 0.0, 0.0, 0.0, 0.0, 0.0, 1.6635876542974403E9, 0.0, 2022-09-19 16:40:54.297
64.0, -18532.412473250923, -19827.40549175805, -30674.617668940744, -17141.30695358598, 187500.0, 187500.0, -24394.73860201104, -31866.323276319898, 0.742, -0.53, 0.47600000000000003, 192.0, 0.0, 0.0, 0.0, 0.0, 0.0, 0.0, 0.0, 0.0, 0.0, 1.6635876543014235E9, 0.0, 2022-09-19 16:40:54.301
65.0, -18552.014953138227, -19865.69403000999, -30672.56130845086, -17138.088302384414, 187500.0, 187500.0, -24451.2214602496, -31863.43990128516, 0.742, -0.53, 0.47600000000000003, 192.0, 0.0, 0.0, 0.0, 0.0, 0.0, 0.0, 0.0, 0.0, 0.0, 1.66358765430552E9, 0.0, 2022-09-19 16:40:54.305
66.0, -18532.658342439932, -19836.145023840076, -30674.93059336312, -17142.402189064287, 187500.0, 187500.0, -24476.769504162017, -31865.809186197424, 0.742, -0.53, 0.47600000000000003, 192.0, 0.0, 0.0, 0.0, 0.0, 0.0, 0.0, 0.0, 0.0, 0.0, 1.6635876543095007E9, 0.0, 2022-09-19 16:40:54.309
67.0, -18522.354188246034, -19823.44923298946, -30679.222128298537, -17144.16797687626, 187500.0, 187500.0, -24465.973611590103, -31866.72560772009, 0.742, -0.53, 0.47600000000000003, 192.0, 0.0, 0.0, 0.0, 0.0, 0.0, 0.0, 0.0, 0.0, 0.0, 1.6635876543124564E9, 0.0, 2022-09-19 16:40:54.312
68.0, -18535.608772708034, -19854.07112289323, -30688.58750922531, -17149.53239554553, 187500.0, 187500.0, -24426.902762282225, -31870.391293810764, 0.742, -0.53, 0.47600000000000003, 192.0, 0.0, 0.0, 0.0, 0.0, 0.0, 0.0, 0.0, 0.0, 0.0, 1.663587654318508E9, 0.0, 2022-09-19 16:40:54.318
69.0, -18546.672886213408, -19855.523986282824, -30685.905299890674, -17148.504215300585, 187500.0, 187500.0, -24438.100986254336, -31865.585668752872, 0.744, -0.528, 0.47400000000000003, 192.0, 23.0, 64.0, 239.0, 128.0, 14.0, 208.0, 0.0, 0.0, 0.0, 1.6635876543214457E9, 0.0, 2022-09-19 16:40:54.321
70.0, -18548.86335717003, -19874.478265580925, -30686.17352082414, -17151.92403220225, 187500.0, 187500.0, -24495.768486949026, -31867.15029086474, 0.744, -0.528, 0.47400000000000003, 192.0, 0.0, 0.0, 0.0, 0.0, 0.0, 0.0, 0.0, 0.0, 0.0, 1.6635876543255036E9, 0.0, 2022-09-19 16:40:54.325
71.0, -18543.655400711945, -19871.661945779557, -30688.699267947588, -17154.986221192627, 187500.0, 187500.0, -24526.591542552895, -31873.274668845497, 0.744, -0.528, 0.47400000000000003, 192.0, 0.0, 0.0, 0.0, 0.0, 0.0, 0.0, 0.0, 0.0, 0.0, 1.663587654329497E9, 0.0, 2022-09-19 16:40:54.329
72.0, -18513.391138719457, -19788.69227036146, -30687.648735958188, -17145.464378054665, 187500.0, 187500.0, -24509.51480978904, -31872.26884034501, 0.744, -0.528, 0.47400000000000003, 192.0, 0.0, 0.0, 0.0, 0.0, 0.0, 0.0, 0.0, 0.0, 0.0, 1.6635876543336306E9, 0.0, 2022-09-19 16:40:54.333
73.0, -18490.122972741483, -19802.170372268007, -30690.442704015102, -17148.124235644846, 187500.0, 187500.0, -24470.086332569877, -31878.46027355913, 0.744, -0.528, 0.47400000000000003, 192.0, 0.0, 0.0, 0.0, 0.0, 0.0, 0.0, 0.0, 0.0, 0.0, 1.6635876543366275E9, 0.0, 2022-09-19 16:40:54.336
74.0, -18491.061746008607, -19819.180049798495, -30686.844073157798, -17146.00081992159, 187500.0, 187500.0, -24476.657745439737, -31873.274668845497, 0.744, -0.528, 0.47400000000000003, 192.0, 0.0, 0.0, 0.0, 0.0, 0.0, 0.0, 0.0, 0.0, 0.0, 1.6635876543405316E9, 0.0, 2022-09-19 16:40:54.340
75.0, -18510.910095084917, -19825.460889990438, -30683.290145789404, -17139.25059309609, 187500.0, 187500.0, -24535.28637114601, -31870.123072877297, 0.744, -0.528, 0.47400000000000003, 192.0, 0.0, 0.0, 0.0, 0.0, 0.0, 0.0, 0.0, 0.0, 0.0, 1.663587654344636E9, 0.0, 2022-09-19 16:40:54.344
76.0, -18518.37557773299, -19829.886535392587, -30685.614727212756, -17138.222412851144, 187500.0, 187500.0, -24562.71196159267, -31868.692561232157, 0.744, -0.528, 0.47400000000000003, 192.0, 0.0, 0.0, 0.0, 0.0, 0.0, 0.0, 0.0, 0.0, 0.0, 1.6635876543486416E9, 0.0, 2022-09-19 16:40:54.348
77.0, -18495.107411755016, -19829.283038292295, -30690.82268367084, -17138.40122680679, 187500.0, 187500.0, -24549.72559806414, -31870.88303218878, 0.744, -0.528, 0.47400000000000003, 192.0, 0.0, 0.0, 0.0, 0.0, 0.0, 0.0, 0.0, 0.0, 0.0, 1.6635876543536384E9, 0.0, 2022-09-19 16:40:54.353
78.0, -18486.680804095366, -19831.40645401555, -30689.705096448077, -17137.507157028576, 187500.0, 187500.0, -24507.525504532518, -31871.01714265551, 0.744, -0.528, 0.47400000000000003, 192.0, 0.0, 0.0, 0.0, 0.0, 0.0, 0.0, 0.0, 0.0, 0.0, 1.6635876543576007E9, 0.0, 2022-09-19 16:40:54.357
79.0, -18495.733260599765, -19836.279134306806, -30681.83728239981, -17139.116482629357, 187500.0, 187500.0, -24517.1367546483, -31869.608982754828, 0.74, -0.528, 0.47600000000000003, 192.0, 23.0, 32.0, 239.0, 128.0, 14.0, 224.0, 0.0, 0.0, 0.0, 1.6635876543616097E9, 0.0, 2022-09-19 16:40:54.361
80.0, -18498.259007723216, -19838.111977352142, -30669.20854678256, -17130.242840080602, 187500.0, 187500.0, -24574.491330920617, -31861.11531986181, 0.74, -0.528, 0.47600000000000003, 192.0, 0.0, 0.0, 0.0, 0.0, 0.0, 0.0, 0.0, 0.0, 0.0, 1.663587654364692E9, 0.0, 2022-09-19 16:40:54.364
81.0, -18500.18125774637, -19844.39281754408, -30671.10844506126, -17134.087340126913, 187500.0, 187500.0, -24600.419354488775, -31864.73630246357, 0.74, -0.528, 0.47600000000000003, 192.0, 0.0, 0.0, 0.0, 0.0, 0.0, 0.0, 0.0, 0.0, 0.0, 1.6635876543687048E9, 0.0, 2022-09-19 16:40:54.368
82.0, -18504.539847915155, -19886.101172697687, -30677.63515444221, -17144.927936187738, 187500.0, 187500.0, -24595.233749775143, -31873.252317101043, 0.74, -0.528, 0.47600000000000003, 192.0, 0.0, 0.0, 0.0, 0.0, 0.0, 0.0, 0.0, 0.0, 0.0, 1.663587654372636E9, 0.0, 2022-09-19 16:40:54.372
83.0, -18508.719624128298, -19929.999998807907, -30681.434950999614, -17158.026058438547, 187500.0, 187500.0, -24559.135682479824, -31887.199805641154, 0.74, -0.528, 0.47600000000000003, 192.0, 0.0, 0.0, 0.0, 0.0, 0.0, 0.0, 0.0, 0.0, 0.0, 1.6635876543766391E9, 0.0, 2022-09-19 16:40:54.376
84.0, -18493.051051265127, -19845.152776855564, -30667.84509037079, -17147.118407144357, 187500.0, 187500.0, -24556.34171442291, -31877.00741016953, 0.74, -0.528, 0.47600000000000003, 192.0, 0.0, 0.0, 0.0, 0.0, 0.0, 0.0, 0.0, 0.0, 0.0, 1.6635876543816E9, 0.0, 2022-09-19 16:40:54.381
85.0, -18512.541772430155, -19822.331645766695, -30668.180366537617, -17143.72094198715, 187500.0, 187500.0, -24612.757517428105, -31870.88303218878, 0.74, -0.528, 0.47600000000000003, 192.0, 0.0, 0.0, 0.0, 0.0, 0.0, 0.0, 0.0, 0.0, 0.0, 1.6635876543855572E9, 0.0, 2022-09-19 16:40:54.385
86.0, -18506.372690960492, -19824.00802660084, -30671.488424717, -17140.412883807767, 187500.0, 187500.0, -24637.456195051218, -31869.720741477104, 0.74, -0.528, 0.47600000000000003, 192.0, 0.0, 0.0, 0.0, 0.0, 0.0, 0.0, 0.0, 0.0, 0.0, 1.6635876543897395E9, 0.0, 2022-09-19 16:40:54.389
87.0, -18482.881007537962, -19831.853488904657, -30675.243517785493, -17142.938630931214, 187500.0, 187500.0, -24621.809973932504, -31869.899555432745, 0.74, -0.528, 0.47600000000000003, 192.0, 0.0, 0.0, 0.0, 0.0, 0.0, 0.0, 0.0, 0.0, 0.0, 1.6635876543926325E9, 0.0, 2022-09-19 16:40:54.392
88.0, -18459.79165551563, -19811.803974128245, -30676.003477096976, -17147.45368331119, 187500.0, 187500.0, -24580.34748796791, -31876.247450858053, 0.74, -0.528, 0.47600000000000003, 192.0, 0.0, 0.0, 0.0, 0.0, 0.0, 0.0, 0.0, 0.0, 0.0, 1.6635876543966236E9, 0.0, 2022-09-19 16:40:54.396
89.0, -18451.074475178062, -19803.01973855731, -30670.4378927276, -17146.02317166605, 187500.0, 187500.0, -24585.466037448175, -31875.97922992459, 0.74, -0.54, 0.47800000000000004, 192.0, 23.0, 32.0, 239.0, 32.0, 14.0, 240.0, 0.0, 0.0, 0.0, 1.663587654400651E9, 0.0, 2022-09-19 16:40:54.400
90.0, -18445.307725108592, -19804.472601946905, -30655.238706497996, -17127.784148190516, 187500.0, 187500.0, -24636.1150903839, -31853.493375002552, 0.74, -0.54, 0.47800000000000004, 192.0, 0.0, 0.0, 0.0, 0.0, 0.0, 0.0, 0.0, 0.0, 0.0, 1.6635876544046438E9, 0.0, 2022-09-19 16:40:54.404
91.0, -18443.452530318802, -19829.126576081107, -30659.6867036446, -17128.789976691005, 187500.0, 187500.0, -24662.043113952055, -31855.169755836698, 0.74, -0.54, 0.47800000000000004, 192.0, 0.0, 0.0, 0.0, 0.0, 0.0, 0.0, 0.0, 0.0, 0.0, 1.663587654409594E9, 0.0, 2022-09-19 16:40:54.409
92.0, -18442.17848088485, -19820.29763702126, -30674.751779407477, -17135.204927349678, 187500.0, 187500.0, -24649.25791612362, -31865.608020497326, 0.74, -0.54, 0.47800000000000004, 192.0, 0.0, 0.0, 0.0, 0.0, 0.0, 0.0, 0.0, 0.0, 0.0, 1.663587654414684E9, 0.0, 2022-09-19 16:40:54.414
93.0, -18454.02490544616, -19830.311218537237, -30683.580718467325, -17146.78313097753, 187500.0, 187500.0, -24617.004348874612, -31877.856776458833, 0.74, -0.54, 0.47800000000000004, 192.0, 0.0, 0.0, 0.0, 0.0, 0.0, 0.0, 0.0, 0.0, 0.0, 1.6635876544176018E9, 0.0, 2022-09-19 16:40:54.417
94.0, -18475.124952211972, -19843.141119854587, -30683.6924771896, -17146.62666876634, 187500.0, 187500.0, -24616.40085177432, -31875.755712480037, 0.74, -0.54, 0.47800000000000004, 192.0, 0.0, 0.0, 0.0, 0.0, 0.0, 0.0, 0.0, 0.0, 0.0, 1.66358765442166E9, 0.0, 2022-09-19 16:40:54.421
95.0, -18478.74593481373, -19837.329666296206, -30672.002514839474, -17136.277811083535, 187500.0, 187500.0, -24667.049904710046, -31867.35145656484, 0.74, -0.54, 0.47800000000000004, 192.0, 0.0, 0.0, 0.0, 0.0, 0.0, 0.0, 0.0, 0.0, 0.0, 1.6635876544246404E9, 0.0, 2022-09-19 16:40:54.424
96.0, -18469.402905631414, -19839.564840741736, -30660.64782865618, -17131.62864823683, 187500.0, 187500.0, -24690.94391953277, -31864.021046641, 0.74, -0.54, 0.47800000000000004, 192.0, 0.0, 0.0, 0.0, 0.0, 0.0, 0.0, 0.0, 0.0, 0.0, 1.6635876544286425E9, 0.0, 2022-09-19 16:40:54.428
97.0, -18475.147303956426, -19855.70280023847, -30668.180366537617, -17137.90948842877, 187500.0, 187500.0, -24680.058619983032, -31870.480700788583, 0.74, -0.54, 0.47800000000000004, 192.0, 0.0, 0.0, 0.0, 0.0, 0.0, 0.0, 0.0, 0.0, 0.0, 1.6635876544326763E9, 0.0, 2022-09-19 16:40:54.432
98.0, -18471.772190543674, -19871.952518457478, -30679.93738412111, -17150.471168812655, 187500.0, 187500.0, -24642.82061372049, -31881.54481429396, 0.74, -0.54, 0.47800000000000004, 192.0, 0.0, 0.0, 0.0, 0.0, 0.0, 0.0, 0.0, 0.0, 0.0, 1.6635876544376976E9, 0.0, 2022-09-19 16:40:54.437
99.0, -18478.164789457893, -19861.134274141106, -30688.699267947588, -17151.856976968884, 187500.0, 187500.0, -24638.97611367418, -31884.69641026216, 0.742, -0.54, 0.482, 192.0, 23.0, 48.0, 239.0, 32.0, 15.0, 16.0, 0.0, 0.0, 0.0, 1.663587654441831E9, 0.0, 2022-09-19 16:40:54.441
100.0, -18459.21051015979, -19843.36463729914, -30679.6915149321, -17139.87644194084, 187500.0, 187500.0, -24689.334593931984, -31875.286325846475, 0.742, -0.54, 0.482, 192.0, 0.0, 0.0, 0.0, 0.0, 0.0, 0.0, 0.0, 0.0, 0.0, 1.6635876544457407E9, 0.0, 2022-09-19 16:40:54.445
101.0, -18436.277620348646, -19791.218017484905, -30677.27752653093, -17129.840508680405, 187500.0, 187500.0, -24717.497791945672, -31875.21927061311, 0.742, -0.54, 0.482, 192.0, 0.0, 0.0, 0.0, 0.0, 0.0, 0.0, 0.0, 0.0, 0.0, 1.663587654448734E9, 0.0, 2022-09-19 16:40:54.448
102.0, -18432.12019587996, -19788.62521512809, -30680.585584710312, -17133.01445639306, 187500.0, 187500.0, -24709.60762615295, -31880.40487532674, 0.742, -0.54, 0.482, 192.0, 0.0, 0.0, 0.0, 0.0, 0.0, 0.0, 0.0, 0.0, 0.0, 1.6635876544527624E9, 0.0, 2022-09-19 16:40:54.452
103.0, -18436.79171047112, -19831.182936570996, -30693.996631383496, -17144.324439087446, 187500.0, 187500.0, -24670.849701267445, -31888.138578908278, 0.742, -0.54, 0.482, 192.0, 0.0, 0.0, 0.0, 0.0, 0.0, 0.0, 0.0, 0.0, 0.0, 1.663587654456744E9, 0.0, 2022-09-19 16:40:54.456
104.0, -18466.050143963115, -19862.25186136387, -30706.960643167575, -17155.120331659356, 187500.0, 187500.0, -24668.279250655087, -31896.11815167882, 0.742, -0.54, 0.482, 192.0, 0.0, 0.0, 0.0, 0.0, 0.0, 0.0, 0.0, 0.0, 0.0, 1.6635876544607284E9, 0.0, 2022-09-19 16:40:54.460
105.0, -18484.915016283398, -19839.430730275006, -30699.718677964054, -17144.324439087446, 187500.0, 187500.0, -24716.64842565637, -31885.232852129087, 0.742, -0.54, 0.482, 192.0, 0.0, 0.0, 0.0, 0.0, 0.0, 0.0, 0.0, 0.0, 0.0, 1.6635876544647577E9, 0.0, 2022-09-19 16:40:54.464
106.0, -18472.733315555255, -19836.525003495815, -30693.191968583105, -17142.73746523112, 187500.0, 187500.0, -24743.89520214739, -31875.688657246672, 0.742, -0.54, 0.482, 192.0, 0.0, 0.0, 0.0, 0.0, 0.0, 0.0, 0.0, 0.0, 0.0, 1.6635876544698217E9, 0.0, 2022-09-19 16:40:54.469
107.0, -18474.074420222572, -19826.153794068552, -30692.163788338163, -17145.73259898813, 187500.0, 187500.0, -24730.84178338549, -31880.8742619603, 0.742, -0.54, 0.482, 192.0, 0.0, 0.0, 0.0, 0.0, 0.0, 0.0, 0.0, 0.0, 0.0, 1.6635876544727397E9, 0.0, 2022-09-19 16:40:54.472
108.0, -18469.26879516468, -19833.775738927812, -30696.92470990714, -17151.991087435614, 187500.0, 187500.0, -24687.45704739774, -31888.31739286392, 0.742, -0.54, 0.482, 192.0, 0.0, 0.0, 0.0, 0.0, 0.0, 0.0, 0.0, 0.0, 0.0, 1.6635876544777365E9, 0.0, 2022-09-19 16:40:54.477
109.0, -18478.880045280464, -19847.32089606773, -30699.763381452965, -17155.321497359455, 187500.0, 187500.0, -24676.30352691454, -31889.144407408767, 0.746, -0.538, 0.482, 192.0, 23.0, 80.0, 239.0, 48.0, 15.0, 16.0, 0.0, 0.0, 0.0, 1.663587654480882E9, 0.0, 2022-09-19 16:40:54.480
110.0, -18468.777056786665, -19830.06534934823, -30689.146302836696, -17141.977505919636, 187500.0, 187500.0, -24721.1858297808, -31877.677962503192, 0.746, -0.538, 0.482, 192.0, 0.0, 0.0, 0.0, 0.0, 0.0, 0.0, 0.0, 0.0, 0.0, 1.6635876544867835E9, 0.0, 2022-09-19 16:40:54.486
111.0, -18463.74791428422, -19800.00225305584, -30685.391209768204, -17135.897831427792, 187500.0, 187500.0, -24748.27614406063, -31874.16873862371, 0.746, -0.538, 0.482, 192.0, 0.0, 0.0, 0.0, 0.0, 0.0, 0.0, 0.0, 0.0, 0.0, 1.663587654489704E9, 0.0, 2022-09-19 16:40:54.489
112.0, -18468.7100015533, -19809.948779338454, -30687.805198169375, -17138.33417157342, 187500.0, 187500.0, -24735.46859448774, -31879.331991592884, 0.746, -0.538, 0.482, 192.0, 0.0, 0.0, 0.0, 0.0, 0.0, 0.0, 0.0, 0.0, 0.0, 1.6635876544948153E9, 0.0, 2022-09-19 16:40:54.494
113.0, -18455.097789180018, -19817.369558497616, -30688.431047014124, -17140.368180318856, 187500.0, 187500.0, -24691.860341055435, -31882.79651198346, 0.746, -0.538, 0.482, 192.0, 0.0, 0.0, 0.0, 0.0, 0.0, 0.0, 0.0, 0.0, 0.0, 1.663587654498794E9, 0.0, 2022-09-19 16:40:54.498
114.0, -18464.619632317976, -19820.990541099374, -30690.621517970743, -17142.648058253297, 187500.0, 187500.0, -24673.86718676891, -31887.289212618976, 0.746, -0.538, 0.482, 192.0, 0.0, 0.0, 0.0, 0.0, 0.0, 0.0, 0.0, 0.0, 0.0, 1.6635876545018137E9, 0.0, 2022-09-19 16:40:54.501
115.0, -18472.532149855157, -19829.7300731814, -30683.334849278315, -17138.62474425134, 187500.0, 187500.0, -24715.508486689152, -31882.774160239, 0.746, -0.538, 0.482, 192.0, 0.0, 0.0, 0.0, 0.0, 0.0, 0.0, 0.0, 0.0, 0.0, 1.6635876545058005E9, 0.0, 2022-09-19 16:40:54.505
116.0, -18469.782885287153, -19837.061445362742, -30674.617668940744, -17135.696665727697, 187500.0, 187500.0, -24739.13428057841, -31880.11430264882, 0.746, -0.538, 0.482, 192.0, 0.0, 0.0, 0.0, 0.0, 0.0, 0.0, 0.0, 0.0, 0.0, 1.6635876545088592E9, 0.0, 2022-09-19 16:40:54.508
117.0, -18455.50012058021, -19796.940064065464, -30674.55061370738, -17136.881308183827, 187500.0, 187500.0, -24719.822373369025, -31884.07056141741, 0.746, -0.538, 0.482, 192.0, 0.0, 0.0, 0.0, 0.0, 0.0, 0.0, 0.0, 0.0, 0.0, 1.6635876545128207E9, 0.0, 2022-09-19 16:40:54.512
118.0, -18459.881062493452, -19823.315122522727, -30694.73423895052, -17152.59458453591, 187500.0, 187500.0, -24671.117922200912, -31897.526311579506, 0.746, -0.538, 0.482, 192.0, 0.0, 0.0, 0.0, 0.0, 0.0, 0.0, 0.0, 0.0, 0.0, 1.6635876545168247E9, 0.0, 2022-09-19 16:40:54.516
119.0, -18468.061800964093, -19836.256782562352, -30699.808084941877, -17151.16407289077, 187500.0, 187500.0, -24647.559183545018, -31895.469951089617, 0.746, -0.528, 0.484, 192.0, 23.0, 80.0, 239.0, 128.0, 15.0, 32.0, 0.0, 0.0, 0.0, 1.6635876545208063E9, 0.0, 2022-09-19 16:40:54.520
120.0, -18471.19104518784, -19845.197480344472, -30692.566119738356, -17141.642229752808, 187500.0, 187500.0, -24685.244224696664, -31888.8761864753, 0.746, -0.528, 0.484, 192.0, 0.0, 0.0, 0.0, 0.0, 0.0, 0.0, 0.0, 0.0, 0.0, 1.6635876545258605E9, 0.0, 2022-09-19 16:40:54.525
121.0, -18466.36306838549, -19850.74071296939, -30687.872253402744, -17138.356523317878, 187500.0, 187500.0, -24705.226684239708, -31887.758599252535, 0.746, -0.528, 0.484, 192.0, 0.0, 0.0, 0.0, 0.0, 0.0, 0.0, 0.0, 0.0, 0.0, 1.663587654528849E9, 0.0, 2022-09-19 16:40:54.528
122.0, -18460.66337354939, -19833.172241827517, -30687.291108046906, -17138.356523317878, 187500.0, 187500.0, -24688.284061942588, -31883.467064317116, 0.746, -0.528, 0.484, 192.0, 0.0, 0.0, 0.0, 0.0, 0.0, 0.0, 0.0, 0.0, 0.0, 1.6635876545328467E9, 0.0, 2022-09-19 16:40:54.532
123.0, -18458.8081787596, -19833.06048310524, -30699.048125630397, -17140.81521520796, 187500.0, 187500.0, -24635.77981421707, -31889.9267184647, 0.746, -0.528, 0.484, 192.0, 0.0, 0.0, 0.0, 0.0, 0.0, 0.0, 0.0, 0.0, 0.0, 1.663587654536917E9, 0.0, 2022-09-19 16:40:54.536
124.0, -18469.916995753883, -19842.135291354098, -30703.473771032546, -17142.133968130824, 187500.0, 187500.0, -24611.304654038508, -31892.161892910233, 0.746, -0.528, 0.484, 192.0, 0.0, 0.0, 0.0, 0.0, 0.0, 0.0, 0.0, 0.0, 0.0, 1.6635876545408828E9, 0.0, 2022-09-19 16:40:54.540
125.0, -18479.818818547585, -19840.838890175688, -30697.259986073972, -17133.752063960084, 187500.0, 187500.0, -24648.609715534418, -31885.277555618, 0.746, -0.528, 0.484, 192.0, 0.0, 0.0, 0.0, 0.0, 0.0, 0.0, 0.0, 0.0, 0.0, 1.6635876545448687E9, 0.0, 2022-09-19 16:40:54.544
126.0, -18484.46798139429, -19837.955515140955, -30696.231805829026, -17132.321552314945, 187500.0, 187500.0, -24673.44250362426, -31884.897575962255, 0.746, -0.528, 0.484, 192.0, 0.0, 0.0, 0.0, 0.0, 0.0, 0.0, 0.0, 0.0, 0.0, 1.6635876545489182E9, 0.0, 2022-09-19 16:40:54.548
127.0, -18470.855769021007, -19839.788358186288, -30700.433933786626, -17130.86868892535, 187500.0, 187500.0, -24656.65634353833, -31886.417494585217, 0.746, -0.528, 0.484, 192.0, 0.0, 0.0, 0.0, 0.0, 0.0, 0.0, 0.0, 0.0, 0.0, 1.663587654553929E9, 0.0, 2022-09-19 16:40:54.553
128.0, -18477.002498746217, -19847.812634445745, -30703.876102432743, -17137.52950877303, 187500.0, 187500.0, -24607.616616203384, -31894.531177822493, 0.746, -0.528, 0.484, 192.0, 0.0, 0.0, 0.0, 0.0, 0.0, 0.0, 0.0, 0.0, 0.0, 1.663587654557904E9, 0.0, 2022-09-19 16:40:54.557
129.0, -18490.637062863956, -19870.07497192323, -30702.065611131864, -17142.96098267567, 187500.0, 187500.0, -24580.079267034445, -31895.805227256446, 0.75, -0.532, 0.48, 192.0, 23.0, 112.0, 239.0, 96.0, 15.0, 0.0, 0.0, 0.0, 0.0, 1.663587654560874E9, 0.0, 2022-09-19 16:40:54.560
130.0, -18480.444667392334, -19828.456023747447, -30699.584567497324, -17135.003761649583, 187500.0, 187500.0, -24617.943122141736, -31890.26199463153, 0.75, -0.532, 0.48, 192.0, 0.0, 0.0, 0.0, 0.0, 0.0, 0.0, 0.0, 0.0, 0.0, 1.6635876545649147E9, 0.0, 2022-09-19 16:40:54.564
131.0, -18460.618670060478, -19799.44345944446, -30697.97524189654, -17124.520793500044, 187500.0, 187500.0, -24637.813822962504, -31882.17066313871, 0.75, -0.532, 0.48, 192.0, 0.0, 0.0, 0.0, 0.0, 0.0, 0.0, 0.0, 0.0, 0.0, 1.6635876545689805E9, 0.0, 2022-09-19 16:40:54.568
132.0, -18443.430178574345, -19789.139305250563, -30690.688573204112, -17117.927028885726, 187500.0, 187500.0, -24622.815802432993, -31873.274668845497, 0.75, -0.532, 0.48, 192.0, 0.0, 0.0, 0.0, 0.0, 0.0, 0.0, 0.0, 0.0, 0.0, 1.6635876545729282E9, 0.0, 2022-09-19 16:40:54.572
133.0, -18454.851919991008, -19818.084814320187, -30694.17544533914, -17126.375988289834, 187500.0, 187500.0, -24578.15701701129, -31882.014200927522, 0.75, -0.532, 0.48, 192.0, 0.0, 0.0, 0.0, 0.0, 0.0, 0.0, 0.0, 0.0, 0.0, 1.6635876545769477E9, 0.0, 2022-09-19 16:40:54.576
134.0, -18470.49814110972, -19831.49586099337, -30698.60109074129, -17134.221450593646, 187500.0, 187500.0, -24549.747949808592, -31893.435942344186, 0.75, -0.532, 0.48, 192.0, 0.0, 0.0, 0.0, 0.0, 0.0, 0.0, 0.0, 0.0, 0.0, 1.6635876545819767E9, 0.0, 2022-09-19 16:40:54.581
135.0, -18478.27654818017, -19821.661093433035, -30686.48644524651, -17124.72195920014, 187500.0, 187500.0, -24584.415505458775, -31879.041418914967, 0.75, -0.532, 0.48, 192.0, 0.0, 0.0, 0.0, 0.0, 0.0, 0.0, 0.0, 0.0, 0.0, 1.6635876545849404E9, 0.0, 2022-09-19 16:40:54.584
136.0, -18474.02971673366, -19810.708738649933, -30684.161863823163, -17123.33615104391, 187500.0, 187500.0, -24609.516514482086, -31876.20274736914, 0.75, -0.532, 0.48, 192.0, 0.0, 0.0, 0.0, 0.0, 0.0, 0.0, 0.0, 0.0, 0.0, 1.6635876545879505E9, 0.0, 2022-09-19 16:40:54.587
137.0, -18469.402905631414, -19831.898192393564, -30695.225977328537, -17128.67821796873, 187500.0, 187500.0, -24597.06659282048, -31882.058904416434, 0.75, -0.532, 0.48, 192.0, 0.0, 0.0, 0.0, 0.0, 0.0, 0.0, 0.0, 0.0, 0.0, 1.663587654592883E9, 0.0, 2022-09-19 16:40:54.592
138.0, -18473.314460911093, -19873.517140569347, -30707.854712945787, -17140.546994274497, 187500.0, 187500.0, -24550.99964749809, -31893.190073155176, 0.75, -0.532, 0.48, 192.0, 0.0, 0.0, 0.0, 0.0, 0.0, 0.0, 0.0, 0.0, 0.0, 1.6635876545970268E9, 0.0, 2022-09-19 16:40:54.597
139.0, -18493.587493132054, -19910.50927764288, -30718.80706772889, -17144.749122232097, 187500.0, 187500.0, -24519.95307444967, -31896.296965634465, 0.744, -0.532, 0.47600000000000003, 192.0, 23.0, 64.0, 239.0, 96.0, 14.0, 224.0, 0.0, 0.0, 0.0, 1.663587654600921E9, 0.0, 2022-09-19 16:40:54.600
140.0, -18502.79641184764, -19884.916530241553, -30717.644777017213, -17140.412883807767, 187500.0, 187500.0, -24556.81110105647, -31892.854796988348, 0.744, -0.532, 0.47600000000000003, 192.0, 0.0, 0.0, 0.0, 0.0, 0.0, 0.0, 0.0, 0.0, 0.0, 1.6635876546049736E9, 0.0, 2022-09-19 16:40:54.604
141.0, -18483.439801149347, -19826.086738835187, -30702.445590787604, -17127.96296214616, 187500.0, 187500.0, -24583.163807769277, -31885.970459696113, 0.744, -0.532, 0.47600000000000003, 192.0, 0.0, 0.0, 0.0, 0.0, 0.0, 0.0, 0.0, 0.0, 0.0, 1.6635876546089985E9, 0.0, 2022-09-19 16:40:54.608
142.0, -18465.312536396093, -19808.317101993216, -30699.6963262196, -17126.554802245475, 187500.0, 187500.0, -24569.95392679619, -31889.144407408767, 0.744, -0.532, 0.47600000000000003, 192.0, 0.0, 0.0, 0.0, 0.0, 0.0, 0.0, 0.0, 0.0, 0.0, 1.663587654611967E9, 0.0, 2022-09-19 16:40:54.611
143.0, -18452.616745545478, -19795.598959398147, -30701.707983220578, -17130.309895313967, 187500.0, 187500.0, -24519.215466882644, -31892.40776209924, 0.744, -0.532, 0.47600000000000003, 192.0, 0.0, 0.0, 0.0, 0.0, 0.0, 0.0, 0.0, 0.0, 0.0, 1.6635876546159935E9, 0.0, 2022-09-19 16:40:54.615
144.0, -18466.005440474208, -19819.560029454235, -30710.849846702797, -17138.512985529065, 187500.0, 187500.0, -24488.95120489016, -31899.582672069395, 0.744, -0.532, 0.47600000000000003, 192.0, 0.0, 0.0, 0.0, 0.0, 0.0, 0.0, 0.0, 0.0, 0.0, 1.6635876546210005E9, 0.0, 2022-09-19 16:40:54.621
145.0, -18484.244463949737, -19845.01866638883, -30708.771134468454, -17139.58586926292, 187500.0, 187500.0, -24523.350539606876, -31894.754695267045, 0.744, -0.532, 0.47600000000000003, 192.0, 0.0, 0.0, 0.0, 0.0, 0.0, 0.0, 0.0, 0.0, 0.0, 1.6635876546249611E9, 0.0, 2022-09-19 16:40:54.624
146.0, -18481.60695810401, -19829.864183648133, -30695.293032561905, -17132.321552314945, 187500.0, 187500.0, -24541.746025293593, -31884.472892817605, 0.744, -0.532, 0.47600000000000003, 192.0, 0.0, 0.0, 0.0, 0.0, 0.0, 0.0, 0.0, 0.0, 0.0, 1.663587654628989E9, 0.0, 2022-09-19 16:40:54.628
147.0, -18468.88881550894, -19810.082889805188, -30698.064648874362, -17133.573250004443, 187500.0, 187500.0, -24522.411766339752, -31886.01516318502, 0.744, -0.532, 0.47600000000000003, 192.0, 0.0, 0.0, 0.0, 0.0, 0.0, 0.0, 0.0, 0.0, 0.0, 1.6635876546329868E9, 0.0, 2022-09-19 16:40:54.632
148.0, -18457.087094436538, -19806.037224058775, -30705.03839314442, -17138.02124715105, 187500.0, 187500.0, -24476.99302160657, -31896.56518656793, 0.744, -0.532, 0.47600000000000003, 192.0, 0.0, 0.0, 0.0, 0.0, 0.0, 0.0, 0.0, 0.0, 0.0, 1.6635876546370416E9, 0.0, 2022-09-19 16:40:54.637
149.0, -18464.239652662236, -19838.603715730158, -30710.78279146943, -17140.949325674694, 187500.0, 187500.0, -24440.693788611152, -31893.860625488836, 0.736, -0.534, 0.484, 192.0, 23.0, 0.0, 239.0, 80.0, 15.0, 32.0, 0.0, 0.0, 0.0, 1.6635876546409824E9, 0.0, 2022-09-19 16:40:54.640
150.0, -18483.797429060633, -19860.508425296357, -30708.03352690143, -17134.601430249386, 187500.0, 187500.0, -24467.31471625742, -31878.817901470415, 0.736, -0.534, 0.484, 192.0, 0.0, 0.0, 0.0, 0.0, 0.0, 0.0, 0.0, 0.0, 0.0, 1.6635876546470523E9, 0.0, 2022-09-19 16:40:54.647
151.0, -18488.60305411852, -19872.399553346582, -30704.41254429967, -17132.612124992862, 187500.0, 187500.0, -24493.198036336667, -31875.621602013303, 0.736, -0.534, 0.484, 192.0, 0.0, 0.0, 0.0, 0.0, 0.0, 0.0, 0.0, 0.0, 0.0, 1.6635876546501245E9, 0.0, 2022-09-19 16:40:54.650
152.0, -18488.84892330753, -19875.774666759335, -30706.781829211934, -17134.48967152711, 187500.0, 187500.0, -24479.563472218928, -31873.945221179158, 0.736, -0.534, 0.484, 192.0, 0.0, 0.0, 0.0, 0.0, 0.0, 0.0, 0.0, 0.0, 0.0, 1.6635876546530547E9, 0.0, 2022-09-19 16:40:54.653
153.0, -18461.915071238884, -19853.758198470856, -30712.07919264784, -17141.172843119246, 187500.0, 187500.0, -24428.64619834974, -31883.77998873949, 0.736, -0.534, 0.484, 192.0, 0.0, 0.0, 0.0, 0.0, 0.0, 0.0, 0.0, 0.0, 0.0, 1.6635876546570508E9, 0.0, 2022-09-19 16:40:54.657
154.0, -18470.27462366517, -19824.83504114569, -30723.45623057559, -17145.330267587935, 187500.0, 187500.0, -24391.050564175912, -31887.98211669709, 0.736, -0.534, 0.484, 192.0, 0.0, 0.0, 0.0, 0.0, 0.0, 0.0, 0.0, 0.0, 0.0, 1.6635876546600473E9, 0.0, 2022-09-19 16:40:54.660
155.0, -18482.90335928242, -19844.41516928854, -30716.214265372073, -17136.121348872348, 187500.0, 187500.0, -24416.240980177045, -31880.337820093373, 0.736, -0.534, 0.484, 192.0, 0.0, 0.0, 0.0, 0.0, 0.0, 0.0, 0.0, 0.0, 0.0, 1.663587654665238E9, 0.0, 2022-09-19 16:40:54.665
156.0, -18467.726524797265, -19834.580401728203, -30712.16859962566, -17129.751101702583, 187500.0, 187500.0, -24442.817204334406, -31878.147349136754, 0.736, -0.534, 0.484, 192.0, 0.0, 0.0, 0.0, 0.0, 0.0, 0.0, 0.0, 0.0, 0.0, 1.663587654669077E9, 0.0, 2022-09-19 16:40:54.669
157.0, -18450.627440288954, -19815.715529407924, -30714.47082930456, -17135.763720961062, 187500.0, 187500.0, -24430.836669306358, -31885.277555618, 0.736, -0.534, 0.484, 192.0, 0.0, 0.0, 0.0, 0.0, 0.0, 0.0, 0.0, 0.0, 0.0, 1.6635876546731358E9, 0.0, 2022-09-19 16:40:54.673
158.0, -18448.92870771035, -19819.582381198692, -30714.202608371095, -17137.90948842877, 187500.0, 187500.0, -24385.44027631763, -31886.59630854086, 0.736, -0.534, 0.484, 192.0, 0.0, 0.0, 0.0, 0.0, 0.0, 0.0, 0.0, 0.0, 0.0, 1.663587654676108E9, 0.0, 2022-09-19 16:40:54.676
159.0, -18450.158053655392, -19810.418165972016, -30719.812896229378, -17142.938630931214, 187500.0, 187500.0, -24344.514232219964, -31891.40193359875, 0.742, -0.534, 0.47400000000000003, 192.0, 23.0, 48.0, 239.0, 80.0, 14.0, 208.0, 0.0, 0.0, 0.0, 1.6635876546801412E9, 0.0, 2022-09-19 16:40:54.680
160.0, -18466.251309663214, -19824.29859927876, -30714.806105471387, -17138.96002041817, 187500.0, 187500.0, -24369.43642728763, -31881.611869527325, 0.742, -0.534, 0.47400000000000003, 192.0, 0.0, 0.0, 0.0, 0.0, 0.0, 0.0, 0.0, 0.0, 0.0, 1.6635876546840703E9, 0.0, 2022-09-19 16:40:54.684
161.0, -18465.044315462626, -19820.36469225463, -30706.491256534013, -17133.327380815434, 187500.0, 187500.0, -24392.88340722125, -31872.671171745205, 0.742, -0.534, 0.47400000000000003, 192.0, 0.0, 0.0, 0.0, 0.0, 0.0, 0.0, 0.0, 0.0, 0.0, 1.6635876546881166E9, 0.0, 2022-09-19 16:40:54.688
162.0, -18459.903414237906, -19818.151869553552, -30711.02866065844, -17134.10969187137, 187500.0, 187500.0, -24379.248843103513, -31878.236756114577, 0.742, -0.534, 0.47400000000000003, 192.0, 0.0, 0.0, 0.0, 0.0, 0.0, 0.0, 0.0, 0.0, 0.0, 1.6635876546931856E9, 0.0, 2022-09-19 16:40:54.693
163.0, -18452.549690312113, -19832.166413327028, -30721.198704385606, -17140.18936636321, 187500.0, 187500.0, -24331.371406480244, -31885.679887018192, 0.742, -0.534, 0.47400000000000003, 192.0, 0.0, 0.0, 0.0, 0.0, 0.0, 0.0, 0.0, 0.0, 0.0, 1.6635876546971586E9, 0.0, 2022-09-19 16:40:54.697
164.0, -18460.126931682462, -19851.8359484477, -30726.630178288244, -17147.788959478017, 187500.0, 187500.0, -24287.89726351467, -31885.322259106906, 0.742, -0.534, 0.47400000000000003, 192.0, 0.0, 0.0, 0.0, 0.0, 0.0, 0.0, 0.0, 0.0, 0.0, 1.6635876547010996E9, 0.0, 2022-09-19 16:40:54.701
165.0, -18480.399963903423, -19876.713440026455, -30718.829419473343, -17141.172843119246, 187500.0, 187500.0, -24315.166391750146, -31873.386427567773, 0.742, -0.534, 0.47400000000000003, 192.0, 0.0, 0.0, 0.0, 0.0, 0.0, 0.0, 0.0, 0.0, 0.0, 1.663587654704167E9, 0.0, 2022-09-19 16:40:54.704
166.0, -18483.4621528938, -19858.385009573103, -30720.21522762957, -17144.10092164289, 187500.0, 187500.0, -24346.570592709853, -31877.11916889181, 0.742, -0.534, 0.47400000000000003, 192.0, 0.0, 0.0, 0.0, 0.0, 0.0, 0.0, 0.0, 0.0, 0.0, 1.6635876547081542E9, 0.0, 2022-09-19 16:40:54.708
167.0, -18478.76828655819, -19863.034172419808, -30726.205495143593, -17154.762703748074, 187500.0, 187500.0, -24333.427766970133, -31886.730419007592, 0.742, -0.534, 0.47400000000000003, 192.0, 0.0, 0.0, 0.0, 0.0, 0.0, 0.0, 0.0, 0.0, 0.0, 1.6635876547121205E9, 0.0, 2022-09-19 16:40:54.712
168.0, -18466.452475363312, -19885.49767559739, -30727.568951555368, -17161.132950917836, 187500.0, 187500.0, -24286.399696636166, -31890.820788242912, 0.742, -0.534, 0.47400000000000003, 192.0, 0.0, 0.0, 0.0, 0.0, 0.0, 0.0, 0.0, 0.0, 0.0, 1.6635876547161627E9, 0.0, 2022-09-19 16:40:54.716
169.0, -18449.062818177084, -19830.378273770606, -30723.009195686485, -17155.20973863718, 187500.0, 187500.0, -24235.90710591163, -31886.372791096306, 0.742, -0.534, 0.47400000000000003, 192.0, 0.0, 0.0, 0.0, 0.0, 0.0, 0.0, 0.0, 0.0, 0.0, 1.6635876547222753E9, 0.0, 2022-09-19 16:40:54.722
170.0, -18466.541882341135, -19803.48912519087, -30717.153038639193, -17147.900718200293, 187500.0, 187500.0, -24256.40365557714, -31879.68961950417, 0.74, -0.544, 0.47600000000000003, 192.0, 23.0, 32.0, 239.0, 0.0, 14.0, 224.0, 0.0, 0.0, 0.0, 1.663587654725221E9, 0.0, 2022-09-19 16:40:54.725
171.0, -18453.399056601414, -19820.901134121556, -30713.01796591496, -17144.033866409525, 187500.0, 187500.0, -24283.851597768262, -31877.20857586963, 0.74, -0.544, 0.47600000000000003, 192.0, 0.0, 0.0, 0.0, 0.0, 0.0, 0.0, 0.0, 0.0, 0.0, 1.6635876547292454E9, 0.0, 2022-09-19 16:40:54.729
172.0, -18437.350504082504, -19844.63868673309, -30717.398907828203, -17148.72773274514, 187500.0, 187500.0, -24269.010039449935, -31882.30477360544, 0.74, -0.544, 0.47600000000000003, 192.0, 0.0, 0.0, 0.0, 0.0, 0.0, 0.0, 0.0, 0.0, 0.0, 1.6635876547323415E9, 0.0, 2022-09-19 16:40:54.732
173.0, -18426.152280110393, -19834.647456961568, -30725.490239321025, -17152.438122324722, 187500.0, 187500.0, -24218.718614425496, -31885.813997484925, 0.74, -0.544, 0.47600000000000003, 192.0, 0.0, 0.0, 0.0, 0.0, 0.0, 0.0, 0.0, 0.0, 0.0, 1.6635876547362216E9, 0.0, 2022-09-19 16:40:54.736
174.0, -18434.31066683658, -19832.658151705047, -30733.73803302503, -17158.942479961217, 187500.0, 187500.0, -24173.702201092507, -31890.284346375985, 0.74, -0.544, 0.47600000000000003, 192.0, 0.0, 0.0, 0.0, 0.0, 0.0, 0.0, 0.0, 0.0, 0.0, 1.6635876547401838E9, 0.0, 2022-09-19 16:40:54.740
175.0, -18438.199870371805, -19838.22373607442, -30729.69236727862, -17155.20973863718, 187500.0, 187500.0, -24193.97523331347, -31886.775122496503, 0.74, -0.544, 0.47600000000000003, 192.0, 0.0, 0.0, 0.0, 0.0, 0.0, 0.0, 0.0, 0.0, 0.0, 1.663587654744232E9, 0.0, 2022-09-19 16:40:54.744
176.0, -18446.626478031456, -19868.912681211554, -30732.039300446428, -17151.25347986859, 187500.0, 187500.0, -24226.541724984854, -31879.801378226446, 0.74, -0.544, 0.47600000000000003, 192.0, 0.0, 0.0, 0.0, 0.0, 0.0, 0.0, 0.0, 0.0, 0.0, 1.6635876547482347E9, 0.0, 2022-09-19 16:40:54.748
177.0, -18460.149283426916, -19884.871826752642, -30737.69429179362, -17157.176692149245, 187500.0, 187500.0, -24216.4163847466, -31888.56326205293, 0.74, -0.544, 0.47600000000000003, 192.0, 0.0, 0.0, 0.0, 0.0, 0.0, 0.0, 0.0, 0.0, 0.0, 1.6635876547532115E9, 0.0, 2022-09-19 16:40:54.753
178.0, -18428.58862025602, -19863.995297431386, -30740.823536017364, -17159.009535194582, 187500.0, 187500.0, -24167.39900915611, -31892.854796988348, 0.74, -0.544, 0.47600000000000003, 192.0, 0.0, 0.0, 0.0, 0.0, 0.0, 0.0, 0.0, 0.0, 0.0, 1.663587654757237E9, 0.0, 2022-09-19 16:40:54.757
179.0, -18410.55076248059, -19886.838780264712, -30746.74674829802, -17160.618860795363, 187500.0, 187500.0, -24119.186296366013, -31895.201730156154, 0.74, -0.544, 0.47600000000000003, 192.0, 0.0, 0.0, 0.0, 0.0, 0.0, 0.0, 0.0, 0.0, 0.0, 1.6635876547602944E9, 0.0, 2022-09-19 16:40:54.760
180.0, -18414.127041593438, -19871.907814968567, -30736.42024235967, -17150.87350021285, 187500.0, 187500.0, -24140.68867453202, -31885.858700973837, 0.74, -0.538, 0.47600000000000003, 192.0, 23.0, 32.0, 239.0, 48.0, 14.0, 224.0, 0.0, 0.0, 0.0, 1.6635876547641912E9, 0.0, 2022-09-19 16:40:54.764
181.0, -18394.83748612851, -19812.072195061708, -30729.155925411695, -17135.003761649583, 187500.0, 187500.0, -24171.377619669154, -31872.49235778956, 0.74, -0.538, 0.47600000000000003, 192.0, 0.0, 0.0, 0.0, 0.0, 0.0, 0.0, 0.0, 0.0, 0.0, 1.6635876547682126E9, 0.0, 2022-09-19 16:40:54.768
182.0, -18367.54600614858, -19814.620293929613, -30732.285169635437, -17139.474110540643, 187500.0, 187500.0, -24161.811073042285, -31880.002543926545, 0.74, -0.538, 0.47600000000000003, 192.0, 0.0, 0.0, 0.0, 0.0, 0.0, 0.0, 0.0, 0.0, 0.0, 1.6635876547723732E9, 0.0, 2022-09-19 16:40:54.772
183.0, -18347.116511716427, -19845.21983208893, -30740.309445894894, -17151.67816301324, 187500.0, 187500.0, -24122.337892334213, -31889.189110897674, 0.74, -0.538, 0.47600000000000003, 192.0, 0.0, 0.0, 0.0, 0.0, 0.0, 0.0, 0.0, 0.0, 0.0, 1.6635876547763188E9, 0.0, 2022-09-19 16:40:54.776
184.0, -18348.21174719474, -19861.938936941497, -30739.79535577242, -17156.997878193604, 187500.0, 187500.0, -24079.087266813192, -31888.473855075106, 0.74, -0.538, 0.47600000000000003, 192.0, 0.0, 0.0, 0.0, 0.0, 0.0, 0.0, 0.0, 0.0, 0.0, 1.6635876547812777E9, 0.0, 2022-09-19 16:40:54.781
185.0, -18354.134959475396, -19859.681410751513, -30734.632102803243, -17150.73938974612, 187500.0, 187500.0, -24101.90839790206, -31884.58465153988, 0.74, -0.538, 0.47600000000000003, 192.0, 0.0, 0.0, 0.0, 0.0, 0.0, 0.0, 0.0, 0.0, 0.0, 1.6635876547854223E9, 0.0, 2022-09-19 16:40:54.785
186.0, -18352.659744341345, -19848.840814690688, -30735.146192925717, -17146.291392599513, 187500.0, 187500.0, -24137.939409964016, -31886.283384118487, 0.74, -0.538, 0.47600000000000003, 192.0, 0.0, 0.0, 0.0, 0.0, 0.0, 0.0, 0.0, 0.0, 0.0, 1.6635876547884352E9, 0.0, 2022-09-19 16:40:54.788
187.0, -18331.58204931999, -19841.10711110915, -30722.07042241936, -17134.4449680382, 187500.0, 187500.0, -24129.088119159715, -31872.8723374453, 0.74, -0.538, 0.47600000000000003, 192.0, 0.0, 0.0, 0.0, 0.0, 0.0, 0.0, 0.0, 0.0, 0.0, 1.663587654793358E9, 0.0, 2022-09-19 16:40:54.793
188.0, -18313.588895033467, -19834.245125561374, -30722.94214045312, -17138.088302384414, 187500.0, 187500.0, -24090.598415207674, -31877.387389825275, 0.74, -0.538, 0.47600000000000003, 192.0, 0.0, 0.0, 0.0, 0.0, 0.0, 0.0, 0.0, 0.0, 0.0, 1.6635876547972937E9, 0.0, 2022-09-19 16:40:54.797
189.0, -18320.205011392238, -19837.35201804066, -30731.815783001875, -17145.374971076842, 187500.0, 187500.0, -24048.599487376152, -31886.238680629576, 0.74, -0.538, 0.47600000000000003, 192.0, 0.0, 0.0, 0.0, 0.0, 0.0, 0.0, 0.0, 0.0, 0.0, 1.663587654800347E9, 0.0, 2022-09-19 16:40:54.800
190.0, -18339.226345923704, -19860.128445640617, -30736.353187126304, -17143.0950931424, 187500.0, 187500.0, -24071.57708067621, -31876.962706680624, 0.746, -0.53, 0.47400000000000003, 192.0, 23.0, 80.0, 239.0, 112.0, 14.0, 208.0, 0.0, 0.0, 0.0, 1.6635876548043432E9, 0.0, 2022-09-19 16:40:54.804
191.0, -18344.76957854862, -19877.093419682198, -30729.17827715615, -17136.858956439373, 187500.0, 187500.0, -24106.82578168223, -31869.83250019938, 0.746, -0.53, 0.47400000000000003, 192.0, 0.0, 0.0, 0.0, 0.0, 0.0, 0.0, 0.0, 0.0, 0.0, 1.6635876548093193E9, 0.0, 2022-09-19 16:40:54.809
192.0, -18328.11752892942, -19833.954552883453, -30724.842038731822, -17132.030979637024, 187500.0, 187500.0, -24100.67905195702, -31870.16777636621, 0.746, -0.53, 0.47400000000000003, 192.0, 0.0, 0.0, 0.0, 0.0, 0.0, 0.0, 0.0, 0.0, 0.0, 1.6635876548143485E9, 0.0, 2022-09-19 16:40:54.814
193.0, -18313.164211888816, -19820.54350621027, -30726.18314339914, -17134.601430249386, 187500.0, 187500.0, -24062.412865449533, -31873.74405547906, 0.746, -0.53, 0.47400000000000003, 192.0, 0.0, 0.0, 0.0, 0.0, 0.0, 0.0, 0.0, 0.0, 0.0, 1.6635876548183632E9, 0.0, 2022-09-19 16:40:54.818
194.0, -18314.639427022867, -19837.240259318383, -30731.681672535145, -17140.05525589648, 187500.0, 187500.0, -24018.268170150302, -31876.15804388023, 0.746, -0.53, 0.47400000000000003, 192.0, 0.0, 0.0, 0.0, 0.0, 0.0, 0.0, 0.0, 0.0, 0.0, 1.6635876548213856E9, 0.0, 2022-09-19 16:40:54.821
195.0, -18334.376017376904, -19850.49484378038, -30730.31821612337, -17133.416787793256, 187500.0, 187500.0, -24043.65975185153, -31873.654648501237, 0.746, -0.53, 0.47400000000000003, 192.0, 0.0, 0.0, 0.0, 0.0, 0.0, 0.0, 0.0, 0.0, 0.0, 1.6635876548243587E9, 0.0, 2022-09-19 16:40:54.824
196.0, -18309.699691498245, -19816.408433486038, -30729.17827715615, -17128.29823831299, 187500.0, 187500.0, -24079.690763913484, -31878.54968053695, 0.746, -0.53, 0.47400000000000003, 192.0, 0.0, 0.0, 0.0, 0.0, 0.0, 0.0, 0.0, 0.0, 0.0, 1.6635876548283758E9, 0.0, 2022-09-19 16:40:54.828
197.0, -18299.32848207098, -19852.148872870075, -30728.530076566945, -17133.170918604246, 187500.0, 187500.0, -24080.29426101378, -31885.299907362452, 0.746, -0.53, 0.47400000000000003, 192.0, 0.0, 0.0, 0.0, 0.0, 0.0, 0.0, 0.0, 0.0, 0.0, 1.6635876548323512E9, 0.0, 2022-09-19 16:40:54.832
198.0, -18300.75899371612, -19867.526873055325, -30733.268646391472, -17139.34000007391, 187500.0, 187500.0, -24048.890060054073, -31890.373753353808, 0.746, -0.53, 0.47400000000000003, 192.0, 0.0, 0.0, 0.0, 0.0, 0.0, 0.0, 0.0, 0.0, 0.0, 1.66358765483745E9, 0.0, 2022-09-19 16:40:54.837
199.0, -18292.28768256756, -19826.198497557463, -30745.13742269724, -17144.81617746546, 187500.0, 187500.0, -24003.47131532089, -31896.229910401096, 0.746, -0.53, 0.47400000000000003, 192.0, 0.0, 0.0, 0.0, 0.0, 0.0, 0.0, 0.0, 0.0, 0.0, 1.6635876548403876E9, 0.0, 2022-09-19 16:40:54.840
200.0, -18296.84743843644, -19821.7281486664, -30746.165602942183, -17142.402189064287, 187500.0, 187500.0, -24018.670501550496, -31891.8266167434, 0.746, -0.532, 0.47600000000000003, 192.0, 23.0, 80.0, 239.0, 96.0, 14.0, 224.0, 0.0, 0.0, 0.0, 1.6635876548434095E9, 0.0, 2022-09-19 16:40:54.843
201.0, -18279.56953997249, -19828.29956153626, -30731.435803346136, -17128.52175575754, 187500.0, 187500.0, -24054.589754890178, -31876.426264813694, 0.746, -0.532, 0.47600000000000003, 192.0, 0.0, 0.0, 0.0, 0.0, 0.0, 0.0, 0.0, 0.0, 0.0, 1.6635876548483927E9, 0.0, 2022-09-19 16:40:54.848
202.0, -18261.33051649696, -19801.87979959009, -30725.17731489865, -17119.782223675516, 187500.0, 187500.0, -24053.09218801167, -31874.861642701824, 0.746, -0.532, 0.47600000000000003, 192.0, 0.0, 0.0, 0.0, 0.0, 0.0, 0.0, 0.0, 0.0, 0.0, 1.6635876548525E9, 0.0, 2022-09-19 16:40:54.852
203.0, -18274.115714325395, -19844.012837888342, -30742.455213362602, -17135.87547968334, 187500.0, 187500.0, -24025.308969653724, -31892.385410354786, 0.746, -0.532, 0.47600000000000003, 192.0, 0.0, 0.0, 0.0, 0.0, 0.0, 0.0, 0.0, 0.0, 0.0, 1.6635876548564165E9, 0.0, 2022-09-19 16:40:54.856
204.0, -18288.689051710255, -19885.52002734185, -30754.6592658352, -17149.085360656423, 187500.0, 187500.0, -23986.238120345846, -31897.638070301782, 0.746, -0.532, 0.47600000000000003, 192.0, 0.0, 0.0, 0.0, 0.0, 0.0, 0.0, 0.0, 0.0, 0.0, 1.6635876548604407E9, 0.0, 2022-09-19 16:40:54.860
205.0, -18282.877598151874, -19853.02059090383, -30740.778832528453, -17138.4459302957, 187500.0, 187500.0, -24004.566550799198, -31887.93741320818, 0.746, -0.532, 0.47600000000000003, 192.0, 0.0, 0.0, 0.0, 0.0, 0.0, 0.0, 0.0, 0.0, 0.0, 1.663587654864396E9, 0.0, 2022-09-19 16:40:54.864
206.0, -18262.649269419824, -19810.373462483105, -30729.871181234263, -17127.33711330141, 187500.0, 187500.0, -24044.196193718457, -31880.270764860008, 0.746, -0.532, 0.47600000000000003, 192.0, 0.0, 0.0, 0.0, 0.0, 0.0, 0.0, 0.0, 0.0, 0.0, 1.6635876548693788E9, 0.0, 2022-09-19 16:40:54.869
207.0, -18256.480187950157, -19823.40452950055, -30729.982939956542, -17131.561593003466, 187500.0, 187500.0, -24049.515908898822, -31880.56133753793, 0.746, -0.532, 0.47600000000000003, 192.0, 0.0, 0.0, 0.0, 0.0, 0.0, 0.0, 0.0, 0.0, 0.0, 1.6635876548724544E9, 0.0, 2022-09-19 16:40:54.872
208.0, -18252.255708248103, -19851.679486236513, -30728.820649244866, -17141.150491374792, 187500.0, 187500.0, -24021.240952162858, -31887.825654485903, 0.746, -0.532, 0.47600000000000003, 192.0, 0.0, 0.0, 0.0, 0.0, 0.0, 0.0, 0.0, 0.0, 0.0, 1.66358765487644E9, 0.0, 2022-09-19 16:40:54.876
209.0, -18245.997219800618, -19828.433672002993, -30725.266721876473, -17134.042636638, 187500.0, 187500.0, -23975.621041729577, -31880.56133753793, 0.746, -0.532, 0.47600000000000003, 192.0, 0.0, 0.0, 0.0, 0.0, 0.0, 0.0, 0.0, 0.0, 0.0, 1.663587654880437E9, 0.0, 2022-09-19 16:40:54.880
210.0, -18251.495748936624, -19835.094491850676, -30722.360995097282, -17127.53827900151, 187500.0, 187500.0, -23997.2128268734, -31872.604116511837, 0.756, -0.534, 0.47400000000000003, 192.0, 23.0, 160.0, 239.0, 80.0, 14.0, 208.0, 0.0, 0.0, 0.0, 1.663587654884516E9, 0.0, 2022-09-19 16:40:54.884
211.0, -18237.99529528562, -19847.8349861902, -30724.37265209826, -17121.548011487488, 187500.0, 187500.0, -24044.3750076741, -31869.02783739899, 0.756, -0.534, 0.47400000000000003, 192.0, 0.0, 0.0, 0.0, 0.0, 0.0, 0.0, 0.0, 0.0, 0.0, 1.6635876548904822E9, 0.0, 2022-09-19 16:40:54.890
212.0, -18221.946742766708, -19826.86904989112, -30730.69819577911, -17117.211773063158, 187500.0, 187500.0, -24055.3273624572, -31872.224136856097, 0.756, -0.534, 0.47400000000000003, 192.0, 0.0, 0.0, 0.0, 0.0, 0.0, 0.0, 0.0, 0.0, 0.0, 1.6635876548934908E9, 0.0, 2022-09-19 16:40:54.893
213.0, -18227.534678880536, -19849.287849579796, -30736.353187126304, -17124.699607455685, 187500.0, 187500.0, -24033.914391269016, -31878.750846237046, 0.756, -0.534, 0.47400000000000003, 192.0, 0.0, 0.0, 0.0, 0.0, 0.0, 0.0, 0.0, 0.0, 0.0, 1.6635876548974383E9, 0.0, 2022-09-19 16:40:54.897
214.0, -18231.13330973784, -19871.103152168173, -30737.627236560256, -17131.919220914748, 187500.0, 187500.0, -23999.358594341113, -31880.159006137732, 0.756, -0.534, 0.47400000000000003, 192.0, 0.0, 0.0, 0.0, 0.0, 0.0, 0.0, 0.0, 0.0, 0.0, 1.6635876549004412E9, 0.0, 2022-09-19 16:40:54.900
215.0, -18230.328646937447, -19814.240314273873, -30734.587399314332, -17130.421654036243, 187500.0, 187500.0, -24023.252609163836, -31881.947145694157, 0.756, -0.534, 0.47400000000000003, 192.0, 0.0, 0.0, 0.0, 0.0, 0.0, 0.0, 0.0, 0.0, 0.0, 1.6635876549045205E9, 0.0, 2022-09-19 16:40:54.904
216.0, -18232.407359171793, -19798.929369321988, -30725.289073620927, -17124.72195920014, 187500.0, 187500.0, -24076.71798190093, -31881.79068348297, 0.756, -0.534, 0.47400000000000003, 192.0, 0.0, 0.0, 0.0, 0.0, 0.0, 0.0, 0.0, 0.0, 0.0, 1.6635876549085033E9, 0.0, 2022-09-19 16:40:54.908
217.0, -18229.144004481317, -19802.72916587939, -30720.103468907295, -17118.284656797012, 187500.0, 187500.0, -24091.425429752522, -31871.419474055707, 0.756, -0.534, 0.47400000000000003, 192.0, 0.0, 0.0, 0.0, 0.0, 0.0, 0.0, 0.0, 0.0, 0.0, 1.6635876549124713E9, 0.0, 2022-09-19 16:40:54.912
218.0, -18235.536603395536, -19821.325817266206, -30724.12678290925, -17120.229258564625, 187500.0, 187500.0, -24073.745199888373, -31868.960782165625, 0.756, -0.534, 0.47400000000000003, 192.0, 0.0, 0.0, 0.0, 0.0, 0.0, 0.0, 0.0, 0.0, 0.0, 1.663587654916701E9, 0.0, 2022-09-19 16:40:54.916
219.0, -18254.312068737992, -19889.208065176972, -30741.516440095478, -17136.92601167274, 187500.0, 187500.0, -24043.14566172906, -31888.31739286392, 0.756, -0.534, 0.47400000000000003, 192.0, 0.0, 0.0, 0.0, 0.0, 0.0, 0.0, 0.0, 0.0, 0.0, 1.6635876549216456E9, 0.0, 2022-09-19 16:40:54.921
220.0, -18252.05454254801, -19842.247050076374, -30737.381367371247, -17130.645171480795, 187500.0, 187500.0, -24064.201005005958, -31881.16483463822, 0.748, -0.53, 0.47800000000000004, 192.0, 23.0, 96.0, 239.0, 112.0, 14.0, 240.0, 0.0, 0.0, 0.0, 1.6635876549246376E9, 0.0, 2022-09-19 16:40:54.924
221.0, -18234.7542923396, -19793.520247163804, -30720.46109681858, -17113.411976505755, 187500.0, 187500.0, -24112.5925317517, -31864.803357696936, 0.748, -0.53, 0.47800000000000004, 192.0, 0.0, 0.0, 0.0, 0.0, 0.0, 0.0, 0.0, 0.0, 0.0, 1.6635876549276316E9, 0.0, 2022-09-19 16:40:54.927
222.0, -18215.442385130213, -19782.254967958328, -30716.37072758326, -17110.640360193298, 187500.0, 187500.0, -24130.67509301604, -31860.64593322825, 0.748, -0.53, 0.47800000000000004, 192.0, 0.0, 0.0, 0.0, 0.0, 0.0, 0.0, 0.0, 0.0, 0.0, 1.663587654931671E9, 0.0, 2022-09-19 16:40:54.931
223.0, -18208.111012948873, -19789.563988395214, -30717.108335150286, -17118.61993296384, 187500.0, 187500.0, -24114.76065096386, -31867.418511798205, 0.748, -0.53, 0.47800000000000004, 192.0, 0.0, 0.0, 0.0, 0.0, 0.0, 0.0, 0.0, 0.0, 0.0, 1.663587654936607E9, 0.0, 2022-09-19 16:40:54.936
224.0, -18204.780603025032, -19809.166468282518, -30724.953797454098, -17124.878421411326, 187500.0, 187500.0, -24079.71311565794, -31874.9734014241, 0.748, -0.53, 0.47800000000000004, 192.0, 0.0, 0.0, 0.0, 0.0, 0.0, 0.0, 0.0, 0.0, 0.0, 1.6635876549405973E9, 0.0, 2022-09-19 16:40:54.940
225.0, -18215.352978152394, -19810.842849116667, -30719.499971807003, -17117.122366085336, 187500.0, 187500.0, -24100.276720556823, -31868.20082285414, 0.748, -0.53, 0.47800000000000004, 192.0, 0.0, 0.0, 0.0, 0.0, 0.0, 0.0, 0.0, 0.0, 0.0, 1.663587654944639E9, 0.0, 2022-09-19 16:40:54.944
226.0, -18224.763062568076, -19819.403567243047, -30707.94411992361, -17104.09129906789, 187500.0, 187500.0, -24155.44082587252, -31855.43797677016, 0.748, -0.53, 0.47800000000000004, 192.0, 0.0, 0.0, 0.0, 0.0, 0.0, 0.0, 0.0, 0.0, 0.0, 1.6635876549486067E9, 0.0, 2022-09-19 16:40:54.948
227.0, -18216.179992697238, -19860.46372180745, -30710.31340483587, -17104.024243834527, 187500.0, 187500.0, -24174.238642959433, -31854.40979652522, 0.748, -0.53, 0.47800000000000004, 192.0, 0.0, 0.0, 0.0, 0.0, 0.0, 0.0, 0.0, 0.0, 0.0, 1.663587654952596E9, 0.0, 2022-09-19 16:40:54.952
228.0, -18213.721300807156, -19851.567727514237, -30719.388213084727, -17110.685063682206, 187500.0, 187500.0, -24159.464139874475, -31861.696465217647, 0.748, -0.53, 0.47800000000000004, 192.0, 0.0, 0.0, 0.0, 0.0, 0.0, 0.0, 0.0, 0.0, 0.0, 1.6635876549575715E9, 0.0, 2022-09-19 16:40:54.957
229.0, -18193.202399397185, -19797.76707861031, -30727.61365504428, -17118.4411190082, 187500.0, 187500.0, -24121.53322953382, -31872.961744423123, 0.748, -0.53, 0.47800000000000004, 192.0, 0.0, 0.0, 0.0, 0.0, 0.0, 0.0, 0.0, 0.0, 0.0, 1.663587654961545E9, 0.0, 2022-09-19 16:40:54.961
230.0, -18191.61542554086, -19774.208339954417, -30724.573817798355, -17113.411976505755, 187500.0, 187500.0, -24144.287305389324, -31871.352418822342, 0.746, -0.532, 0.47400000000000003, 192.0, 23.0, 80.0, 239.0, 96.0, 14.0, 208.0, 0.0, 0.0, 0.0, 1.6635876549656944E9, 0.0, 2022-09-19 16:40:54.965
231.0, -18192.17421915224, -19783.52901739228, -30712.816800214863, -17104.47127872363, 187500.0, 187500.0, -24200.636053161154, -31860.15419485023, 0.746, -0.532, 0.47400000000000003, 192.0, 0.0, 0.0, 0.0, 0.0, 0.0, 0.0, 0.0, 0.0, 0.0, 1.66358765496963E9, 0.0, 2022-09-19 16:40:54.969
232.0, -18196.93514072122, -19825.50559347935, -30710.6486810027, -17105.812383390952, 187500.0, 187500.0, -24223.837163905762, -31862.702293718135, 0.746, -0.532, 0.47400000000000003, 192.0, 0.0, 0.0, 0.0, 0.0, 0.0, 0.0, 0.0, 0.0, 0.0, 1.6635876549735706E9, 0.0, 2022-09-19 16:40:54.973
233.0, -18192.733012763623, -19790.10043026214, -30707.02769840094, -17102.19140078919, 187500.0, 187500.0, -24208.816791631794, -31862.92581116269, 0.746, -0.532, 0.47400000000000003, 192.0, 0.0, 0.0, 0.0, 0.0, 0.0, 0.0, 0.0, 0.0, 0.0, 1.663587654976601E9, 0.0, 2022-09-19 16:40:54.976
234.0, -18206.725204792645, -19804.91963683601, -30713.50970429298, -17104.38187174581, 187500.0, 187500.0, -24176.786741827338, -31865.473910030596, 0.746, -0.532, 0.47400000000000003, 192.0, 0.0, 0.0, 0.0, 0.0, 0.0, 0.0, 0.0, 0.0, 0.0, 1.663587654979628E9, 0.0, 2022-09-19 16:40:54.979
235.0, -18235.290734206526, -19839.475433763913, -30720.192875885117, -17108.852220636873, 187500.0, 187500.0, -24204.23468401846, -31867.843194942856, 0.746, -0.532, 0.47400000000000003, 192.0, 0.0, 0.0, 0.0, 0.0, 0.0, 0.0, 0.0, 0.0, 0.0, 1.663587654983897E9, 0.0, 2022-09-19 16:40:54.983
236.0, -18248.76883611308, -19829.663017948034, -30718.091811906317, -17103.934836856704, 187500.0, 187500.0, -24265.65727778164, -31865.69742747515, 0.746, -0.532, 0.47400000000000003, 192.0, 0.0, 0.0, 0.0, 0.0, 0.0, 0.0, 0.0, 0.0, 0.0, 1.6635876549876397E9, 0.0, 2022-09-19 16:40:54.987
237.0, -18243.47147267717, -19779.751572579335, -30707.295919334403, -17095.99996757507, 187500.0, 187500.0, -24289.640699582185, -31857.404930282228, 0.746, -0.532, 0.47400000000000003, 192.0, 0.0, 0.0, 0.0, 0.0, 0.0, 0.0, 0.0, 0.0, 0.0, 1.663587654992594E9, 0.0, 2022-09-19 16:40:54.992
238.0, -18241.236298231637, -19765.826435783678, -30694.018983127953, -17091.90959833975, 187500.0, 187500.0, -24284.231577424, -31854.58861048086, 0.746, -0.532, 0.47400000000000003, 192.0, 0.0, 0.0, 0.0, 0.0, 0.0, 0.0, 0.0, 0.0, 0.0, 1.663587654996644E9, 0.0, 2022-09-19 16:40:54.996
239.0, -18220.829155543943, -19782.612595869614, -30690.867387159753, -17092.781316373508, 187500.0, 187500.0, -24252.89443169766, -31860.78004369498, 0.746, -0.532, 0.47400000000000003, 192.0, 0.0, 0.0, 0.0, 0.0, 0.0, 0.0, 0.0, 0.0, 0.0, 1.663587655000625E9, 0.0, 2022-09-19 16:40:55.000
240.0, -18245.684295378243, -19834.669808706025, -30699.964547153064, -17097.85516236486, 187500.0, 187500.0, -24279.47065585502, -31864.579840252383, 0.75, -0.53, 0.47200000000000003, 192.0, 23.0, 112.0, 239.0, 112.0, 14.0, 192.0, 0.0, 0.0, 0.0, 1.6635876550046945E9, 0.0, 2022-09-19 16:40:55.004
241.0, -18260.078818807462, -19823.6280469451, -30699.092829119305, -17091.395508217276, 187500.0, 187500.0, -24342.681389174628, -31858.567220993904, 0.75, -0.53, 0.47200000000000003, 192.0, 0.0, 0.0, 0.0, 0.0, 0.0, 0.0, 0.0, 0.0, 0.0, 1.6635876550086532E9, 0.0, 2022-09-19 16:40:55.008
242.0, -18244.924336066764, -19756.282240901262, -30699.584567497324, -17087.327490726413, 187500.0, 187500.0, -24369.01174414298, -31858.50016576054, 0.75, -0.53, 0.47200000000000003, 192.0, 0.0, 0.0, 0.0, 0.0, 0.0, 0.0, 0.0, 0.0, 0.0, 1.6635876550116785E9, 0.0, 2022-09-19 16:40:55.011
243.0, -18233.770815583564, -19748.57088906418, -30698.243462830003, -17086.589883159388, 187500.0, 187500.0, -24358.72994169354, -31861.897630917745, 0.75, -0.53, 0.47200000000000003, 192.0, 0.0, 0.0, 0.0, 0.0, 0.0, 0.0, 0.0, 0.0, 0.0, 1.663587655015679E9, 0.0, 2022-09-19 16:40:55.015
244.0, -18247.003048301107, -19806.484258947883, -30708.637024001724, -17098.391604231787, 187500.0, 187500.0, -24326.3422639778, -31870.056017643932, 0.75, -0.53, 0.47200000000000003, 192.0, 0.0, 0.0, 0.0, 0.0, 0.0, 0.0, 0.0, 0.0, 0.0, 1.663587655020728E9, 0.0, 2022-09-19 16:40:55.020
245.0, -18269.645365434335, -19818.48714572038, -30712.503875792492, -17105.655921179765, 187500.0, 187500.0, -24346.77175840995, -31872.224136856097, 0.75, -0.53, 0.47200000000000003, 192.0, 0.0, 0.0, 0.0, 0.0, 0.0, 0.0, 0.0, 0.0, 0.0, 1.6635876550247145E9, 0.0, 2022-09-19 16:40:55.024
246.0, -18272.95342361372, -19772.129627720074, -30706.915939678664, -17096.938740842194, 187500.0, 187500.0, -24406.294453894432, -31867.262049587018, 0.75, -0.53, 0.47200000000000003, 192.0, 0.0, 0.0, 0.0, 0.0, 0.0, 0.0, 0.0, 0.0, 0.0, 1.663587655028696E9, 0.0, 2022-09-19 16:40:55.028
247.0, -18276.4626474932, -19812.519229950816, -30707.139457123216, -17099.95622634366, 187500.0, 187500.0, -24435.754053086526, -31866.88206993128, 0.75, -0.53, 0.47200000000000003, 192.0, 0.0, 0.0, 0.0, 0.0, 0.0, 0.0, 0.0, 0.0, 0.0, 1.6635876550317335E9, 0.0, 2022-09-19 16:40:55.031
248.0, -18269.220682289684, -19819.761195154333, -30714.60493977129, -17108.069909580936, 187500.0, 187500.0, -24427.03687274896, -31871.911212433723, 0.75, -0.53, 0.47200000000000003, 192.0, 0.0, 0.0, 0.0, 0.0, 0.0, 0.0, 0.0, 0.0, 0.0, 1.6635876550357385E9, 0.0, 2022-09-19 16:40:55.035
249.0, -18250.08758903594, -19786.501799404836, -30719.209399129082, -17112.85318289437, 187500.0, 187500.0, -24392.88340722125, -31880.516634049018, 0.75, -0.53, 0.47200000000000003, 192.0, 0.0, 0.0, 0.0, 0.0, 0.0, 0.0, 0.0, 0.0, 0.0, 1.6635876550417817E9, 0.0, 2022-09-19 16:40:55.041
250.0, -18251.115769280885, -19784.177217981483, -30719.902303207196, -17109.56747645944, 187500.0, 187500.0, -24403.276968392966, -31879.421398570707, 0.75, -0.526, 0.47400000000000003, 192.0, 23.0, 112.0, 239.0, 144.0, 14.0, 208.0, 0.0, 0.0, 0.0, 1.6635876550447109E9, 0.0, 2022-09-19 16:40:55.044
251.0, -18258.04481006203, -19778.991613267855, -30716.46013456108, -17101.409089733253, 187500.0, 187500.0, -24458.664591153218, -31869.340761821364, 0.75, -0.526, 0.47400000000000003, 192.0, 0.0, 0.0, 0.0, 0.0, 0.0, 0.0, 0.0, 0.0, 0.0, 1.663587655047718E9, 0.0, 2022-09-19 16:40:55.047
252.0, -18255.831987360954, -19781.517360391303, -30713.01796591496, -17102.683139167206, 187500.0, 187500.0, -24483.340917031877, -31874.191090368164, 0.75, -0.526, 0.47400000000000003, 192.0, 0.0, 0.0, 0.0, 0.0, 0.0, 0.0, 0.0, 0.0, 0.0, 1.6635876550527325E9, 0.0, 2022-09-19 16:40:55.052
253.0, -18258.894176351332, -19785.406563926528, -30709.26287284647, -17099.062156565447, 187500.0, 187500.0, -24466.33123950139, -31869.16194786572, 0.75, -0.526, 0.47400000000000003, 192.0, 0.0, 0.0, 0.0, 0.0, 0.0, 0.0, 0.0, 0.0, 0.0, 1.6635876550568025E9, 0.0, 2022-09-19 16:40:55.056
254.0, -18261.732847897154, -19784.78071508178, -30723.143306153215, -17104.42657523472, 187500.0, 187500.0, -24425.02521574798, -31872.849985700846, 0.75, -0.526, 0.47400000000000003, 192.0, 0.0, 0.0, 0.0, 0.0, 0.0, 0.0, 0.0, 0.0, 0.0, 1.6635876550597544E9, 0.0, 2022-09-19 16:40:55.059
255.0, -18256.055504805507, -19803.891456591067, -30721.6010357858, -17104.00189209007, 187500.0, 187500.0, -24431.663683851206, -31872.157081622732, 0.75, -0.526, 0.47400000000000003, 192.0, 0.0, 0.0, 0.0, 0.0, 0.0, 0.0, 0.0, 0.0, 0.0, 1.6635876550637465E9, 0.0, 2022-09-19 16:40:55.063
0.0, -18250.17699601376, -19817.86129687563, -30710.246349602505, -17098.615121676343, 187500.0, 187500.0, -24484.79378042147, -31866.904421675736, 0.75, -0.526, 0.47400000000000003, 192.0, 0.0, 0.0, 0.0, 0.0, 0.0, 0.0, 0.0, 0.0, 0.0, 1.6635876550677145E9, 0.0, 2022-09-19 16:40:55.067
1.0, -18233.79316732802, -19790.39100294006, -30700.188064597616, -17090.210865761146, 187500.0, 187500.0, -24502.630472496807, -31861.87527917329, 0.75, -0.526, 0.47400000000000003, 192.0, 0.0, 0.0, 0.0, 0.0, 0.0, 0.0, 0.0, 0.0, 0.0, 1.6635876550717604E9, 0.0, 2022-09-19 16:40:55.071
2.0, -18221.052672988495, -19777.471694644893, -30703.339660565816, -17092.736612884597, 187500.0, 187500.0, -24484.458504254642, -31868.133767620777, 0.75, -0.526, 0.47400000000000003, 192.0, 0.0, 0.0, 0.0, 0.0, 0.0, 0.0, 0.0, 0.0, 0.0, 1.6635876550757928E9, 0.0, 2022-09-19 16:40:55.075
3.0, -18224.8524695459, -19807.35597698164, -30709.709907735578, -17105.90179036877, 187500.0, 187500.0, -24442.50427991203, -31880.516634049018, 0.75, -0.526, 0.47400000000000003, 192.0, 0.0, 0.0, 0.0, 0.0, 0.0, 0.0, 0.0, 0.0, 0.0, 1.6635876550807388E9, 0.0, 2022-09-19 16:40:55.080
4.0, -18225.187745712727, -19796.001290798344, -30708.92759667964, -17104.203057790168, 187500.0, 187500.0, -24446.41583519171, -31877.856776458833, 0.746, -0.528, 0.47800000000000004, 192.0, 23.0, 80.0, 239.0, 128.0, 14.0, 240.0, 0.0, 0.0, 0.0, 1.6635876550847344E9, 0.0, 2022-09-19 16:40:55.084
5.0, -18223.51136487858, -19759.76911303629, -30705.686593733622, -17095.57528443042, 187500.0, 187500.0, -24495.27674857101, -31868.245526343053, 0.746, -0.528, 0.47800000000000004, 192.0, 0.0, 0.0, 0.0, 0.0, 0.0, 0.0, 0.0, 0.0, 0.0, 1.6635876550877936E9, 0.0, 2022-09-19 16:40:55.087
6.0, -18219.063367731975, -19774.811837054713, -30706.245387345003, -17094.748269885575, 187500.0, 187500.0, -24513.873399957825, -31861.718816962104, 0.746, -0.528, 0.47800000000000004, 192.0, 0.0, 0.0, 0.0, 0.0, 0.0, 0.0, 0.0, 0.0, 0.0, 1.6635876550918376E9, 0.0, 2022-09-19 16:40:55.091
7.0, -18224.09251023442, -19798.59409315516, -30720.774021240955, -17105.633569435307, 187500.0, 187500.0, -24500.551760262464, -31875.107511890834, 0.746, -0.528, 0.47800000000000004, 192.0, 0.0, 0.0, 0.0, 0.0, 0.0, 0.0, 0.0, 0.0, 0.0, 1.6635876550958266E9, 0.0, 2022-09-19 16:40:55.095
8.0, -18240.722208109168, -19839.67659946401, -30735.257951647993, -17116.67533119623, 187500.0, 187500.0, -24459.111626042322, -31888.227985886097, 0.746, -0.528, 0.47800000000000004, 192.0, 0.0, 0.0, 0.0, 0.0, 0.0, 0.0, 0.0, 0.0, 0.0, 1.6635876550998056E9, 0.0, 2022-09-19 16:40:55.099
9.0, -18249.729961124656, -19834.35688428365, -30732.352224868802, -17116.652979451774, 187500.0, 187500.0, -24458.441073708665, -31889.032648686487, 0.746, -0.528, 0.47800000000000004, 192.0, 0.0, 0.0, 0.0, 0.0, 0.0, 0.0, 0.0, 0.0, 0.0, 1.6635876551038787E9, 0.0, 2022-09-19 16:40:55.103
10.0, -18257.284850750548, -19794.906055320032, -30722.293939863914, -17105.991197346593, 187500.0, 187500.0, -24504.597426008873, -31878.102645647843, 0.746, -0.528, 0.47800000000000004, 192.0, 0.0, 0.0, 0.0, 0.0, 0.0, 0.0, 0.0, 0.0, 0.0, 1.6635876551088283E9, 0.0, 2022-09-19 16:40:55.108
11.0, -18231.64739986031, -19783.506665647827, -30710.067535646864, -17097.81045887595, 187500.0, 187500.0, -24522.210600639653, -31876.515671791516, 0.746, -0.528, 0.47800000000000004, 192.0, 0.0, 0.0, 0.0, 0.0, 0.0, 0.0, 0.0, 0.0, 0.0, 1.6635876551128232E9, 0.0, 2022-09-19 16:40:55.112
12.0, -18235.648362117812, -19837.26261106284, -30711.766268225467, -17099.71035715465, 187500.0, 187500.0, -24512.12996389031, -31878.21440437012, 0.746, -0.528, 0.47800000000000004, 192.0, 0.0, 0.0, 0.0, 0.0, 0.0, 0.0, 0.0, 0.0, 0.0, 1.6635876551168022E9, 0.0, 2022-09-19 16:40:55.116
13.0, -18220.113899721375, -19785.719488348903, -30716.013099671974, -17100.112688554847, 187500.0, 187500.0, -24467.69469591316, -31880.159006137732, 0.746, -0.528, 0.47800000000000004, 192.0, 0.0, 0.0, 0.0, 0.0, 0.0, 0.0, 0.0, 0.0, 0.0, 1.663587655120906E9, 0.0, 2022-09-19 16:40:55.120
14.0, -18202.098393690398, -19754.941136233945, -30717.197742128104, -17100.492668210587, 187500.0, 187500.0, -24464.677210411694, -31880.78485498248, 0.746, -0.528, 0.47800000000000004, 192.0, 0.0, 0.0, 0.0, 0.0, 0.0, 0.0, 0.0, 0.0, 0.0, 1.6635876551240044E9, 0.0, 2022-09-19 16:40:55.124
15.0, -18218.79514679851, -19787.351165694137, -30715.27549210495, -17095.776450130517, 187500.0, 187500.0, -24516.71207150365, -31878.46027355913, 0.746, -0.532, 0.47400000000000003, 192.0, 23.0, 80.0, 239.0, 96.0, 14.0, 208.0, 0.0, 0.0, 0.0, 1.6635876551278496E9, 0.0, 2022-09-19 16:40:55.127
16.0, -18229.881612048343, -19792.670880874502, -30721.288111363425, -17091.373156472822, 187500.0, 187500.0, -24541.05312121548, -31874.21344211262, 0.746, -0.532, 0.47400000000000003, 192.0, 0.0, 0.0, 0.0, 0.0, 0.0, 0.0, 0.0, 0.0, 0.0, 1.6635876551338696E9, 0.0, 2022-09-19 16:40:55.133
17.0, -18222.550239867003, -19773.336621920662, -30718.69530900661, -17096.536409441997, 187500.0, 187500.0, -24527.798536753482, -31877.722665992103, 0.746, -0.532, 0.47400000000000003, 192.0, 0.0, 0.0, 0.0, 0.0, 0.0, 0.0, 0.0, 0.0, 0.0, 1.663587655137894E9, 0.0, 2022-09-19 16:40:55.137
18.0, -18211.150850194794, -19787.977014538887, -30722.51745730847, -17106.72880491362, 187500.0, 187500.0, -24484.860835654836, -31887.088046918878, 0.746, -0.532, 0.47400000000000003, 192.0, 0.0, 0.0, 0.0, 0.0, 0.0, 0.0, 0.0, 0.0, 0.0, 1.6635876551409748E9, 0.0, 2022-09-19 16:40:55.140
19.0, -18215.777661297045, -19789.34047095066, -30717.30950085038, -17100.447964721676, 187500.0, 187500.0, -24482.446847253665, -31881.29894510495, 0.746, -0.532, 0.47400000000000003, 192.0, 0.0, 0.0, 0.0, 0.0, 0.0, 0.0, 0.0, 0.0, 0.0, 1.6635876551449032E9, 0.0, 2022-09-19 16:40:55.144
20.0, -18227.6017341139, -19797.610616399124, -30703.74199196601, -17085.472295936623, 187500.0, 187500.0, -24533.453528100676, -31865.473910030596, 0.746, -0.532, 0.47400000000000003, 192.0, 0.0, 0.0, 0.0, 0.0, 0.0, 0.0, 0.0, 0.0, 0.0, 1.6635876551479309E9, 0.0, 2022-09-19 16:40:55.147
21.0, -18243.315010465984, -19818.755366653844, -30714.135553137727, -17096.87168560883, 187500.0, 187500.0, -24565.260060460576, -31871.330067077884, 0.746, -0.532, 0.47400000000000003, 192.0, 0.0, 0.0, 0.0, 0.0, 0.0, 0.0, 0.0, 0.0, 0.0, 1.663587655151886E9, 0.0, 2022-09-19 16:40:55.151
22.0, -18232.005027771596, -19778.879854545576, -30718.248274117504, -17098.05632806496, 187500.0, 187500.0, -24551.536089365018, -31876.761540980526, 0.746, -0.532, 0.47400000000000003, 192.0, 0.0, 0.0, 0.0, 0.0, 0.0, 0.0, 0.0, 0.0, 0.0, 1.663587655155909E9, 0.0, 2022-09-19 16:40:55.155
23.0, -18224.248972445606, -19750.895470487532, -30722.964492197574, -17099.24097052109, 187500.0, 187500.0, -24509.00071966657, -31878.88495670378, 0.746, -0.532, 0.47400000000000003, 192.0, 0.0, 0.0, 0.0, 0.0, 0.0, 0.0, 0.0, 0.0, 0.0, 1.6635876551598992E9, 0.0, 2022-09-19 16:40:55.159
24.0, -18246.958344812196, -19781.897340047042, -30729.6029603008, -17103.599560689876, 187500.0, 187500.0, -24511.14648713428, -31880.650744515748, 0.746, -0.532, 0.47400000000000003, 192.0, 0.0, 0.0, 0.0, 0.0, 0.0, 0.0, 0.0, 0.0, 0.0, 1.6635876551649554E9, 0.0, 2022-09-19 16:40:55.164
25.0, -18263.56569094249, -19818.68831142048, -30725.534942809936, -17105.14183105729, 187500.0, 187500.0, -24566.33294419443, -31876.716837491615, 0.744, -0.53, 0.47800000000000004, 192.0, 23.0, 64.0, 239.0, 112.0, 14.0, 240.0, 0.0, 0.0, 0.0, 1.6635876551679437E9, 0.0, 2022-09-19 16:40:55.167
26.0, -18239.068179019472, -19807.087756048175, -30719.008233428984, -17103.107822311857, 187500.0, 187500.0, -24593.602072429905, -31873.274668845497, 0.744, -0.53, 0.47800000000000004, 192.0, 0.0, 0.0, 0.0, 0.0, 0.0, 0.0, 0.0, 0.0, 0.0, 1.6635876551709175E9, 0.0, 2022-09-19 16:40:55.170
27.0, -18221.79028055552, -19755.879909501065, -30717.93534969513, -17095.172953030225, 187500.0, 187500.0, -24584.48256069214, -31864.8704129303, 0.744, -0.53, 0.47800000000000004, 192.0, 0.0, 0.0, 0.0, 0.0, 0.0, 0.0, 0.0, 0.0, 0.0, 1.663587655175903E9, 0.0, 2022-09-19 16:40:55.175
28.0, -18218.37046365386, -19749.979048964866, -30722.428050330647, -17100.269150766035, 187500.0, 187500.0, -24548.071568974447, -31869.87720368829, 0.744, -0.53, 0.47800000000000004, 192.0, 0.0, 0.0, 0.0, 0.0, 0.0, 0.0, 0.0, 0.0, 0.0, 1.6635876551799695E9, 0.0, 2022-09-19 16:40:55.179
29.0, -18236.497728407114, -19775.30357543273, -30724.819686987365, -17107.265246780546, 187500.0, 187500.0, -24547.870403274348, -31875.062808401923, 0.744, -0.53, 0.47800000000000004, 192.0, 0.0, 0.0, 0.0, 0.0, 0.0, 0.0, 0.0, 0.0, 0.0, 1.6635876551839807E9, 0.0, 2022-09-19 16:40:55.183
30.0, -18249.99818205812, -19793.699061119445, -30713.532056037435, -17093.608330918352, 187500.0, 187500.0, -24600.44170623323, -31863.73047396308, 0.744, -0.53, 0.47800000000000004, 192.0, 0.0, 0.0, 0.0, 0.0, 0.0, 0.0, 0.0, 0.0, 0.0, 1.6635876551879969E9, 0.0, 2022-09-19 16:40:55.187
31.0, -18247.09245527893, -19787.23940697186, -30711.945082181108, -17087.729822126606, 187500.0, 187500.0, -24629.49897402513, -31859.818918683402, 0.744, -0.53, 0.47800000000000004, 192.0, 0.0, 0.0, 0.0, 0.0, 0.0, 0.0, 0.0, 0.0, 0.0, 1.6635876551929665E9, 0.0, 2022-09-19 16:40:55.192
32.0, -18238.03999877453, -19793.497895419347, -30722.02571893045, -17093.407165218254, 187500.0, 187500.0, -24621.653511721317, -31863.350494307342, 0.744, -0.53, 0.47800000000000004, 192.0, 0.0, 0.0, 0.0, 0.0, 0.0, 0.0, 0.0, 0.0, 0.0, 1.6635876551960044E9, 0.0, 2022-09-19 16:40:55.196
33.0, -18228.160527725286, -19785.80889532672, -30728.373614355758, -17091.931950084203, 187500.0, 187500.0, -24578.96167981168, -31861.137671606266, 0.744, -0.53, 0.47800000000000004, 192.0, 0.0, 0.0, 0.0, 0.0, 0.0, 0.0, 0.0, 0.0, 0.0, 1.6635876551990054E9, 0.0, 2022-09-19 16:40:55.199
34.0, -18246.84658608992, -19778.611633612112, -30736.375538870758, -17091.52961868401, 187500.0, 187500.0, -24576.279470477042, -31864.333971063374, 0.744, -0.53, 0.47800000000000004, 192.0, 0.0, 0.0, 0.0, 0.0, 0.0, 0.0, 0.0, 0.0, 0.0, 1.6635876552040281E9, 0.0, 2022-09-19 16:40:55.204
35.0, -18265.24207177664, -19783.081982503176, -30729.46884983407, -17089.495609938574, 187500.0, 187500.0, -24631.10829962591, -31868.58080250988, 0.748, -0.532, 0.47400000000000003, 192.0, 23.0, 96.0, 239.0, 96.0, 14.0, 208.0, 0.0, 0.0, 0.0, 1.6635876552080207E9, 0.0, 2022-09-19 16:40:55.208
36.0, -18254.08855129344, -19784.288976703763, -30723.27741661995, -17081.024298790016, 187500.0, 187500.0, -24661.059637196024, -31862.434072784672, 0.748, -0.532, 0.47400000000000003, 192.0, 0.0, 0.0, 0.0, 0.0, 0.0, 0.0, 0.0, 0.0, 0.0, 1.6635876552119975E9, 0.0, 2022-09-19 16:40:55.211
37.0, -18229.300466692504, -19766.988726495354, -30721.55633229689, -17080.57726390091, 187500.0, 187500.0, -24654.68939002626, -31861.674113473193, 0.748, -0.532, 0.47400000000000003, 192.0, 0.0, 0.0, 0.0, 0.0, 0.0, 0.0, 0.0, 0.0, 0.0, 1.6635876552180357E9, 0.0, 2022-09-19 16:40:55.218
38.0, -18235.894231306822, -19790.882741318077, -30730.251160890006, -17092.66955765123, 187500.0, 187500.0, -24620.64768322083, -31872.291192089462, 0.748, -0.532, 0.47400000000000003, 192.0, 0.0, 0.0, 0.0, 0.0, 0.0, 0.0, 0.0, 0.0, 0.0, 1.663587655221042E9, 0.0, 2022-09-19 16:40:55.221
39.0, -18242.353885454402, -19792.670880874502, -30738.253085405006, -17100.62677867732, 187500.0, 187500.0, -24619.57479948697, -31878.281459603484, 0.748, -0.532, 0.47400000000000003, 192.0, 0.0, 0.0, 0.0, 0.0, 0.0, 0.0, 0.0, 0.0, 0.0, 1.6635876552250218E9, 0.0, 2022-09-19 16:40:55.225
40.0, -18234.441367917225, -19776.287052188763, -30727.971282955565, -17094.725918141117, 187500.0, 187500.0, -24673.822483280004, -31865.31744781941, 0.748, -0.532, 0.47400000000000003, 192.0, 0.0, 0.0, 0.0, 0.0, 0.0, 0.0, 0.0, 0.0, 0.0, 1.6635876552280157E9, 0.0, 2022-09-19 16:40:55.228
41.0, -18233.837870816933, -19755.902261245523, -30715.25314036049, -17083.974729058114, 187500.0, 187500.0, -24701.47159117122, -31853.694540702647, 0.748, -0.532, 0.47400000000000003, 192.0, 0.0, 0.0, 0.0, 0.0, 0.0, 0.0, 0.0, 0.0, 0.0, 1.6635876552320864E9, 0.0, 2022-09-19 16:40:55.232
42.0, -18230.88744054883, -19768.978031751878, -30710.067535646864, -17084.198246502667, 187500.0, 187500.0, -24699.97402429271, -31855.572087236895, 0.748, -0.532, 0.47400000000000003, 192.0, 0.0, 0.0, 0.0, 0.0, 0.0, 0.0, 0.0, 0.0, 0.0, 1.6635876552360804E9, 0.0, 2022-09-19 16:40:55.236
43.0, -18215.241219430118, -19779.036316756763, -30714.739050238022, -17091.127287283813, 187500.0, 187500.0, -24666.826387265493, -31862.992866396056, 0.748, -0.532, 0.47400000000000003, 192.0, 0.0, 0.0, 0.0, 0.0, 0.0, 0.0, 0.0, 0.0, 0.0, 1.6635876552400463E9, 0.0, 2022-09-19 16:40:55.240
44.0, -18217.36463515337, -19773.828360298678, -30718.918826451165, -17094.703566396664, 187500.0, 187500.0, -24656.9692679607, -31864.73630246357, 0.748, -0.532, 0.47400000000000003, 192.0, 0.0, 0.0, 0.0, 0.0, 0.0, 0.0, 0.0, 0.0, 0.0, 1.663587655244061E9, 0.0, 2022-09-19 16:40:55.244
45.0, -18239.984600542142, -19779.19277896795, -30713.55440778189, -17087.66276689324, 187500.0, 187500.0, -24709.45116394176, -31857.9190204047, 0.748, -0.532, 0.464, 192.0, 23.0, 96.0, 239.0, 96.0, 14.0, 128.0, 0.0, 0.0, 0.0, 1.6635876552481816E9, 0.0, 2022-09-19 16:40:55.248
46.0, -18250.020533802573, -19789.04989827274, -30713.21913161506, -17088.489781438086, 187500.0, 187500.0, -24745.772748681637, -31859.260125072018, 0.748, -0.532, 0.464, 192.0, 0.0, 0.0, 0.0, 0.0, 0.0, 0.0, 0.0, 0.0, 0.0, 1.6635876552521572E9, 0.0, 2022-09-19 16:40:55.252
47.0, -18246.26544073408, -19811.044014816765, -30718.114163650775, -17092.982482073603, 187500.0, 187500.0, -24738.66489394485, -31863.05992162942, 0.748, -0.532, 0.464, 192.0, 0.0, 0.0, 0.0, 0.0, 0.0, 0.0, 0.0, 0.0, 0.0, 1.6635876552551067E9, 0.0, 2022-09-19 16:40:55.255
48.0, -18231.446234160216, -19805.25491300284, -30727.859524233285, -17098.436307720698, 187500.0, 187500.0, -24698.208236480743, -31862.299962317942, 0.748, -0.532, 0.464, 192.0, 0.0, 0.0, 0.0, 0.0, 0.0, 0.0, 0.0, 0.0, 0.0, 1.6635876552590914E9, 0.0, 2022-09-19 16:40:55.259
49.0, -18235.581306884447, -19796.180104753985, -30726.853695732796, -17094.412993718743, 187500.0, 187500.0, -24686.987660764178, -31856.913191904212, 0.748, -0.532, 0.464, 192.0, 0.0, 0.0, 0.0, 0.0, 0.0, 0.0, 0.0, 0.0, 0.0, 1.6635876552641473E9, 0.0, 2022-09-19 16:40:55.264
50.0, -18234.41901617277, -19783.797238325744, -30714.51553279347, -17079.124400511315, 187500.0, 187500.0, -24733.814565398046, -31845.625560954282, 0.748, -0.532, 0.464, 192.0, 0.0, 0.0, 0.0, 0.0, 0.0, 0.0, 0.0, 0.0, 0.0, 1.6635876552681615E9, 0.0, 2022-09-19 16:40:55.268
51.0, -18238.397626685815, -19767.27929917327, -30721.6010357858, -17081.516037168032, 187500.0, 187500.0, -24767.319830336553, -31841.66930218569, 0.748, -0.532, 0.464, 192.0, 0.0, 0.0, 0.0, 0.0, 0.0, 0.0, 0.0, 0.0, 0.0, 1.6635876552721055E9, 0.0, 2022-09-19 16:40:55.272
52.0, -18233.212021972184, -19768.642755585046, -30724.79733524291, -17084.242949991578, 187500.0, 187500.0, -24758.110911620966, -31844.262104542508, 0.748, -0.532, 0.464, 192.0, 0.0, 0.0, 0.0, 0.0, 0.0, 0.0, 0.0, 0.0, 0.0, 1.6635876552751112E9, 0.0, 2022-09-19 16:40:55.275
53.0, -18225.5006701351, -19827.271381291317, -30734.18506791414, -17097.76575538704, 187500.0, 187500.0, -24717.341329734485, -31854.342741291854, 0.748, -0.532, 0.464, 192.0, 0.0, 0.0, 0.0, 0.0, 0.0, 0.0, 0.0, 0.0, 0.0, 1.6635876552812061E9, 0.0, 2022-09-19 16:40:55.281
54.0, -18238.375274941358, -19837.7319976964, -30738.387195871735, -17106.661749680254, 187500.0, 187500.0, -24701.78451559359, -31863.01521814051, 0.748, -0.532, 0.464, 192.0, 0.0, 0.0, 0.0, 0.0, 0.0, 0.0, 0.0, 0.0, 0.0, 1.6635876552841237E9, 0.0, 2022-09-19 16:40:55.284
55.0, -18212.447251373203, -19742.826490739168, -30728.239503889028, -17094.547104185476, 187500.0, 187500.0, -24737.74847242218, -31849.358302278317, 0.746, -0.534, 0.466, 192.0, 23.0, 80.0, 239.0, 80.0, 14.0, 144.0, 0.0, 0.0, 0.0, 1.6635876552871418E9, 0.0, 2022-09-19 16:40:55.287
56.0, -18209.65328331629, -19763.05481947122, -30728.574780055857, -17094.927083841216, 187500.0, 187500.0, -24766.60457451398, -31849.715930189603, 0.746, -0.534, 0.466, 192.0, 0.0, 0.0, 0.0, 0.0, 0.0, 0.0, 0.0, 0.0, 0.0, 1.6635876552921388E9, 0.0, 2022-09-19 16:40:55.292
57.0, -18216.89524851981, -19788.222883727896, -30729.111221922783, -17098.391604231787, 187500.0, 187500.0, -24762.84948144549, -31851.92875289068, 0.746, -0.534, 0.466, 192.0, 0.0, 0.0, 0.0, 0.0, 0.0, 0.0, 0.0, 0.0, 0.0, 1.6635876552961736E9, 0.0, 2022-09-19 16:40:55.296
58.0, -18207.66397805977, -19783.841941814655, -30731.5028585795, -17099.509191454556, 187500.0, 187500.0, -24722.906914103856, -31852.331084290876, 0.746, -0.534, 0.466, 192.0, 0.0, 0.0, 0.0, 0.0, 0.0, 0.0, 0.0, 0.0, 0.0, 1.6635876553001907E9, 0.0, 2022-09-19 16:40:55.300
59.0, -18201.181972167728, -19777.516398133805, -30735.950855726107, -17099.62095017683, 187500.0, 187500.0, -24703.527951661104, -31854.678017458682, 0.746, -0.534, 0.466, 192.0, 0.0, 0.0, 0.0, 0.0, 0.0, 0.0, 0.0, 0.0, 0.0, 1.6635876553032117E9, 0.0, 2022-09-19 16:40:55.303
60.0, -18220.0021409991, -19791.463886673915, -30725.244370132015, -17091.171990772724, 187500.0, 187500.0, -24748.209088827265, -31844.887953387257, 0.746, -0.534, 0.466, 192.0, 0.0, 0.0, 0.0, 0.0, 0.0, 0.0, 0.0, 0.0, 0.0, 1.663587655307194E9, 0.0, 2022-09-19 16:40:55.307
61.0, -18219.398643898803, -19801.45511644544, -30719.723489251555, -17089.04857504947, 187500.0, 187500.0, -24783.41308634437, -31845.312636531908, 0.746, -0.534, 0.466, 192.0, 0.0, 0.0, 0.0, 0.0, 0.0, 0.0, 0.0, 0.0, 0.0, 1.6635876553111992E9, 0.0, 2022-09-19 16:40:55.311
62.0, -18211.88845776182, -19788.133476750074, -30732.441631846625, -17095.307063496955, 187500.0, 187500.0, -24779.233310131232, -31856.801433181936, 0.746, -0.534, 0.466, 192.0, 0.0, 0.0, 0.0, 0.0, 0.0, 0.0, 0.0, 0.0, 0.0, 1.663587655315228E9, 0.0, 2022-09-19 16:40:55.315
63.0, -18208.356882137883, -19815.424956730003, -30738.610713316288, -17100.693833910685, 187500.0, 187500.0, -24738.977818367224, -31867.01618039801, 0.746, -0.534, 0.466, 192.0, 0.0, 0.0, 0.0, 0.0, 0.0, 0.0, 0.0, 0.0, 0.0, 1.6635876553202229E9, 0.0, 2022-09-19 16:40:55.320
64.0, -18207.7980885265, -19809.05470956024, -30738.878934249755, -17098.05632806496, 187500.0, 187500.0, -24714.79323086658, -31850.87822090128, 0.746, -0.534, 0.466, 192.0, 0.0, 0.0, 0.0, 0.0, 0.0, 0.0, 0.0, 0.0, 0.0, 1.66358765532428E9, 0.0, 2022-09-19 16:40:55.324
65.0, -18214.145983951807, -19793.117915763607, -30731.726376024053, -17086.36636571483, 187500.0, 187500.0, -24758.33442906552, -31842.228095797076, 0.746, -0.532, 0.47200000000000003, 192.0, 23.0, 80.0, 239.0, 96.0, 14.0, 192.0, 0.0, 0.0, 0.0, 1.663587655328267E9, 0.0, 2022-09-19 16:40:55.328
66.0, -18205.875838503343, -19759.612650825104, -30732.50868707999, -17085.896979081273, 187500.0, 187500.0, -24794.030164960644, -31845.893781887746, 0.746, -0.532, 0.47200000000000003, 192.0, 0.0, 0.0, 0.0, 0.0, 0.0, 0.0, 0.0, 0.0, 0.0, 1.6635876553312259E9, 0.0, 2022-09-19 16:40:55.331
67.0, -18207.97690248214, -19774.00717425432, -30732.486335335536, -17092.066060550937, 187500.0, 187500.0, -24791.727935281746, -31851.59347672385, 0.746, -0.532, 0.47200000000000003, 192.0, 0.0, 0.0, 0.0, 0.0, 0.0, 0.0, 0.0, 0.0, 0.0, 1.6635876553353484E9, 0.0, 2022-09-19 16:40:55.335
68.0, -18211.575533339445, -19793.02850878579, -30738.99069297203, -17101.073813566425, 187500.0, 187500.0, -24756.725103464738, -31863.529308262983, 0.746, -0.532, 0.47200000000000003, 192.0, 0.0, 0.0, 0.0, 0.0, 0.0, 0.0, 0.0, 0.0, 0.0, 1.6635876553392606E9, 0.0, 2022-09-19 16:40:55.339
69.0, -18206.188762925718, -19769.82739804118, -30736.42024235967, -17099.509191454556, 187500.0, 187500.0, -24738.307266033564, -31863.68577047417, 0.746, -0.532, 0.47200000000000003, 192.0, 0.0, 0.0, 0.0, 0.0, 0.0, 0.0, 0.0, 0.0, 0.0, 1.6635876553432698E9, 0.0, 2022-09-19 16:40:55.343
70.0, -18213.56483859597, -19772.353145164627, -30728.328910866847, -17094.39064197429, 187500.0, 187500.0, -24781.62494678795, -31856.980247137577, 0.746, -0.532, 0.47200000000000003, 192.0, 0.0, 0.0, 0.0, 0.0, 0.0, 0.0, 0.0, 0.0, 0.0, 1.6635876553481996E9, 0.0, 2022-09-19 16:40:55.348
71.0, -18211.284960661527, -19802.572703668204, -30726.294902121415, -17091.462563450645, 187500.0, 187500.0, -24812.38094715845, -31851.280552301476, 0.746, -0.532, 0.47200000000000003, 192.0, 0.0, 0.0, 0.0, 0.0, 0.0, 0.0, 0.0, 0.0, 0.0, 1.663587655352354E9, 0.0, 2022-09-19 16:40:55.352
72.0, -18210.145021694305, -19806.260741503327, -30730.497030079012, -17092.177819273213, 187500.0, 187500.0, -24808.134115711942, -31852.442843013152, 0.746, -0.532, 0.47200000000000003, 192.0, 0.0, 0.0, 0.0, 0.0, 0.0, 0.0, 0.0, 0.0, 0.0, 1.6635876553563924E9, 0.0, 2022-09-19 16:40:55.356
73.0, -18194.297634875493, -19772.62136609809, -30736.353187126304, -17098.65982516525, 187500.0, 187500.0, -24768.9962111707, -31862.9705146516, 0.746, -0.532, 0.47200000000000003, 192.0, 0.0, 0.0, 0.0, 0.0, 0.0, 0.0, 0.0, 0.0, 0.0, 1.663587655359282E9, 0.0, 2022-09-19 16:40:55.359
74.0, -18195.45992558717, -19766.809912539713, -30746.478527364558, -17104.806554890463, 187500.0, 187500.0, -24741.74943467968, -31864.11045361882, 0.746, -0.532, 0.47200000000000003, 192.0, 0.0, 0.0, 0.0, 0.0, 0.0, 0.0, 0.0, 0.0, 0.0, 1.6635876553632984E9, 0.0, 2022-09-19 16:40:55.363
75.0, -18196.532809321023, -19759.120912447084, -30736.017910959472, -17095.530580941508, 187500.0, 187500.0, -24780.641470031915, -31853.627485469282, 0.746, -0.536, 0.47200000000000003, 192.0, 23.0, 80.0, 239.0, 64.0, 14.0, 192.0, 0.0, 0.0, 0.0, 1.6635876553673208E9, 0.0, 2022-09-19 16:40:55.367
76.0, -18198.142134921807, -19758.763284535802, -30731.07817543485, -17089.3838512163, 187500.0, 187500.0, -24813.87851403696, -31849.02302611149, 0.746, -0.536, 0.47200000000000003, 192.0, 0.0, 0.0, 0.0, 0.0, 0.0, 0.0, 0.0, 0.0, 0.0, 1.6635876553733366E9, 0.0, 2022-09-19 16:40:55.373
77.0, -18206.680501303734, -19789.362822695115, -30730.87700973475, -17088.66859539373, 187500.0, 187500.0, -24814.23614194824, -31850.364130778806, 0.746, -0.536, 0.47200000000000003, 192.0, 0.0, 0.0, 0.0, 0.0, 0.0, 0.0, 0.0, 0.0, 0.0, 1.6635876553773637E9, 0.0, 2022-09-19 16:40:55.377
78.0, -18205.36174838087, -19802.86327634612, -30741.069405206374, -17098.503362954067, 187500.0, 187500.0, -24776.66285951887, -31861.674113473193, 0.746, -0.536, 0.47200000000000003, 192.0, 0.0, 0.0, 0.0, 0.0, 0.0, 0.0, 0.0, 0.0, 0.0, 1.6635876553803058E9, 0.0, 2022-09-19 16:40:55.380
79.0, -18188.419126083747, -19778.231653956373, -30743.818669774377, -17098.793935631984, 187500.0, 187500.0, -24748.365551038452, -31864.06575012991, 0.746, -0.536, 0.47200000000000003, 192.0, 0.0, 0.0, 0.0, 0.0, 0.0, 0.0, 0.0, 0.0, 0.0, 1.6635876553843791E9, 0.0, 2022-09-19 16:40:55.384
80.0, -18188.55323655048, -19780.220959212897, -30729.737070767533, -17083.52769416901, 187500.0, 187500.0, -24785.33533636753, -31854.25333431403, 0.746, -0.536, 0.47200000000000003, 192.0, 0.0, 0.0, 0.0, 0.0, 0.0, 0.0, 0.0, 0.0, 0.0, 1.6635876553873775E9, 0.0, 2022-09-19 16:40:55.387
81.0, -18193.06828893045, -19760.640831070046, -30724.32794860935, -17073.402353930756, 187500.0, 187500.0, -24817.231275705253, -31839.34472076234, 0.746, -0.536, 0.47200000000000003, 192.0, 0.0, 0.0, 0.0, 0.0, 0.0, 0.0, 0.0, 0.0, 0.0, 1.6635876553913481E9, 0.0, 2022-09-19 16:40:55.391
82.0, -18208.4462891157, -19771.99551725334, -30732.17341091316, -17080.66667087873, 187500.0, 187500.0, -24814.593769859526, -31842.183392308165, 0.746, -0.536, 0.47200000000000003, 192.0, 0.0, 0.0, 0.0, 0.0, 0.0, 0.0, 0.0, 0.0, 0.0, 1.6635876553953574E9, 0.0, 2022-09-19 16:40:55.395
83.0, -18213.542486851515, -19787.01588952731, -30741.069405206374, -17092.62485416232, 187500.0, 187500.0, -24774.785312984626, -31850.431186012174, 0.746, -0.536, 0.47200000000000003, 192.0, 0.0, 0.0, 0.0, 0.0, 0.0, 0.0, 0.0, 0.0, 0.0, 1.6635876553993514E9, 0.0, 2022-09-19 16:40:55.399
84.0, -18225.634780601835, -19794.43666868647, -30745.763271541986, -17099.799764132473, 187500.0, 187500.0, -24744.699864947783, -31854.49920350304, 0.746, -0.536, 0.47200000000000003, 192.0, 0.0, 0.0, 0.0, 0.0, 0.0, 0.0, 0.0, 0.0, 0.0, 1.6635876554033444E9, 0.0, 2022-09-19 16:40:55.403
85.0, -18244.946687811218, -19803.891456591067, -30745.249181419516, -17100.58207518841, 187500.0, 187500.0, -24779.076847920045, -31852.889877902257, 0.744, -0.532, 0.47800000000000004, 192.0, 23.0, 64.0, 239.0, 96.0, 14.0, 240.0, 0.0, 0.0, 0.0, 1.66358765540838E9, 0.0, 2022-09-19 16:40:55.408
86.0, -18236.162452240285, -19835.653285462056, -30739.482431350047, -17097.274017009022, 187500.0, 187500.0, -24805.67542382186, -31847.503107488526, 0.744, -0.532, 0.47800000000000004, 192.0, 0.0, 0.0, 0.0, 0.0, 0.0, 0.0, 0.0, 0.0, 0.0, 1.6635876554124193E9, 0.0, 2022-09-19 16:40:55.412
87.0, -18233.07791150545, -19789.563988395214, -30738.476602849558, -17091.19434251718, 187500.0, 187500.0, -24791.012679459178, -31844.798546409434, 0.744, -0.532, 0.47800000000000004, 192.0, 0.0, 0.0, 0.0, 0.0, 0.0, 0.0, 0.0, 0.0, 0.0, 1.6635876554154403E9, 0.0, 2022-09-19 16:40:55.415
88.0, -18209.94385599421, -19764.06064797171, -30739.88476275024, -17090.52379018352, 187500.0, 187500.0, -24742.867021902446, -31847.45840399962, 0.744, -0.532, 0.47800000000000004, 192.0, 0.0, 0.0, 0.0, 0.0, 0.0, 0.0, 0.0, 0.0, 0.0, 1.6635876554193716E9, 0.0, 2022-09-19 16:40:55.419
89.0, -18211.12849845034, -19759.635002569557, -30751.23944893354, -17096.357595486355, 187500.0, 187500.0, -24707.663024385336, -31855.706197703625, 0.744, -0.532, 0.47800000000000004, 192.0, 0.0, 0.0, 0.0, 0.0, 0.0, 0.0, 0.0, 0.0, 0.0, 1.6635876554234216E9, 0.0, 2022-09-19 16:40:55.423
90.0, -18224.94187652372, -19755.790502523247, -30735.950855726107, -17087.394545959778, 187500.0, 187500.0, -24732.47346073073, -31844.440918498152, 0.744, -0.532, 0.47800000000000004, 192.0, 0.0, 0.0, 0.0, 0.0, 0.0, 0.0, 0.0, 0.0, 0.0, 1.6635876554274156E9, 0.0, 2022-09-19 16:40:55.427
91.0, -18224.22662070115, -19764.0159444828, -30723.612692786777, -17082.09718252387, 187500.0, 187500.0, -24760.100216877487, -31837.131898061267, 0.744, -0.532, 0.47800000000000004, 192.0, 0.0, 0.0, 0.0, 0.0, 0.0, 0.0, 0.0, 0.0, 0.0, 1.6635876554314277E9, 0.0, 2022-09-19 16:40:55.431
92.0, -18217.99048399812, -19765.692325316944, -30722.718623008564, -17083.192418002178, 187500.0, 187500.0, -24749.885469661414, -31841.334026018863, 0.744, -0.532, 0.47800000000000004, 192.0, 0.0, 0.0, 0.0, 0.0, 0.0, 0.0, 0.0, 0.0, 0.0, 1.6635876554364314E9, 0.0, 2022-09-19 16:40:55.436
93.0, -18227.31116143598, -19795.956587309433, -30730.6534922902, -17093.965958829638, 187500.0, 187500.0, -24707.484210429695, -31856.30969480392, 0.744, -0.532, 0.47800000000000004, 192.0, 0.0, 0.0, 0.0, 0.0, 0.0, 0.0, 0.0, 0.0, 0.0, 1.6635876554393969E9, 0.0, 2022-09-19 16:40:55.439
94.0, -18216.805841541987, -19774.47656088788, -30729.334739367336, -17088.065098293435, 187500.0, 187500.0, -24663.987715719668, -31849.44770925614, 0.744, -0.532, 0.47800000000000004, 192.0, 0.0, 0.0, 0.0, 0.0, 0.0, 0.0, 0.0, 0.0, 0.0, 1.663587655444452E9, 0.0, 2022-09-19 16:40:55.444
95.0, -18218.817498542965, -19750.33667687615, -30728.70889052259, -17080.398449945267, 187500.0, 187500.0, -24689.111076487432, -31843.92682837568, 0.746, -0.534, 0.47600000000000003, 192.0, 23.0, 80.0, 239.0, 80.0, 14.0, 224.0, 0.0, 0.0, 0.0, 1.6635876554474356E9, 0.0, 2022-09-19 16:40:55.447
96.0, -18227.333513180438, -19771.839055042157, -30735.03443420344, -17085.874627336816, 187500.0, 187500.0, -24725.432661227307, -31847.59251446635, 0.746, -0.534, 0.47600000000000003, 192.0, 0.0, 0.0, 0.0, 0.0, 0.0, 0.0, 0.0, 0.0, 0.0, 1.66358765545246E9, 0.0, 2022-09-19 16:40:55.452
97.0, -18229.99337077062, -19820.387043999082, -30737.94016098263, -17087.01456630404, 187500.0, 187500.0, -24720.783498380602, -31847.927790633177, 0.746, -0.534, 0.47600000000000003, 192.0, 0.0, 0.0, 0.0, 0.0, 0.0, 0.0, 0.0, 0.0, 0.0, 1.6635876554563994E9, 0.0, 2022-09-19 16:40:55.456
98.0, -18218.728091565143, -19803.466773446416, -30746.769100042475, -17096.357595486355, 187500.0, 187500.0, -24671.78847453457, -31856.510860504015, 0.746, -0.534, 0.47600000000000003, 192.0, 0.0, 0.0, 0.0, 0.0, 0.0, 0.0, 0.0, 0.0, 0.0, 1.663587655459542E9, 0.0, 2022-09-19 16:40:55.459
99.0, -18204.75825128058, -19759.545595591735, -30746.836155275843, -17090.970825072625, 187500.0, 187500.0, -24624.380424544863, -31854.02981686948, 0.746, -0.534, 0.47600000000000003, 192.0, 0.0, 0.0, 0.0, 0.0, 0.0, 0.0, 0.0, 0.0, 0.0, 1.6635876554645095E9, 0.0, 2022-09-19 16:40:55.464
100.0, -18225.45596664619, -19777.874026045087, -30747.774928542964, -17089.741479127584, 187500.0, 187500.0, -24651.157814402322, -31852.442843013152, 0.746, -0.534, 0.47600000000000003, 192.0, 0.0, 0.0, 0.0, 0.0, 0.0, 0.0, 0.0, 0.0, 0.0, 1.6635876554674733E9, 0.0, 2022-09-19 16:40:55.467
101.0, -18239.068179019472, -19802.63975890157, -30749.42895763266, -17092.691909395686, 187500.0, 187500.0, -24684.752486318648, -31855.43797677016, 0.746, -0.534, 0.47600000000000003, 192.0, 0.0, 0.0, 0.0, 0.0, 0.0, 0.0, 0.0, 0.0, 0.0, 1.6635876554705184E9, 0.0, 2022-09-19 16:40:55.470
102.0, -18230.060426003984, -19773.649546343036, -30748.333722154348, -17091.261397750546, 187500.0, 187500.0, -24675.275346669598, -31856.287343059463, 0.746, -0.534, 0.47600000000000003, 192.0, 0.0, 0.0, 0.0, 0.0, 0.0, 0.0, 0.0, 0.0, 0.0, 1.6635876554755592E9, 0.0, 2022-09-19 16:40:55.475
103.0, -18214.011873485073, -19772.24138644235, -30752.401739645215, -17096.938740842194, 187500.0, 187500.0, -24630.59420950344, -31862.143500106755, 0.746, -0.534, 0.47600000000000003, 192.0, 0.0, 0.0, 0.0, 0.0, 0.0, 0.0, 0.0, 0.0, 0.0, 1.6635876554795613E9, 0.0, 2022-09-19 16:40:55.479
104.0, -18214.704777563187, -19808.607674671137, -30749.205440188103, -17102.169049044736, 187500.0, 187500.0, -24588.43881946073, -31864.333971063374, 0.746, -0.534, 0.47600000000000003, 192.0, 0.0, 0.0, 0.0, 0.0, 0.0, 0.0, 0.0, 0.0, 0.0, 1.6635876554834602E9, 0.0, 2022-09-19 16:40:55.483
105.0, -18234.70958885069, -19837.061445362742, -30737.381367371247, -17092.62485416232, 187500.0, 187500.0, -24612.757517428105, -31853.78394768047, 0.74, -0.528, 0.47600000000000003, 192.0, 23.0, 32.0, 239.0, 128.0, 14.0, 224.0, 0.0, 0.0, 0.0, 1.6635876554875703E9, 0.0, 2022-09-19 16:40:55.487
106.0, -18239.917545308774, -19799.86814258911, -30730.720547523564, -17084.66763313623, 187500.0, 187500.0, -24644.87697421038, -31846.34081677685, 0.74, -0.528, 0.47600000000000003, 192.0, 0.0, 0.0, 0.0, 0.0, 0.0, 0.0, 0.0, 0.0, 0.0, 1.6635876554914653E9, 0.0, 2022-09-19 16:40:55.491
107.0, -18226.595905613412, -19746.402769852015, -30734.118012680774, -17087.595711659877, 187500.0, 187500.0, -24634.103433382923, -31853.001636624533, 0.74, -0.528, 0.47600000000000003, 192.0, 0.0, 0.0, 0.0, 0.0, 0.0, 0.0, 0.0, 0.0, 0.0, 1.66358765549567E9, 0.0, 2022-09-19 16:40:55.495
108.0, -18208.356882137883, -19742.267697127783, -30730.94406496812, -17086.880455837305, 187500.0, 187500.0, -24587.745915382617, -31842.339854519352, 0.74, -0.528, 0.47600000000000003, 192.0, 0.0, 0.0, 0.0, 0.0, 0.0, 0.0, 0.0, 0.0, 0.0, 1.6635876554986095E9, 0.0, 2022-09-19 16:40:55.498
109.0, -18216.872896775352, -19777.00230801133, -30744.533925596945, -17101.274979266524, 187500.0, 187500.0, -24550.306743419977, -31857.427282026685, 0.74, -0.528, 0.47600000000000003, 192.0, 0.0, 0.0, 0.0, 0.0, 0.0, 0.0, 0.0, 0.0, 0.0, 1.66358765550358E9, 0.0, 2022-09-19 16:40:55.503
110.0, -18232.966152783174, -19797.409450699026, -30743.639855818732, -17097.944569342682, 187500.0, 187500.0, -24572.77024659756, -31853.58278198037, 0.74, -0.528, 0.47600000000000003, 192.0, 0.0, 0.0, 0.0, 0.0, 0.0, 0.0, 0.0, 0.0, 0.0, 1.6635876555076096E9, 0.0, 2022-09-19 16:40:55.507
111.0, -18240.118711008872, -19812.78745088428, -30733.067480691374, -17087.595711659877, 187500.0, 187500.0, -24599.30176726601, -31847.748976677536, 0.74, -0.528, 0.47600000000000003, 192.0, 0.0, 0.0, 0.0, 0.0, 0.0, 0.0, 0.0, 0.0, 0.0, 1.6635876555116525E9, 0.0, 2022-09-19 16:40:55.511
112.0, -18236.318914451473, -19802.215075756918, -30735.973207470564, -17092.5354471845, 187500.0, 187500.0, -24593.087982307432, -31854.789776180958, 0.74, -0.528, 0.47600000000000003, 192.0, 0.0, 0.0, 0.0, 0.0, 0.0, 0.0, 0.0, 0.0, 0.0, 1.66358765551562E9, 0.0, 2022-09-19 16:40:55.515
113.0, -18216.6493793308, -19791.91092156302, -30740.756480784, -17101.476144966622, 187500.0, 187500.0, -24551.312571920465, -31860.668284972704, 0.74, -0.528, 0.47600000000000003, 192.0, 0.0, 0.0, 0.0, 0.0, 0.0, 0.0, 0.0, 0.0, 0.0, 1.6635876555196254E9, 0.0, 2022-09-19 16:40:55.519
114.0, -18221.566763110968, -19800.225770500394, -30750.61360008879, -17106.438232235698, 187500.0, 187500.0, -24509.89478944478, -31863.46225302962, 0.74, -0.528, 0.47600000000000003, 192.0, 0.0, 0.0, 0.0, 0.0, 0.0, 0.0, 0.0, 0.0, 0.0, 1.6635876555235493E9, 0.0, 2022-09-19 16:40:55.523
115.0, -18231.021551015565, -19779.528055134782, -30744.198649430116, -17100.447964721676, 187500.0, 187500.0, -24528.62555129833, -31858.455462271628, 0.74, -0.528, 0.47600000000000003, 192.0, 0.0, 0.0, 0.0, 0.0, 0.0, 0.0, 0.0, 0.0, 0.0, 1.6635876555286913E9, 0.0, 2022-09-19 16:40:55.528
116.0, -18235.491899906625, -19766.407581139516, -30737.51547783798, -17091.015528561536, 187500.0, 187500.0, -24565.215356971665, -31854.856831414323, 0.746, -0.538, 0.48, 192.0, 23.0, 80.0, 239.0, 48.0, 15.0, 0.0, 0.0, 0.0, 0.0, 1.6635876555316288E9, 0.0, 2022-09-19 16:40:55.531
117.0, -18226.059463746486, -19784.512494148315, -30735.41441385918, -17086.701641881664, 187500.0, 187500.0, -24564.611859871373, -31849.201840067133, 0.746, -0.538, 0.48, 192.0, 0.0, 0.0, 0.0, 0.0, 0.0, 0.0, 0.0, 0.0, 0.0, 1.663587655536608E9, 0.0, 2022-09-19 16:40:55.536
118.0, -18221.18678345523, -19802.282130990283, -30749.630123332754, -17097.05049956447, 187500.0, 187500.0, -24525.27278963003, -31862.45642452913, 0.746, -0.538, 0.48, 192.0, 0.0, 0.0, 0.0, 0.0, 0.0, 0.0, 0.0, 0.0, 0.0, 1.6635876555396457E9, 0.0, 2022-09-19 16:40:55.539
119.0, -18212.17903043974, -19781.360898180115, -30749.496012866024, -17095.86585710834, 187500.0, 187500.0, -24479.205844307646, -31863.618715240806, 0.746, -0.538, 0.48, 192.0, 0.0, 0.0, 0.0, 0.0, 0.0, 0.0, 0.0, 0.0, 0.0, 1.6635876555436206E9, 0.0, 2022-09-19 16:40:55.543
120.0, -18227.691141091724, -19779.572758623694, -30749.741882055034, -17092.08841229539, 187500.0, 187500.0, -24501.691699229683, -31862.434072784672, 0.746, -0.538, 0.48, 192.0, 0.0, 0.0, 0.0, 0.0, 0.0, 0.0, 0.0, 0.0, 0.0, 1.663587655547619E9, 0.0, 2022-09-19 16:40:55.547
121.0, -18224.6513038458, -19785.518322648804, -30745.048015719418, -17081.71720286813, 187500.0, 187500.0, -24536.783938024517, -31852.554601735428, 0.746, -0.538, 0.48, 192.0, 0.0, 0.0, 0.0, 0.0, 0.0, 0.0, 0.0, 0.0, 0.0, 1.663587655551617E9, 0.0, 2022-09-19 16:40:55.551
122.0, -18209.07213796045, -19791.665052374014, -30741.65055056221, -17077.492723166077, 187500.0, 187500.0, -24534.168783923244, -31847.43605225516, 0.746, -0.538, 0.48, 192.0, 0.0, 0.0, 0.0, 0.0, 0.0, 0.0, 0.0, 0.0, 0.0, 1.663587655554678E9, 0.0, 2022-09-19 16:40:55.554
123.0, -18208.8486205159, -19791.15096225154, -30749.674826821665, -17088.959168071648, 187500.0, 187500.0, -24498.89773117277, -31856.197936081644, 0.746, -0.538, 0.48, 192.0, 0.0, 0.0, 0.0, 0.0, 0.0, 0.0, 0.0, 0.0, 0.0, 1.663587655559638E9, 0.0, 2022-09-19 16:40:55.559
124.0, -18202.27720764604, -19768.978031751878, -30753.631085590256, -17096.648168164276, 187500.0, 187500.0, -24458.50812894203, -31858.634276227272, 0.746, -0.538, 0.48, 192.0, 0.0, 0.0, 0.0, 0.0, 0.0, 0.0, 0.0, 0.0, 0.0, 1.6635876555636475E9, 0.0, 2022-09-19 16:40:55.563
125.0, -18222.03614974453, -19807.624197915102, -30754.346341412827, -17099.33037749891, 187500.0, 187500.0, -24480.211672808135, -31858.813090182914, 0.746, -0.538, 0.48, 192.0, 0.0, 0.0, 0.0, 0.0, 0.0, 0.0, 0.0, 0.0, 0.0, 1.6635876555676553E9, 0.0, 2022-09-19 16:40:55.567
126.0, -18241.549222654012, -19804.025567057797, -30745.919733753173, -17094.412993718743, 187500.0, 187500.0, -24514.879228458314, -31853.560430235917, 0.74, -0.53, 0.482, 192.0, 23.0, 32.0, 239.0, 112.0, 15.0, 16.0, 0.0, 0.0, 0.0, 1.6635876555716412E9, 0.0, 2022-09-19 16:40:55.571
127.0, -18239.51521390858, -19770.7661713083, -30746.187954686637, -17094.301234996467, 187500.0, 187500.0, -24513.716937746638, -31858.701331460637, 0.74, -0.53, 0.482, 192.0, 0.0, 0.0, 0.0, 0.0, 0.0, 0.0, 0.0, 0.0, 0.0, 1.6635876555756369E9, 0.0, 2022-09-19 16:40:55.575
128.0, -18240.923373809263, -19768.419238140494, -30744.22100117457, -17089.607368660854, 187500.0, 187500.0, -24476.501283228554, -31856.577915737384, 0.74, -0.53, 0.482, 192.0, 0.0, 0.0, 0.0, 0.0, 0.0, 0.0, 0.0, 0.0, 0.0, 1.663587655578698E9, 0.0, 2022-09-19 16:40:55.578
129.0, -18256.815464116986, -19799.309348977727, -30755.55333561341, -17098.57041818743, 187500.0, 187500.0, -24434.03296876347, -31863.73047396308, 0.74, -0.53, 0.482, 192.0, 0.0, 0.0, 0.0, 0.0, 0.0, 0.0, 0.0, 0.0, 0.0, 1.6635876555827048E9, 0.0, 2022-09-19 16:40:55.582
130.0, -18268.393667744836, -19813.30154100675, -30753.027588489964, -17093.854200107362, 187500.0, 187500.0, -24455.065960295913, -31862.81405244041, 0.74, -0.53, 0.482, 192.0, 0.0, 0.0, 0.0, 0.0, 0.0, 0.0, 0.0, 0.0, 0.0, 1.6635876555866756E9, 0.0, 2022-09-19 16:40:55.586
131.0, -18257.642478661834, -19799.86814258911, -30740.063576705885, -17081.67249937922, 187500.0, 187500.0, -24493.08627761439, -31852.666360457704, 0.74, -0.53, 0.482, 192.0, 0.0, 0.0, 0.0, 0.0, 0.0, 0.0, 0.0, 0.0, 0.0, 1.6635876555916903E9, 0.0, 2022-09-19 16:40:55.591
132.0, -18245.66194363379, -19782.09850574714, -30737.51547783798, -17079.906711567248, 187500.0, 187500.0, -24497.71308871664, -31852.264029057507, 0.74, -0.53, 0.482, 192.0, 0.0, 0.0, 0.0, 0.0, 0.0, 0.0, 0.0, 0.0, 0.0, 1.6635876555956888E9, 0.0, 2022-09-19 16:40:55.595
133.0, -18255.161435027294, -19820.409395743536, -30746.70204480911, -17093.116592540337, 187500.0, 187500.0, -24465.75009414555, -31860.422415783694, 0.74, -0.53, 0.482, 192.0, 0.0, 0.0, 0.0, 0.0, 0.0, 0.0, 0.0, 0.0, 0.0, 1.663587655599707E9, 0.0, 2022-09-19 16:40:55.599
134.0, -18260.52585369657, -19835.519174995326, -30756.089777480338, -17101.744365900086, 187500.0, 187500.0, -24416.620959832784, -31865.898593175247, 0.74, -0.53, 0.482, 192.0, 0.0, 0.0, 0.0, 0.0, 0.0, 0.0, 0.0, 0.0, 0.0, 1.6635876556027558E9, 0.0, 2022-09-19 16:40:55.602
135.0, -18257.821292617475, -19785.58537788217, -30749.89834426622, -17090.501438439063, 187500.0, 187500.0, -24427.908590782714, -31855.63914247026, 0.74, -0.53, 0.482, 192.0, 0.0, 0.0, 0.0, 0.0, 0.0, 0.0, 0.0, 0.0, 0.0, 1.663587655606707E9, 0.0, 2022-09-19 16:40:55.606
136.0, -18254.379123971357, -19753.66708679999, -30730.117050423272, -17072.977670786106, 187500.0, 187500.0, -24464.006658078037, -31842.429261497175, 0.738, -0.522, 0.482, 192.0, 23.0, 16.0, 239.0, 176.0, 15.0, 16.0, 0.0, 0.0, 0.0, 1.6635876556127284E9, 0.0, 2022-09-19 16:40:55.612
137.0, -18246.064275033987, -19726.82264170917, -30733.536867324936, -17070.541330640477, 187500.0, 187500.0, -24465.28070751199, -31844.575028964882, 0.738, -0.522, 0.482, 192.0, 0.0, 0.0, 0.0, 0.0, 0.0, 0.0, 0.0, 0.0, 0.0, 1.6635876556167564E9, 0.0, 2022-09-19 16:40:55.616
138.0, -18233.636705116834, -19728.29785684322, -30739.661245305688, -17071.725973096607, 187500.0, 187500.0, -24427.796832060438, -31853.15809883572, 0.738, -0.522, 0.482, 192.0, 0.0, 0.0, 0.0, 0.0, 0.0, 0.0, 0.0, 0.0, 0.0, 1.663587655619759E9, 0.0, 2022-09-19 16:40:55.619
139.0, -18237.32474295196, -19767.078133473176, -30747.685521565145, -17080.733726112096, 187500.0, 187500.0, -24378.622994258763, -31861.092968117355, 0.738, -0.522, 0.482, 192.0, 0.0, 0.0, 0.0, 0.0, 0.0, 0.0, 0.0, 0.0, 0.0, 1.663587655624768E9, 0.0, 2022-09-19 16:40:55.624
140.0, -18258.04481006203, -19782.09850574714, -30754.6592658352, -17089.786182616495, 187500.0, 187500.0, -24394.000994444013, -31865.9209449197, 0.738, -0.522, 0.482, 192.0, 0.0, 0.0, 0.0, 0.0, 0.0, 0.0, 0.0, 0.0, 0.0, 1.6635876556287608E9, 0.0, 2022-09-19 16:40:55.628
141.0, -18250.534623925047, -19770.542653863748, -30739.594190072323, -17081.47133367912, 187500.0, 187500.0, -24432.960085029616, -31860.869450672802, 0.738, -0.522, 0.482, 192.0, 0.0, 0.0, 0.0, 0.0, 0.0, 0.0, 0.0, 0.0, 0.0, 1.6635876556317852E9, 0.0, 2022-09-19 16:40:55.631
142.0, -18254.04384780453, -19793.00615704133, -30743.058710462894, -17089.607368660854, 187500.0, 187500.0, -24436.581067631374, -31869.65368624374, 0.738, -0.522, 0.482, 192.0, 0.0, 0.0, 0.0, 0.0, 0.0, 0.0, 0.0, 0.0, 0.0, 1.6635876556347857E9, 0.0, 2022-09-19 16:40:55.634
143.0, -18245.03609478904, -19776.979956266878, -30741.739957540034, -17085.874627336816, 187500.0, 187500.0, -24394.626843288763, -31865.630372241783, 0.738, -0.522, 0.482, 192.0, 0.0, 0.0, 0.0, 0.0, 0.0, 0.0, 0.0, 0.0, 0.0, 1.6635876556387582E9, 0.0, 2022-09-19 16:40:55.638
144.0, -18253.88738559334, -19792.939101807966, -30747.93139075415, -17090.47908669461, 187500.0, 187500.0, -24342.793147896904, -31868.759616465526, 0.738, -0.522, 0.482, 192.0, 0.0, 0.0, 0.0, 0.0, 0.0, 0.0, 0.0, 0.0, 0.0, 1.6635876556428292E9, 0.0, 2022-09-19 16:40:55.642
145.0, -18246.980696556653, -19776.555273122227, -30738.722472038568, -17083.751211613562, 187500.0, 187500.0, -24352.2479358015, -31862.724645462593, 0.738, -0.522, 0.482, 192.0, 0.0, 0.0, 0.0, 0.0, 0.0, 0.0, 0.0, 0.0, 0.0, 1.6635876556467743E9, 0.0, 2022-09-19 16:40:55.646
146.0, -18240.74455985362, -19770.363839908106, -30731.88283823524, -17078.00681328855, 187500.0, 187500.0, -24390.26825311998, -31858.388407038263, 0.738, -0.53, 0.484, 192.0, 23.0, 16.0, 239.0, 112.0, 15.0, 32.0, 0.0, 0.0, 0.0, 1.6635876556518242E9, 0.0, 2022-09-19 16:40:55.651
147.0, -18229.211059714682, -19765.66997357249, -30735.257951647993, -17081.940720312683, 187500.0, 187500.0, -24392.794000243426, -31861.718816962104, 0.738, -0.53, 0.484, 192.0, 0.0, 0.0, 0.0, 0.0, 0.0, 0.0, 0.0, 0.0, 0.0, 1.663587655655879E9, 0.0, 2022-09-19 16:40:55.655
148.0, -18233.99433302812, -19793.497895419347, -30746.70204480911, -17095.95526408616, 187500.0, 187500.0, -24362.708552206583, -31869.608982754828, 0.738, -0.53, 0.484, 192.0, 0.0, 0.0, 0.0, 0.0, 0.0, 0.0, 0.0, 0.0, 0.0, 1.6635876556587636E9, 0.0, 2022-09-19 16:40:55.658
149.0, -18238.598792385914, -19791.888569818566, -30754.458100135103, -17100.649130421774, 187500.0, 187500.0, -24311.85833357076, -31875.331029335386, 0.738, -0.53, 0.484, 192.0, 0.0, 0.0, 0.0, 0.0, 0.0, 0.0, 0.0, 0.0, 0.0, 1.663587655662862E9, 0.0, 2022-09-19 16:40:55.662
150.0, -18245.66194363379, -19769.62623234108, -30754.18987920164, -17091.887246595295, 187500.0, 187500.0, -24321.62604589773, -31866.859718186824, 0.738, -0.53, 0.484, 192.0, 0.0, 0.0, 0.0, 0.0, 0.0, 0.0, 0.0, 0.0, 0.0, 1.6635876556669388E9, 0.0, 2022-09-19 16:40:55.666
151.0, -18255.362600727392, -19788.20053198344, -30748.110204709796, -17089.629720405308, 187500.0, 187500.0, -24360.07104636086, -31859.953029150132, 0.738, -0.53, 0.484, 192.0, 0.0, 0.0, 0.0, 0.0, 0.0, 0.0, 0.0, 0.0, 0.0, 1.6635876556709187E9, 0.0, 2022-09-19 16:40:55.670
152.0, -18259.363562984894, -19797.54356116576, -30749.540716354935, -17087.975691315616, 187500.0, 187500.0, -24360.87570916125, -31862.791700695958, 0.738, -0.53, 0.484, 192.0, 0.0, 0.0, 0.0, 0.0, 0.0, 0.0, 0.0, 0.0, 0.0, 1.6635876556748855E9, 0.0, 2022-09-19 16:40:55.674
153.0, -18257.66483040629, -19788.893436061553, -30758.928449026163, -17087.886284337794, 187500.0, 187500.0, -24326.76694712245, -31860.82474718389, 0.738, -0.53, 0.484, 192.0, 0.0, 0.0, 0.0, 0.0, 0.0, 0.0, 0.0, 0.0, 0.0, 1.6635876556798782E9, 0.0, 2022-09-19 16:40:55.679
154.0, -18245.751350611612, -19790.882741318077, -30758.593172859335, -17095.41882221923, 187500.0, 187500.0, -24272.452208096052, -31867.753787965037, 0.738, -0.53, 0.484, 192.0, 0.0, 0.0, 0.0, 0.0, 0.0, 0.0, 0.0, 0.0, 0.0, 1.6635876556839273E9, 0.0, 2022-09-19 16:40:55.683
155.0, -18264.079781064964, -19800.918674578512, -30755.352169913313, -17093.071889051425, 187500.0, 187500.0, -24279.157731432646, -31867.329104820386, 0.738, -0.53, 0.484, 192.0, 0.0, 0.0, 0.0, 0.0, 0.0, 0.0, 0.0, 0.0, 0.0, 1.6635876556869044E9, 0.0, 2022-09-19 16:40:55.686
156.0, -18260.257632763103, -19752.035409454755, -30745.830326775354, -17079.929063311705, 187500.0, 187500.0, -24313.467659171543, -31857.762558193514, 0.736, -0.536, 0.484, 192.0, 23.0, 0.0, 239.0, 64.0, 15.0, 32.0, 0.0, 0.0, 0.0, 1.6635876556908524E9, 0.0, 2022-09-19 16:40:55.690
157.0, -18252.747446626123, -19745.016961695786, -30742.879896507253, -17076.419839432223, 187500.0, 187500.0, -24310.91956030364, -31855.39327328125, 0.736, -0.536, 0.484, 192.0, 0.0, 0.0, 0.0, 0.0, 0.0, 0.0, 0.0, 0.0, 0.0, 1.663587655694907E9, 0.0, 2022-09-19 16:40:55.694
158.0, -18256.055504805507, -19778.701040589935, -30752.982885001053, -17086.76869711503, 187500.0, 187500.0, -24274.37445811921, -31860.53417450597, 0.736, -0.536, 0.484, 192.0, 0.0, 0.0, 0.0, 0.0, 0.0, 0.0, 0.0, 0.0, 0.0, 1.6635876556988893E9, 0.0, 2022-09-19 16:40:55.698
159.0, -18271.969946857687, -19792.670880874502, -30765.18693747365, -17099.66565366574, 187500.0, 187500.0, -24219.947960370537, -31871.06184614442, 0.736, -0.536, 0.484, 192.0, 0.0, 0.0, 0.0, 0.0, 0.0, 0.0, 0.0, 0.0, 0.0, 1.6635876557048955E9, 0.0, 2022-09-19 16:40:55.704
160.0, -18278.563711472, -19793.96728205291, -30761.498899638525, -17098.2351420206, 187500.0, 187500.0, -24223.345425527743, -31870.056017643932, 0.736, -0.536, 0.484, 192.0, 0.0, 0.0, 0.0, 0.0, 0.0, 0.0, 0.0, 0.0, 0.0, 1.6635876557088914E9, 0.0, 2022-09-19 16:40:55.708
161.0, -18256.211967016694, -19755.477578100872, -30750.390082644237, -17085.405240703254, 187500.0, 187500.0, -24255.084902654282, -31860.98120939508, 0.736, -0.536, 0.484, 192.0, 0.0, 0.0, 0.0, 0.0, 0.0, 0.0, 0.0, 0.0, 0.0, 1.663587655712872E9, 0.0, 2022-09-19 16:40:55.712
