%OpenBCI Raw EEG Data
%Number of channels = 8
%Sample Rate = 250 Hz
%Board = OpenBCI_GUI$BoardCytonSerial
Sample Index, EXG Channel 0, EXG Channel 1, EXG Channel 2, EXG Channel 3, EXG Channel 4, EXG Channel 5, EXG Channel 6, EXG Channel 7, Accel Channel 0, Accel Channel 1, Accel Channel 2, Other, Other, Other, Other, Other, Other, Other, Analog Channel 0, Analog Channel 1, Analog Channel 2, Timestamp, Other, Timestamp (Formatted)
10.0, -3505.1111585034323, 22550.876146659393, -20956.079179773235, -36480.2597737622, -187500.02235174447, -187500.02235174447, 4771.762165041228, -16498.78370747372, 0.0, 0.0, 0.0, 192.0, 0.0, 0.0, 0.0, 0.0, 0.0, 0.0, 0.0, 0.0, 0.0, 1.66359056570968E9, 0.0, 2022-09-19 17:29:25.709
11.0, -3514.7224086192145, 22548.84213791396, -20976.53102594984, -36477.89048884994, -187500.02235174447, -187500.02235174447, 4767.157705683435, -16521.828356007143, 0.0, 0.0, 0.0, 192.0, 0.0, 0.0, 0.0, 0.0, 0.0, 0.0, 0.0, 0.0, 0.0, 1.663590565709706E9, 0.0, 2022-09-19 17:29:25.709
12.0, -3535.442475729284, 22552.060789115523, -21014.97602641297, -36453.482383904746, -187500.02235174447, -187500.02235174447, 4751.89146422046, -16562.508530915802, 0.624, -0.796, 0.08600000000000001, 192.0, 19.0, 128.0, 231.0, 32.0, 2.0, 176.0, 0.0, 0.0, 0.0, 1.6635905657097213E9, 0.0, 2022-09-19 17:29:25.709
0.0, 0.0, 0.0, 0.0, 0.0, 0.0, 0.0, 0.0, 0.0, 0.624, -0.796, 0.08600000000000001, 192.0, 0.0, 0.0, 0.0, 0.0, 0.0, 0.0, 0.0, 0.0, 0.0, 1.663590565774728E9, 0.0, 2022-09-19 17:29:25.774
1.0, -1964.226599243474, 10853.24714818563, -20935.18029870752, -40212.37524895373, -187500.02235174447, -187500.02235174447, 6186.962865228995, -19962.834711412754, 0.63, -0.792, 0.108, 192.0, 19.0, 176.0, 231.0, 64.0, 3.0, 96.0, 0.0, 0.0, 0.0, 1.6635905657917616E9, 0.0, 2022-09-19 17:29:25.791
2.0, -1761.5856840116603, 10987.22350445074, -21104.22654202301, -40296.395456361235, -187500.02235174447, -187500.02235174447, 6404.8700219237835, -20014.511944593425, 0.63, -0.792, 0.108, 192.0, 0.0, 0.0, 0.0, 0.0, 0.0, 0.0, 0.0, 0.0, 0.0, 1.66359056579477E9, 0.0, 2022-09-19 17:29:25.794
3.0, -1947.3063286908066, 11013.12917627444, -22002.25257900388, -40078.93533455555, -187500.02235174447, -187500.02235174447, 6231.5322436728775, -20826.483765421362, 0.63, -0.792, 0.108, 192.0, 0.0, 0.0, 0.0, 0.0, 0.0, 0.0, 0.0, 0.0, 0.0, 1.6635905657977517E9, 0.0, 2022-09-19 17:29:25.797
4.0, -2519.8909664024077, 10886.595950912948, -23175.652107674137, -39661.13652719695, -187500.02235174447, -187500.02235174447, 5693.861030800465, -21965.953346008464, 0.63, -0.792, 0.108, 192.0, 0.0, 0.0, 0.0, 0.0, 0.0, 0.0, 0.0, 0.0, 0.0, 1.6635905658028073E9, 0.0, 2022-09-19 17:29:25.802
5.0, -2553.7315075077427, 10873.833104828967, -22233.771948071953, -39795.58227009562, -187500.02235174447, -187500.02235174447, 5640.082733640997, -21210.66554911918, 0.63, -0.792, 0.108, 192.0, 0.0, 0.0, 0.0, 0.0, 0.0, 0.0, 0.0, 0.0, 0.0, 1.663590565805754E9, 0.0, 2022-09-19 17:29:25.805
6.0, -1975.938913338055, 11062.23595884275, -20973.401781726097, -40230.949548596094, -187500.02235174447, -187500.02235174447, 6149.367231055168, -19984.471200045493, 0.63, -0.792, 0.108, 192.0, 0.0, 0.0, 0.0, 0.0, 0.0, 0.0, 0.0, 0.0, 0.0, 1.6635905658097205E9, 0.0, 2022-09-19 17:29:25.809
7.0, -1712.724770632359, 11216.17242290645, -21151.142853634698, -40316.7131920711, -187500.02235174447, -187500.02235174447, 6377.0421000769265, -20064.35633472876, 0.63, -0.792, 0.108, 192.0, 0.0, 0.0, 0.0, 0.0, 0.0, 0.0, 0.0, 0.0, 0.0, 1.6635905658137903E9, 0.0, 2022-09-19 17:29:25.813
8.0, -1860.8050776487682, 11254.37155418057, -22052.767521472877, -40101.15296854413, -187500.02235174447, -187500.02235174447, 6204.665446837598, -20886.52055102832, 0.6, -0.772, 0.11800000000000001, 192.0, 18.0, 192.0, 231.0, 224.0, 3.0, 176.0, 0.0, 0.0, 0.0, 1.6635905658178153E9, 0.0, 2022-09-19 17:29:25.817
9.0, -2501.853108626975, 11120.886936293477, -23222.389605330183, -39687.73510309876, -187500.02235174447, -187500.02235174447, 5669.207056666262, -22027.44299500501, 0.6, -0.772, 0.11800000000000001, 192.0, 0.0, 0.0, 0.0, 0.0, 0.0, 0.0, 0.0, 0.0, 0.0, 1.6635905658218088E9, 0.0, 2022-09-19 17:29:25.821
10.0, -2561.040527944628, 11112.683846078378, -22257.911832083682, -39823.991337298314, -187500.02235174447, -187500.02235174447, 5636.618213250425, -21265.762599201513, 0.6, -0.772, 0.11800000000000001, 192.0, 0.0, 0.0, 0.0, 0.0, 0.0, 0.0, 0.0, 0.0, 0.0, 1.663590565825807E9, 0.0, 2022-09-19 17:29:25.825
11.0, -1959.9350643080552, 11299.991464613851, -21004.29189256333, -40257.25755181999, -187500.02235174447, -187500.02235174447, 6153.681117735043, -20045.357351941748, 0.6, -0.772, 0.11800000000000001, 192.0, 0.0, 0.0, 0.0, 0.0, 0.0, 0.0, 0.0, 0.0, 0.0, 1.663590565830943E9, 0.0, 2022-09-19 17:29:25.830
12.0, -1696.8326803246357, 11445.568376251267, -21179.641327815214, -40336.53918940296, -187500.02235174447, -187500.02235174447, 6379.0984605668145, -20107.65166373869, 0.6, -0.772, 0.11800000000000001, 192.0, 0.0, 0.0, 0.0, 0.0, 0.0, 0.0, 0.0, 0.0, 0.0, 1.6635905658338065E9, 0.0, 2022-09-19 17:29:25.833
13.0, -1910.7835782508348, 11469.730612007454, -22080.729553786463, -40119.01201236391, -187500.02235174447, -187500.02235174447, 6196.08237696676, -20920.1375746891, 0.6, -0.772, 0.11800000000000001, 192.0, 0.0, 0.0, 0.0, 0.0, 0.0, 0.0, 0.0, 0.0, 0.0, 1.6635905658377855E9, 0.0, 2022-09-19 17:29:25.837
14.0, -2547.6741847603544, 11340.895156967063, -23239.488689838494, -39702.643716650455, -187500.02235174447, -187500.02235174447, 5653.560835547547, -22075.722763028476, 0.6, -0.772, 0.11800000000000001, 192.0, 0.0, 0.0, 0.0, 0.0, 0.0, 0.0, 0.0, 0.0, 0.0, 1.6635905658418684E9, 0.0, 2022-09-19 17:29:25.841
15.0, -2615.6681913933985, 11340.045790677761, -22265.042038564927, -39836.105982793095, -187500.02235174447, -187500.02235174447, 5610.86900363791, -21293.9257972152, 0.6, -0.772, 0.11800000000000001, 192.0, 0.0, 0.0, 0.0, 0.0, 0.0, 0.0, 0.0, 0.0, 0.0, 1.663590565845815E9, 0.0, 2022-09-19 17:29:25.845
16.0, -2023.6375360056802, 11543.267851265413, -21012.807907200804, -40266.3547118133, -187500.02235174447, -187500.02235174447, 6112.889184104108, -20078.59439594679, 0.6, -0.772, 0.11800000000000001, 192.0, 0.0, 0.0, 0.0, 0.0, 0.0, 0.0, 0.0, 0.0, 0.0, 1.6635905658498428E9, 0.0, 2022-09-19 17:29:25.849
17.0, -1752.5779309961715, 11709.587181757353, -21194.99697625601, -40340.69661387165, -187500.02235174447, -187500.02235174447, 6327.331820408323, -20167.017897011985, 0.6, -0.772, 0.11800000000000001, 192.0, 0.0, 0.0, 0.0, 0.0, 0.0, 0.0, 0.0, 0.0, 0.0, 1.6635905658538382E9, 0.0, 2022-09-19 17:29:25.853
18.0, -1964.070137032287, 11749.3732868878, -22110.94911229004, -40117.4697419965, -187500.02235174447, -187500.02235174447, 6136.917309393562, -20999.44156401653, 0.554, -0.754, 0.132, 192.0, 17.0, 80.0, 232.0, 112.0, 4.0, 32.0, 0.0, 0.0, 0.0, 1.663590565858897E9, 0.0, 2022-09-19 17:29:25.858
19.0, -2605.453444177323, 11628.11507321776, -23281.979356048032, -39694.686495624366, -187500.02235174447, -187500.02235174447, 5586.662064392814, -22150.42229299811, 0.554, -0.754, 0.132, 192.0, 0.0, 0.0, 0.0, 0.0, 0.0, 0.0, 0.0, 0.0, 0.0, 1.6635905658618388E9, 0.0, 2022-09-19 17:29:25.861
20.0, -2650.358098788035, 11634.328858176334, -22282.141123073237, -39830.18277051244, -187500.02235174447, -187500.02235174447, 5550.184017441752, -21361.405713725773, 0.554, -0.754, 0.132, 192.0, 0.0, 0.0, 0.0, 0.0, 0.0, 0.0, 0.0, 0.0, 0.0, 1.6635905658648906E9, 0.0, 2022-09-19 17:29:25.864
21.0, -2044.514065326937, 11839.339058320411, -21022.888543950146, -40264.365406556775, -187500.02235174447, -187500.02235174447, 6054.059392697739, -20130.875126227755, 0.554, -0.754, 0.132, 192.0, 0.0, 0.0, 0.0, 0.0, 0.0, 0.0, 0.0, 0.0, 0.0, 1.6635905658699424E9, 0.0, 2022-09-19 17:29:25.869
22.0, -1786.1502511680426, 11994.169592162323, -21203.222418215566, -40338.528494659484, -187500.02235174447, -187500.02235174447, 6269.418450524623, -20206.736946909066, 0.554, -0.754, 0.132, 192.0, 0.0, 0.0, 0.0, 0.0, 0.0, 0.0, 0.0, 0.0, 0.0, 1.6635905658739414E9, 0.0, 2022-09-19 17:29:25.873
23.0, -1992.3003902793398, 12019.136490718902, -22114.011301280418, -40106.00329709092, -187500.02235174447, -187500.02235174447, 6088.436375670001, -21015.311302579797, 0.554, -0.754, 0.132, 192.0, 0.0, 0.0, 0.0, 0.0, 0.0, 0.0, 0.0, 0.0, 0.0, 1.6635905658779192E9, 0.0, 2022-09-19 17:29:25.877
24.0, -2619.3338774840686, 11878.96870123967, -23272.010478020966, -39675.37458841498, -187500.02235174447, -187500.02235174447, 5549.736982552646, -22144.141452806172, 0.554, -0.754, 0.132, 192.0, 0.0, 0.0, 0.0, 0.0, 0.0, 0.0, 0.0, 0.0, 0.0, 1.6635905658818853E9, 0.0, 2022-09-19 17:29:25.881
25.0, -2647.385316775479, 11855.611128283874, -22272.46281772409, -39818.425752928946, -187500.02235174447, -187500.02235174447, 5521.149101394308, -21350.9898008096, 0.554, -0.754, 0.132, 192.0, 0.0, 0.0, 0.0, 0.0, 0.0, 0.0, 0.0, 0.0, 0.0, 1.66359056588705E9, 0.0, 2022-09-19 17:29:25.887
26.0, -2035.0816291667975, 12016.856612784459, -21017.39001481414, -40261.81730768887, -187500.02235174447, -187500.02235174447, 6036.602680278144, -20110.669149240155, 0.554, -0.754, 0.132, 192.0, 0.0, 0.0, 0.0, 0.0, 0.0, 0.0, 0.0, 0.0, 0.0, 1.6635905658899407E9, 0.0, 2022-09-19 17:29:25.889
27.0, -1773.6109225286154, 12128.30241063862, -21201.56838912587, -40337.567369647906, -187500.02235174447, -187500.02235174447, 6256.722659674008, -20183.826408842375, 0.554, -0.754, 0.132, 192.0, 0.0, 0.0, 0.0, 0.0, 0.0, 0.0, 0.0, 0.0, 0.0, 1.6635905658929348E9, 0.0, 2022-09-19 17:29:25.892
28.0, -1980.5657244403035, 12114.600791287517, -22118.436946682566, -40101.756465644416, -187500.02235174447, -187500.02235174447, 6075.20414295246, -21010.840953688737, 0.594, -0.802, 0.136, 192.0, 18.0, 144.0, 230.0, 240.0, 4.0, 64.0, 0.0, 0.0, 0.0, 1.6635905658978996E9, 0.0, 2022-09-19 17:29:25.897
29.0, -2601.94422029784, 11943.945222371249, -23277.41960017915, -39662.76820454219, -187500.02235174447, -187500.02235174447, 5535.185996912241, -22142.062740571826, 0.594, -0.802, 0.136, 192.0, 0.0, 0.0, 0.0, 0.0, 0.0, 0.0, 0.0, 0.0, 0.0, 1.6635905659019704E9, 0.0, 2022-09-19 17:29:25.901
30.0, -2622.2843077521693, 11893.78790781354, -22252.72622737005, -39804.76883706675, -187500.02235174447, -187500.02235174447, 5518.712761248679, -21320.569076605927, 0.594, -0.802, 0.136, 192.0, 0.0, 0.0, 0.0, 0.0, 0.0, 0.0, 0.0, 0.0, 0.0, 1.6635905659059625E9, 0.0, 2022-09-19 17:29:25.905
31.0, -1992.5909629572586, 12027.80896756756, -20991.283177290345, -40248.4509645046, -187500.02235174447, -187500.02235174447, 6046.616261794122, -20102.533114258422, 0.594, -0.802, 0.136, 192.0, 0.0, 0.0, 0.0, 0.0, 0.0, 0.0, 0.0, 0.0, 0.0, 1.663590565909933E9, 0.0, 2022-09-19 17:29:25.909
32.0, -1715.4069799669958, 12117.238297133244, -21169.33717362132, -40322.77051481849, -187500.02235174447, -187500.02235174447, 6277.152154106159, -20160.290021930938, 0.594, -0.802, 0.136, 192.0, 0.0, 0.0, 0.0, 0.0, 0.0, 0.0, 0.0, 0.0, 0.0, 1.6635905659129508E9, 0.0, 2022-09-19 17:29:25.912
33.0, -1926.3850958806393, 12086.661110718383, -22090.22904517997, -40082.176337501565, -187500.02235174447, -187500.02235174447, 6097.488832174401, -20963.745828121406, 0.594, -0.802, 0.136, 192.0, 0.0, 0.0, 0.0, 0.0, 0.0, 0.0, 0.0, 0.0, 0.0, 1.6635905659170957E9, 0.0, 2022-09-19 17:29:25.917
34.0, -2560.0570511885944, 11906.863678319893, -23252.54210860039, -39640.639977531435, -187500.02235174447, -187500.02235174447, 5558.1412384678415, -22087.971518989983, 0.594, -0.802, 0.136, 192.0, 0.0, 0.0, 0.0, 0.0, 0.0, 0.0, 0.0, 0.0, 0.0, 1.6635905659209528E9, 0.0, 2022-09-19 17:29:25.920
35.0, -2586.253295690214, 11846.223395612646, -22217.67869206413, -39803.45008414389, -187500.02235174447, -187500.02235174447, 5547.725325551668, -21255.704314196624, 0.594, -0.802, 0.136, 192.0, 0.0, 0.0, 0.0, 0.0, 0.0, 0.0, 0.0, 0.0, 0.0, 1.6635905659260051E9, 0.0, 2022-09-19 17:29:25.926
36.0, -1962.2819974758622, 11972.220179107211, -20957.688505374015, -40268.835755447835, -187500.02235174447, -187500.02235174447, 6075.405308652557, -20020.256342918437, 0.594, -0.802, 0.136, 192.0, 0.0, 0.0, 0.0, 0.0, 0.0, 0.0, 0.0, 0.0, 0.0, 1.6635905659300234E9, 0.0, 2022-09-19 17:29:25.930
37.0, -1698.2631919697753, 12056.821531870548, -21148.214775111053, -40357.10279430185, -187500.02235174447, -187500.02235174447, 6296.352302593267, -20098.88977991221, 0.594, -0.802, 0.136, 192.0, 0.0, 0.0, 0.0, 0.0, 0.0, 0.0, 0.0, 0.0, 0.0, 1.663590565934015E9, 0.0, 2022-09-19 17:29:25.934
38.0, -1902.3793223356395, 12032.659296114361, -22073.599347305222, -40119.593157719755, -187500.02235174447, -187500.02235174447, 6114.900841105085, -20932.274571928334, 0.64, -0.812, 0.12, 192.0, 20.0, 0.0, 230.0, 160.0, 3.0, 192.0, 0.0, 0.0, 0.0, 1.6635905659380395E9, 0.0, 2022-09-19 17:29:25.938
39.0, -2531.871501430452, 11861.042602186513, -23231.665579279135, -39671.23951569075, -187500.02235174447, -187500.02235174447, 5581.029424790076, -22064.993925689927, 0.64, -0.812, 0.12, 192.0, 0.0, 0.0, 0.0, 0.0, 0.0, 0.0, 0.0, 0.0, 0.0, 1.6635905659410484E9, 0.0, 2022-09-19 17:29:25.941
40.0, -2560.4146790998793, 11800.983464835104, -22186.050973659872, -39832.41794495797, -187500.02235174447, -187500.02235174447, 5569.205351973218, -21235.364226742295, 0.64, -0.812, 0.12, 192.0, 0.0, 0.0, 0.0, 0.0, 0.0, 0.0, 0.0, 0.0, 0.0, 1.6635905659451468E9, 0.0, 2022-09-19 17:29:25.945
41.0, -1953.9895002829435, 11922.912230838803, -20940.030627254324, -40291.2098516476, -187500.02235174447, -187500.02235174447, 6094.404291439569, -20012.209714914527, 0.64, -0.812, 0.12, 192.0, 0.0, 0.0, 0.0, 0.0, 0.0, 0.0, 0.0, 0.0, 0.0, 1.6635905659490216E9, 0.0, 2022-09-19 17:29:25.949
42.0, -1708.8132153526803, 12010.508717359153, -21153.020400168945, -40361.819012381915, -187500.02235174447, -187500.02235174447, 6307.5505265653765, -20106.4446695381, 0.64, -0.812, 0.12, 192.0, 0.0, 0.0, 0.0, 0.0, 0.0, 0.0, 0.0, 0.0, 0.0, 1.663590565953066E9, 0.0, 2022-09-19 17:29:25.953
43.0, -1931.4589418719938, 11989.922760715815, -22103.215408708504, -40105.89153836865, -187500.02235174447, -187500.02235174447, 6113.224460270937, -20961.24243274241, 0.64, -0.812, 0.12, 192.0, 0.0, 0.0, 0.0, 0.0, 0.0, 0.0, 0.0, 0.0, 0.0, 1.6635905659580524E9, 0.0, 2022-09-19 17:29:25.958
44.0, -2574.9880164847395, 11828.63257272632, -23273.351582688283, -39646.94316946783, -187500.02235174447, -187500.02235174447, 5564.645596104336, -22110.837353567764, 0.64, -0.812, 0.12, 192.0, 0.0, 0.0, 0.0, 0.0, 0.0, 0.0, 0.0, 0.0, 0.0, 1.6635905659621196E9, 0.0, 2022-09-19 17:29:25.962
45.0, -2611.8013396026304, 11777.111801756835, -22219.220962431547, -39810.11090399157, -187500.02235174447, -187500.02235174447, 5554.609662843903, -21277.787837718468, 0.64, -0.812, 0.12, 192.0, 0.0, 0.0, 0.0, 0.0, 0.0, 0.0, 0.0, 0.0, 0.0, 1.6635905659660428E9, 0.0, 2022-09-19 17:29:25.966
46.0, -1995.4966897364486, 11914.21740224569, -20970.71957239146, -40266.86880193577, -187500.02235174447, -187500.02235174447, 6079.518029632334, -20039.232973960992, 0.64, -0.812, 0.12, 192.0, 0.0, 0.0, 0.0, 0.0, 0.0, 0.0, 0.0, 0.0, 0.0, 1.663590565969071E9, 0.0, 2022-09-19 17:29:25.969
47.0, -1740.5079889903056, 12016.119005217435, -21183.351717394795, -40331.353584689336, -187500.02235174447, -187500.02235174447, 6289.982055423505, -20140.59813506581, 0.64, -0.812, 0.12, 192.0, 0.0, 0.0, 0.0, 0.0, 0.0, 0.0, 0.0, 0.0, 0.0, 1.6635905659731138E9, 0.0, 2022-09-19 17:29:25.973
48.0, -1974.6425121596471, 12003.557324833551, -22140.76633939342, -40072.341569941236, -187500.02235174447, -187500.02235174447, 6091.051529771273, -21006.39295654213, 0.664, -0.8160000000000001, 0.11, 192.0, 20.0, 192.0, 230.0, 128.0, 3.0, 112.0, 0.0, 0.0, 0.0, 1.6635905659770648E9, 0.0, 2022-09-19 17:29:25.977
49.0, -2632.2978892681467, 11856.706363762185, -23303.90641735869, -39609.48164576074, -187500.02235174447, -187500.02235174447, 5540.505712092604, -22142.174499294102, 0.664, -0.8160000000000001, 0.11, 192.0, 0.0, 0.0, 0.0, 0.0, 0.0, 0.0, 0.0, 0.0, 0.0, 1.6635905659810967E9, 0.0, 2022-09-19 17:29:25.981
50.0, -2654.4037645344456, 11820.72005518914, -22227.334645668823, -39778.97492396533, -187500.02235174447, -187500.02235174447, 5540.684526048247, -21280.514750542017, 0.664, -0.8160000000000001, 0.11, 192.0, 0.0, 0.0, 0.0, 0.0, 0.0, 0.0, 0.0, 0.0, 0.0, 1.663590565986133E9, 0.0, 2022-09-19 17:29:25.986
51.0, -2031.5277017984035, 11967.146333115857, -20964.86341534417, -40249.68031044964, -187500.02235174447, -187500.02235174447, 6079.406270910057, -20052.308744467347, 0.664, -0.8160000000000001, 0.11, 192.0, 0.0, 0.0, 0.0, 0.0, 0.0, 0.0, 0.0, 0.0, 0.0, 1.6635905659901206E9, 0.0, 2022-09-19 17:29:25.990
52.0, -1779.0200446867998, 12080.067346104068, -21177.51791209196, -40326.793828820446, -187500.02235174447, -187500.02235174447, 6292.194878124581, -20161.11703647578, 0.664, -0.8160000000000001, 0.11, 192.0, 0.0, 0.0, 0.0, 0.0, 0.0, 0.0, 0.0, 0.0, 0.0, 1.663590565994167E9, 0.0, 2022-09-19 17:29:25.994
53.0, -2014.8756521792, 12076.893398391414, -22145.639019684677, -40076.6107531322, -187500.02235174447, -187500.02235174447, 6089.375148937124, -21012.137354867144, 0.664, -0.8160000000000001, 0.11, 192.0, 0.0, 0.0, 0.0, 0.0, 0.0, 0.0, 0.0, 0.0, 0.0, 1.663590565997115E9, 0.0, 2022-09-19 17:29:25.997
54.0, -2665.2443605952694, 11935.608021689419, -23317.13865007623, -39621.685698233334, -187500.02235174447, -187500.02235174447, 5531.453255588205, -22143.537955705877, 0.664, -0.8160000000000001, 0.11, 192.0, 0.0, 0.0, 0.0, 0.0, 0.0, 0.0, 0.0, 0.0, 0.0, 1.663590566001169E9, 0.0, 2022-09-19 17:29:26.001
55.0, -2678.5883520350876, 11912.49631792263, -22218.840982775808, -39808.903909790984, -187500.02235174447, -187500.02235174447, 5540.975098726166, -21265.82965443488, 0.664, -0.8160000000000001, 0.11, 192.0, 0.0, 0.0, 0.0, 0.0, 0.0, 0.0, 0.0, 0.0, 0.0, 1.663590566005144E9, 0.0, 2022-09-19 17:29:26.005
56.0, -2049.163228173641, 12071.685441933329, -20971.05484855829, -40296.48486333905, -187500.02235174447, -187500.02235174447, 6077.752241820364, -20028.995875000463, 0.664, -0.8160000000000001, 0.11, 192.0, 0.0, 0.0, 0.0, 0.0, 0.0, 0.0, 0.0, 0.0, 0.0, 1.6635905660090976E9, 0.0, 2022-09-19 17:29:26.009
57.0, -1796.074425706199, 12198.956274861846, -21195.131086722744, -40377.80050966746, -187500.02235174447, -187500.02235174447, 6293.178354880614, -20146.70016130211, 0.664, -0.8160000000000001, 0.11, 192.0, 0.0, 0.0, 0.0, 0.0, 0.0, 0.0, 0.0, 0.0, 0.0, 1.6635905660140967E9, 0.0, 2022-09-19 17:29:26.014
58.0, -2031.1477221426635, 12213.50726050225, -22163.229842571003, -40120.80015192034, -187500.02235174447, -187500.02235174447, 6089.911590804051, -21032.969180699492, 0.676, -0.802, 0.098, 192.0, 21.0, 32.0, 230.0, 240.0, 3.0, 16.0, 0.0, 0.0, 0.0, 1.6635905660182285E9, 0.0, 2022-09-19 17:29:26.018
59.0, -2669.8488199530625, 12086.39288978492, -23327.934542648145, -39655.05685270511, -187500.02235174447, -187500.02235174447, 5533.576671311459, -22150.28818253138, 0.676, -0.802, 0.098, 192.0, 0.0, 0.0, 0.0, 0.0, 0.0, 0.0, 0.0, 0.0, 0.0, 1.6635905660221584E9, 0.0, 2022-09-19 17:29:26.022
60.0, -2673.894485699473, 12069.785543654627, -22221.232619432525, -39840.1069450506, -187500.02235174447, -187500.02235174447, 5545.758372039601, -21257.514805497507, 0.676, -0.802, 0.098, 192.0, 0.0, 0.0, 0.0, 0.0, 0.0, 0.0, 0.0, 0.0, 0.0, 1.663590566025152E9, 0.0, 2022-09-19 17:29:26.025
61.0, -2041.4071728476492, 12234.249679356775, -20967.47856944544, -40322.07761074038, -187500.02235174447, -187500.02235174447, 6090.895067560085, -20029.286447678383, 0.676, -0.802, 0.098, 192.0, 0.0, 0.0, 0.0, 0.0, 0.0, 0.0, 0.0, 0.0, 0.0, 1.6635905660291991E9, 0.0, 2022-09-19 17:29:26.029
62.0, -1790.0171029588107, 12359.620614006593, -21193.611168099782, -40397.51474827704, -187500.02235174447, -187500.02235174447, 6301.24733462898, -20138.005332708995, 0.676, -0.802, 0.098, 192.0, 0.0, 0.0, 0.0, 0.0, 0.0, 0.0, 0.0, 0.0, 0.0, 1.6635905660332084E9, 0.0, 2022-09-19 17:29:26.033
63.0, -2023.2128528610294, 12368.15898038852, -22176.842054944285, -40132.08778287027, -187500.02235174447, -187500.02235174447, 6097.175907752026, -21028.610590530705, 0.676, -0.802, 0.098, 192.0, 0.0, 0.0, 0.0, 0.0, 0.0, 0.0, 0.0, 0.0, 0.0, 1.6635905660371945E9, 0.0, 2022-09-19 17:29:26.037
64.0, -2674.542686288677, 12239.658801514961, -23343.848984700322, -39663.12583245347, -187500.02235174447, -187500.02235174447, 5545.490151106138, -22170.985897896993, 0.676, -0.802, 0.098, 192.0, 0.0, 0.0, 0.0, 0.0, 0.0, 0.0, 0.0, 0.0, 0.0, 1.6635905660412087E9, 0.0, 2022-09-19 17:29:26.041
65.0, -2681.4940788142776, 12232.014504911245, -22220.517363609953, -39851.17105855597, -187500.02235174447, -187500.02235174447, 5570.814677574001, -21278.905424941233, 0.676, -0.802, 0.098, 192.0, 0.0, 0.0, 0.0, 0.0, 0.0, 0.0, 0.0, 0.0, 0.0, 1.6635905660462198E9, 0.0, 2022-09-19 17:29:26.046
66.0, -2054.54999858737, 12405.464041884428, -20964.662249644072, -40328.2690439545, -187500.02235174447, -187500.02235174447, 6122.969820853451, -20047.704285109554, 0.676, -0.802, 0.098, 192.0, 0.0, 0.0, 0.0, 0.0, 0.0, 0.0, 0.0, 0.0, 0.0, 1.6635905660502145E9, 0.0, 2022-09-19 17:29:26.050
67.0, -1804.9033647660453, 12539.127473727165, -21201.456630403594, -40396.55362326546, -187500.02235174447, -187500.02235174447, 6333.657364089176, -20158.971269008074, 0.676, -0.802, 0.098, 192.0, 0.0, 0.0, 0.0, 0.0, 0.0, 0.0, 0.0, 0.0, 0.0, 1.6635905660531743E9, 0.0, 2022-09-19 17:29:26.053
68.0, -2039.3955158466717, 12553.454941923017, -22195.304595864367, -40127.058640367824, -187500.02235174447, -187500.02235174447, 6117.873623117641, -21051.945811742047, 0.666, -0.776, 0.108, 192.0, 20.0, 208.0, 231.0, 192.0, 3.0, 96.0, 0.0, 0.0, 0.0, 1.6635905660572224E9, 0.0, 2022-09-19 17:29:26.057
69.0, -2694.748663276275, 12426.139405505588, -23366.42424660018, -39656.576771328066, -187500.02235174447, -187500.02235174447, 5551.078087219964, -22195.170485397637, 0.666, -0.776, 0.108, 192.0, 0.0, 0.0, 0.0, 0.0, 0.0, 0.0, 0.0, 0.0, 0.0, 1.663590566061263E9, 0.0, 2022-09-19 17:29:26.061
70.0, -2697.2744103997243, 12412.616600110126, -22231.06738699286, -39850.88048587805, -187500.02235174447, -187500.02235174447, 5572.938093297254, -21285.9238727002, 0.666, -0.776, 0.108, 192.0, 0.0, 0.0, 0.0, 0.0, 0.0, 0.0, 0.0, 0.0, 0.0, 1.6635905660651743E9, 0.0, 2022-09-19 17:29:26.065
71.0, -2053.0747834533195, 12577.01368057891, -20985.091744076224, -40332.4711719121, -187500.02235174447, -187500.02235174447, 6111.168099781049, -20049.850052577265, 0.666, -0.776, 0.108, 192.0, 0.0, 0.0, 0.0, 0.0, 0.0, 0.0, 0.0, 0.0, 0.0, 1.6635905660692196E9, 0.0, 2022-09-19 17:29:26.069
72.0, -1789.9500477254448, 12704.910362352177, -21229.217497017085, -40404.600251269374, -187500.02235174447, -187500.02235174447, 6309.003389954972, -20185.905121076717, 0.666, -0.776, 0.108, 192.0, 0.0, 0.0, 0.0, 0.0, 0.0, 0.0, 0.0, 0.0, 0.0, 1.6635905660742352E9, 0.0, 2022-09-19 17:29:26.074
73.0, -2030.030134919898, 12713.046397333908, -22225.30063692339, -40133.83121893778, -187500.02235174447, -187500.02235174447, 6091.722082104931, -21070.184835217577, 0.666, -0.776, 0.108, 192.0, 0.0, 0.0, 0.0, 0.0, 0.0, 0.0, 0.0, 0.0, 0.0, 1.66359056607827E9, 0.0, 2022-09-19 17:29:26.078
74.0, -2695.285105143202, 12581.886360870167, -23388.910101522222, -39662.32116965308, -187500.02235174447, -187500.02235174447, 5528.413418342283, -22192.53297955191, 0.666, -0.776, 0.108, 192.0, 0.0, 0.0, 0.0, 0.0, 0.0, 0.0, 0.0, 0.0, 0.0, 1.6635905660815609E9, 0.0, 2022-09-19 17:29:26.081
75.0, -2688.5572300621548, 12567.558892674315, -22240.87980280874, -39859.240038304335, -187500.02235174447, -187500.02235174447, 5556.286043678051, -21274.83740745037, 0.666, -0.776, 0.108, 192.0, 0.0, 0.0, 0.0, 0.0, 0.0, 0.0, 0.0, 0.0, 0.0, 1.6635905660852509E9, 0.0, 2022-09-19 17:29:26.085
76.0, -2048.0456409508756, 12735.755769700501, -20985.96346210998, -40340.428392938185, -187500.02235174447, -187500.02235174447, 6112.710370148465, -20036.081377992796, 0.666, -0.776, 0.108, 192.0, 0.0, 0.0, 0.0, 0.0, 0.0, 0.0, 0.0, 0.0, 0.0, 1.6635905660892873E9, 0.0, 2022-09-19 17:29:26.089
77.0, -1795.6497425615482, 12869.553312009968, -21234.268991263987, -40412.60217578437, -187500.02235174447, -187500.02235174447, 6314.367808624245, -20169.074257501874, 0.666, -0.776, 0.108, 192.0, 0.0, 0.0, 0.0, 0.0, 0.0, 0.0, 0.0, 0.0, 0.0, 1.663590566093285E9, 0.0, 2022-09-19 17:29:26.093
78.0, -2035.0369256778868, 12881.198570871184, -22230.64270384821, -40148.47161155601, -187500.02235174447, -187500.02235174447, 6093.890201317096, -21076.733896342983, 0.666, -0.776, 0.108, 192.0, 0.0, 0.0, 0.0, 0.0, 0.0, 0.0, 0.0, 0.0, 0.0, 1.663590566097287E9, 0.0, 2022-09-19 17:29:26.097
79.0, -2690.166555662937, 12745.590537260836, -23391.502903879038, -39690.260850222214, -187500.02235174447, -187500.02235174447, 5533.263746889084, -22226.328817168334, 0.66, -0.764, 0.10400000000000001, 192.0, 20.0, 160.0, 232.0, 32.0, 3.0, 64.0, 0.0, 0.0, 0.0, 1.6635905661022785E9, 0.0, 2022-09-19 17:29:26.102
80.0, -2680.6000090360653, 12732.403008032205, -22228.005198002484, -39901.86481498061, -187500.02235174447, -187500.02235174447, 5565.427907160271, -21284.0239744215, 0.66, -0.764, 0.10400000000000001, 192.0, 0.0, 0.0, 0.0, 0.0, 0.0, 0.0, 0.0, 0.0, 0.0, 1.6635905661052885E9, 0.0, 2022-09-19 17:29:26.105
81.0, -2029.3372308417836, 12903.729129282134, -20972.23949101442, -40393.71495171964, -187500.02235174447, -187500.02235174447, 6119.795873140797, -20037.44483440457, 0.66, -0.764, 0.10400000000000001, 192.0, 0.0, 0.0, 0.0, 0.0, 0.0, 0.0, 0.0, 0.0, 0.0, 1.6635905661093144E9, 0.0, 2022-09-19 17:29:26.109
82.0, -1778.014216186311, 13036.63260181339, -21215.649988132714, -40475.79055735953, -187500.02235174447, -187500.02235174447, 6330.863396032262, -20169.789513324442, 0.66, -0.764, 0.10400000000000001, 192.0, 0.0, 0.0, 0.0, 0.0, 0.0, 0.0, 0.0, 0.0, 0.0, 1.663590566113299E9, 0.0, 2022-09-19 17:29:26.113
83.0, -2023.4587220500377, 13047.808474041043, -22220.338549654312, -40217.13617052271, -187500.02235174447, -187500.02235174447, 6117.471291717446, -21092.44717269506, 0.66, -0.764, 0.10400000000000001, 192.0, 0.0, 0.0, 0.0, 0.0, 0.0, 0.0, 0.0, 0.0, 0.0, 1.663590566117272E9, 0.0, 2022-09-19 17:29:26.117
84.0, -2680.7564712472526, 12909.026492718041, -23380.05881071792, -39767.530830804215, -187500.02235174447, -187500.02235174447, 5552.776819798568, -22219.533886853922, 0.66, -0.764, 0.10400000000000001, 192.0, 0.0, 0.0, 0.0, 0.0, 0.0, 0.0, 0.0, 0.0, 0.0, 1.6635905661214163E9, 0.0, 2022-09-19 17:29:26.121
85.0, -2672.19575312087, 12878.248140603084, -22209.900284993684, -39987.15907182206, -187500.02235174447, -187500.02235174447, 5583.465764935704, -21240.929811111666, 0.66, -0.764, 0.10400000000000001, 192.0, 0.0, 0.0, 0.0, 0.0, 0.0, 0.0, 0.0, 0.0, 0.0, 1.6635905661253252E9, 0.0, 2022-09-19 17:29:26.125
86.0, -2018.1166551252193, 13038.95718323674, -20954.223984983444, -40480.37266497286, -187500.02235174447, -187500.02235174447, 6140.068905361761, -20006.57707531179, 0.66, -0.764, 0.10400000000000001, 192.0, 0.0, 0.0, 0.0, 0.0, 0.0, 0.0, 0.0, 0.0, 0.0, 1.6635905661303315E9, 0.0, 2022-09-19 17:29:26.130
87.0, -1759.819896199691, 13170.564254589588, -21200.33904318083, -40561.64360781236, -187500.02235174447, -187500.02235174447, 6349.97413754155, -20152.645725327224, 0.66, -0.764, 0.10400000000000001, 192.0, 0.0, 0.0, 0.0, 0.0, 0.0, 0.0, 0.0, 0.0, 0.0, 1.663590566133336E9, 0.0, 2022-09-19 17:29:26.133
88.0, -2010.5394137548703, 13187.439821653346, -22213.25304666198, -40302.050447708425, -187500.02235174447, -187500.02235174447, 6131.597594213199, -21054.0692274653, 0.66, -0.764, 0.10400000000000001, 192.0, 0.0, 0.0, 0.0, 0.0, 0.0, 0.0, 0.0, 0.0, 0.0, 1.663590566136366E9, 0.0, 2022-09-19 17:29:26.136
89.0, -2673.536857788188, 13060.750134080665, -23370.33580187986, -39851.1040033226, -187500.02235174447, -187500.02235174447, 5565.383203671361, -22188.62142427223, 0.644, -0.766, 0.10200000000000001, 192.0, 20.0, 32.0, 232.0, 16.0, 3.0, 48.0, 0.0, 0.0, 0.0, 1.6635905661413476E9, 0.0, 2022-09-19 17:29:26.141
90.0, -2653.420287778412, 13047.495549618669, -22190.49897080648, -40069.56995362878, -187500.02235174447, -187500.02235174447, 5607.851518136445, -21234.090177308342, 0.644, -0.766, 0.10200000000000001, 192.0, 0.0, 0.0, 0.0, 0.0, 0.0, 0.0, 0.0, 0.0, 0.0, 1.6635905661453812E9, 0.0, 2022-09-19 17:29:26.145
91.0, -2005.9126026526217, 13217.52526969019, -20939.181260965022, -40557.419128110305, -187500.02235174447, -187500.02235174447, 6165.795763229819, -19998.865723474708, 0.644, -0.766, 0.10200000000000001, 192.0, 0.0, 0.0, 0.0, 0.0, 0.0, 0.0, 0.0, 0.0, 0.0, 1.6635905661494863E9, 0.0, 2022-09-19 17:29:26.149
92.0, -1759.5740270106826, 13346.07015205266, -21187.732659308036, -40629.97289061223, -187500.02235174447, -187500.02235174447, 6368.16845752817, -20128.997579693507, 0.644, -0.766, 0.10200000000000001, 192.0, 0.0, 0.0, 0.0, 0.0, 0.0, 0.0, 0.0, 0.0, 0.0, 1.6635905661533911E9, 0.0, 2022-09-19 17:29:26.153
93.0, -2007.0525416198425, 13348.282974753736, -22214.325930395837, -40363.94242810517, -187500.02235174447, -187500.02235174447, 6135.352687281691, -21050.470596607996, 0.644, -0.766, 0.10200000000000001, 192.0, 0.0, 0.0, 0.0, 0.0, 0.0, 0.0, 0.0, 0.0, 0.0, 1.663590566158412E9, 0.0, 2022-09-19 17:29:26.158
94.0, -2664.6632152394313, 13209.724510875287, -23369.777008268476, -39909.509111584324, -187500.02235174447, -187500.02235174447, 5562.276311192073, -22187.99557542748, 0.644, -0.766, 0.10200000000000001, 192.0, 0.0, 0.0, 0.0, 0.0, 0.0, 0.0, 0.0, 0.0, 0.0, 1.6635905661614285E9, 0.0, 2022-09-19 17:29:26.161
95.0, -2640.612738205521, 13192.983054278262, -22184.642813759187, -40124.0188031219, -187500.02235174447, -187500.02235174447, 5604.63286693488, -21227.09408129383, 0.644, -0.766, 0.10200000000000001, 192.0, 0.0, 0.0, 0.0, 0.0, 0.0, 0.0, 0.0, 0.0, 0.0, 1.66359056616446E9, 0.0, 2022-09-19 17:29:26.164
96.0, -1989.1040908222308, 13349.668782909965, -20958.560223407774, -40600.915622820336, -187500.02235174447, -187500.02235174447, 6152.161199112082, -20006.33120612278, 0.644, -0.766, 0.10200000000000001, 192.0, 0.0, 0.0, 0.0, 0.0, 0.0, 0.0, 0.0, 0.0, 0.0, 1.663590566169446E9, 0.0, 2022-09-19 17:29:26.169
97.0, -1740.530340734761, 13471.686955891486, -21196.651005345706, -40663.254638106184, -187500.02235174447, -187500.02235174447, 6353.282195720934, -20135.83721349683, 0.644, -0.766, 0.10200000000000001, 192.0, 0.0, 0.0, 0.0, 0.0, 0.0, 0.0, 0.0, 0.0, 0.0, 1.6635905661734357E9, 0.0, 2022-09-19 17:29:26.173
98.0, -1990.780471656379, 13474.033889059292, -22233.146099227204, -40390.406893540254, -187500.02235174447, -187500.02235174447, 6118.901803362585, -21059.1207217122, 0.644, -0.766, 0.10200000000000001, 192.0, 0.0, 0.0, 0.0, 0.0, 0.0, 0.0, 0.0, 0.0, 0.0, 1.6635905661774578E9, 0.0, 2022-09-19 17:29:26.177
99.0, -2659.4999622702558, 13331.943849556907, -23379.477665362083, -39937.00175726435, -187500.02235174447, -187500.02235174447, 5547.770029040579, -22193.40469758567, 0.642, -0.774, 0.10400000000000001, 192.0, 20.0, 16.0, 231.0, 208.0, 3.0, 64.0, 0.0, 0.0, 0.0, 1.6635905661814475E9, 0.0, 2022-09-19 17:29:26.181
100.0, -2635.650650936443, 13311.603762102577, -22167.163749595136, -40155.80298373735, -187500.02235174447, -187500.02235174447, 5593.769919129601, -21231.83265111836, 0.642, -0.774, 0.10400000000000001, 192.0, 0.0, 0.0, 0.0, 0.0, 0.0, 0.0, 0.0, 0.0, 0.0, 1.663590566185502E9, 0.0, 2022-09-19 17:29:26.185
101.0, -1989.0593873333203, 13467.685993633986, -20934.912077774057, -40637.21485581576, -187500.02235174447, -187500.02235174447, 6151.624757245155, -20045.290296708383, 0.642, -0.774, 0.10400000000000001, 192.0, 0.0, 0.0, 0.0, 0.0, 0.0, 0.0, 0.0, 0.0, 0.0, 1.6635905661894724E9, 0.0, 2022-09-19 17:29:26.189
102.0, -1739.9938988678337, 13589.145373004125, -21190.683089576138, -40710.5062258847, -187500.02235174447, -187500.02235174447, 6353.148085254203, -20173.6116616263, 0.642, -0.774, 0.10400000000000001, 192.0, 0.0, 0.0, 0.0, 0.0, 0.0, 0.0, 0.0, 0.0, 0.0, 1.663590566192576E9, 0.0, 2022-09-19 17:29:26.192
103.0, -1987.5618204548146, 13590.777050349361, -22221.389081643712, -40450.1978099582, -187500.02235174447, -187500.02235174447, 6121.673419675043, -21086.769829603414, 0.642, -0.774, 0.10400000000000001, 192.0, 0.0, 0.0, 0.0, 0.0, 0.0, 0.0, 0.0, 0.0, 0.0, 1.6635905661974974E9, 0.0, 2022-09-19 17:29:26.197
104.0, -2649.486380754278, 13443.657868344531, -23361.126883164274, -40010.71781047795, -187500.02235174447, -187500.02235174447, 5556.353098911417, -22206.435764603113, 0.642, -0.774, 0.10400000000000001, 192.0, 0.0, 0.0, 0.0, 0.0, 0.0, 0.0, 0.0, 0.0, 0.0, 1.663590566201486E9, 0.0, 2022-09-19 17:29:26.201
105.0, -2617.746903627742, 13420.099129688637, -22144.946115606563, -40242.23717954602, -187500.02235174447, -187500.02235174447, 5608.879698381388, -21207.91628455118, 0.642, -0.774, 0.10400000000000001, 192.0, 0.0, 0.0, 0.0, 0.0, 0.0, 0.0, 0.0, 0.0, 0.0, 1.66359056620553E9, 0.0, 2022-09-19 17:29:26.205
106.0, -1962.1031835202198, 13577.187189720535, -20908.693481527982, -40729.23698773825, -187500.02235174447, -187500.02235174447, 6168.925007453562, -19998.508095563426, 0.642, -0.774, 0.10400000000000001, 192.0, 0.0, 0.0, 0.0, 0.0, 0.0, 0.0, 0.0, 0.0, 0.0, 1.663590566209491E9, 0.0, 2022-09-19 17:29:26.209
107.0, -1705.4828054288396, 13698.870086535228, -21167.52668232044, -40807.17752065391, -187500.02235174447, -187500.02235174447, 6371.141239540725, -20142.69919904461, 0.642, -0.774, 0.10400000000000001, 192.0, 0.0, 0.0, 0.0, 0.0, 0.0, 0.0, 0.0, 0.0, 0.0, 1.6635905662134795E9, 0.0, 2022-09-19 17:29:26.213
108.0, -1961.454982931016, 13697.774851056916, -22201.719546523043, -40548.81370649501, -187500.02235174447, -187500.02235174447, 6145.902710664596, -21069.69309683956, 0.642, -0.774, 0.10400000000000001, 192.0, 0.0, 0.0, 0.0, 0.0, 0.0, 0.0, 0.0, 0.0, 0.0, 1.6635905662174723E9, 0.0, 2022-09-19 17:29:26.217
109.0, -2634.130732313482, 13544.665401538063, -23360.501034319524, -40118.07323909679, -187500.02235174447, -187500.02235174447, 5566.880770549867, -22185.313366092847, 0.642, -0.792, 0.10200000000000001, 192.0, 20.0, 16.0, 231.0, 64.0, 3.0, 48.0, 0.0, 0.0, 0.0, 1.6635905662204895E9, 0.0, 2022-09-19 17:29:26.220
110.0, -2599.7090458523094, 13525.48760479541, -22128.76345262092, -40353.81708786692, -187500.02235174447, -187500.02235174447, 5616.926326385299, -21195.533418122937, 0.642, -0.792, 0.10200000000000001, 192.0, 0.0, 0.0, 0.0, 0.0, 0.0, 0.0, 0.0, 0.0, 0.0, 1.6635905662254727E9, 0.0, 2022-09-19 17:29:26.225
111.0, -1941.964261765988, 13692.768060298928, -20898.99282443438, -40833.32906166662, -187500.02235174447, -187500.02235174447, 6180.07852793676, -19984.024165156385, 0.642, -0.792, 0.10200000000000001, 192.0, 0.0, 0.0, 0.0, 0.0, 0.0, 0.0, 0.0, 0.0, 0.0, 1.6635905662295356E9, 0.0, 2022-09-19 17:29:26.229
112.0, -1697.0561977691887, 13815.389730380743, -21180.401287126697, -40902.48535901134, -187500.02235174447, -187500.02235174447, 6374.5834081868425, -20139.145271676218, 0.642, -0.792, 0.10200000000000001, 192.0, 0.0, 0.0, 0.0, 0.0, 0.0, 0.0, 0.0, 0.0, 0.0, 1.6635905662335093E9, 0.0, 2022-09-19 17:29:26.233
113.0, -1957.901055562622, 13812.215782668089, -22223.490145622513, -40635.00203311468, -187500.02235174447, -187500.02235174447, 6137.900786149596, -21081.718335356516, 0.642, -0.792, 0.10200000000000001, 192.0, 0.0, 0.0, 0.0, 0.0, 0.0, 0.0, 0.0, 0.0, 0.0, 1.6635905662376585E9, 0.0, 2022-09-19 17:29:26.237
114.0, -2625.346496742546, 13665.387173341176, -23364.032609943464, -40189.86704228724, -187500.02235174447, -187500.02235174447, 5562.477476892171, -22206.033433202916, 0.642, -0.792, 0.10200000000000001, 192.0, 0.0, 0.0, 0.0, 0.0, 0.0, 0.0, 0.0, 0.0, 0.0, 1.6635905662415304E9, 0.0, 2022-09-19 17:29:26.241
115.0, -2600.7595778417085, 13646.008210898426, -22159.832377413797, -40408.91413794925, -187500.02235174447, -187500.02235174447, 5597.256791264629, -21207.58100838435, 0.642, -0.792, 0.10200000000000001, 192.0, 0.0, 0.0, 0.0, 0.0, 0.0, 0.0, 0.0, 0.0, 0.0, 1.6635905662455208E9, 0.0, 2022-09-19 17:29:26.245
116.0, -1957.2081514845077, 13800.928151718159, -20972.44065671452, -40870.43295746243, -187500.02235174447, -187500.02235174447, 6131.6870011910205, -20009.974540468997, 0.642, -0.792, 0.10200000000000001, 192.0, 0.0, 0.0, 0.0, 0.0, 0.0, 0.0, 0.0, 0.0, 0.0, 1.6635905662485373E9, 0.0, 2022-09-19 17:29:26.248
117.0, -1722.8948143595237, 13913.46918505063, -21257.090122352856, -40923.85362671061, -187500.02235174447, -187500.02235174447, 6313.8313667573175, -20169.677754602166, 0.642, -0.792, 0.10200000000000001, 192.0, 0.0, 0.0, 0.0, 0.0, 0.0, 0.0, 0.0, 0.0, 0.0, 1.6635905662525601E9, 0.0, 2022-09-19 17:29:26.252
118.0, -1993.5073844799263, 13907.121289625322, -22277.98369860455, -40638.84653316099, -187500.02235174447, -187500.02235174447, 6080.009768010351, -21121.862068398248, 0.642, -0.792, 0.10200000000000001, 192.0, 0.0, 0.0, 0.0, 0.0, 0.0, 0.0, 0.0, 0.0, 0.0, 1.6635905662575443E9, 0.0, 2022-09-19 17:29:26.257
119.0, -2674.520334544222, 13758.035154108424, -23414.68166287919, -40190.20231845407, -187500.02235174447, -187500.02235174447, 5507.156909365286, -22248.278230223445, 0.64, -0.804, 0.1, 192.0, 20.0, 0.0, 230.0, 224.0, 3.0, 32.0, 0.0, 0.0, 0.0, 1.6635905662616208E9, 0.0, 2022-09-19 17:29:26.261
120.0, -2641.976194617295, 13744.042962079402, -22188.174389383126, -40403.95205068017, -187500.02235174447, -187500.02235174447, 5556.867189033889, -21239.67811342217, 0.64, -0.804, 0.1, 192.0, 0.0, 0.0, 0.0, 0.0, 0.0, 0.0, 0.0, 0.0, 0.0, 1.663590566265664E9, 0.0, 2022-09-19 17:29:26.265
121.0, -1996.4354630035716, 13902.963865156635, -20973.334726492732, -40854.31734971015, -187500.02235174447, -187500.02235174447, 6109.02233231334, -20025.509002865434, 0.64, -0.804, 0.1, 192.0, 0.0, 0.0, 0.0, 0.0, 0.0, 0.0, 0.0, 0.0, 0.0, 1.6635905662695756E9, 0.0, 2022-09-19 17:29:26.269
122.0, -1762.2562363453194, 14014.499069988618, -21248.372942015285, -40902.48535901134, -187500.02235174447, -187500.02235174447, 6304.935372464106, -20175.913891305197, 0.64, -0.804, 0.1, 192.0, 0.0, 0.0, 0.0, 0.0, 0.0, 0.0, 0.0, 0.0, 0.0, 1.663590566273568E9, 0.0, 2022-09-19 17:29:26.273
123.0, -2022.2517278494513, 14010.699273431215, -22285.40447776371, -40619.288756762595, -187500.02235174447, -187500.02235174447, 6076.411137153046, -21113.726033416515, 0.64, -0.804, 0.1, 192.0, 0.0, 0.0, 0.0, 0.0, 0.0, 0.0, 0.0, 0.0, 0.0, 1.6635905662765942E9, 0.0, 2022-09-19 17:29:26.276
124.0, -2693.318151631135, 13860.473198947097, -23402.76818308451, -40176.29953340287, -187500.02235174447, -187500.02235174447, 5514.801205969001, -22235.53773588392, 0.64, -0.804, 0.1, 192.0, 0.0, 0.0, 0.0, 0.0, 0.0, 0.0, 0.0, 0.0, 0.0, 1.6635905662807295E9, 0.0, 2022-09-19 17:29:26.280
125.0, -2671.0111106647387, 13832.265297444499, -22174.159845609647, -40398.878204688815, -187500.02235174447, -187500.02235174447, 5566.500790894126, -21227.49641269403, 0.64, -0.804, 0.1, 192.0, 0.0, 0.0, 0.0, 0.0, 0.0, 0.0, 0.0, 0.0, 0.0, 1.6635905662856724E9, 0.0, 2022-09-19 17:29:26.285
126.0, -2029.8513209642556, 13983.072517284456, -20976.73219164994, -40852.50685840927, -187500.02235174447, -187500.02235174447, 6121.293440019303, -20037.422482660113, 0.64, -0.804, 0.1, 192.0, 0.0, 0.0, 0.0, 0.0, 0.0, 0.0, 0.0, 0.0, 0.0, 1.6635905662896771E9, 0.0, 2022-09-19 17:29:26.289
127.0, -1793.7051407939364, 14098.049890762555, -21254.519671740494, -40908.0062398918, -187500.02235174447, -187500.02235174447, 6315.39598886919, -20204.814696885907, 0.64, -0.804, 0.1, 192.0, 0.0, 0.0, 0.0, 0.0, 0.0, 0.0, 0.0, 0.0, 0.0, 1.6635905662937603E9, 0.0, 2022-09-19 17:29:26.293
128.0, -2057.45572536656, 14095.702957594749, -22292.735849945053, -40634.599701714484, -187500.02235174447, -187500.02235174447, 6077.349910420169, -21163.905699718678, 0.64, -0.804, 0.1, 192.0, 0.0, 0.0, 0.0, 0.0, 0.0, 0.0, 0.0, 0.0, 0.0, 1.6635905662966897E9, 0.0, 2022-09-19 17:29:26.296
129.0, -2719.782617066219, 13953.255290181076, -23393.805133557933, -40200.93115579261, -187500.02235174447, -187500.02235174447, 5516.209365869685, -22268.41715197768, 0.638, -0.8, 0.096, 192.0, 19.0, 240.0, 231.0, 0.0, 3.0, 0.0, 0.0, 0.0, 0.0, 1.6635905663006697E9, 0.0, 2022-09-19 17:29:26.300
130.0, -2675.81673572263, 13942.928784242724, -22148.56709820832, -40428.62837655883, -187500.02235174447, -187500.02235174447, 5575.195619487241, -21256.35251478583, 0.638, -0.8, 0.096, 192.0, 0.0, 0.0, 0.0, 0.0, 0.0, 0.0, 0.0, 0.0, 0.0, 1.6635905663046489E9, 0.0, 2022-09-19 17:29:26.304
131.0, -2035.2827948668953, 14100.910914052834, -20960.840101342215, -40876.26676276526, -187500.02235174447, -187500.02235174447, 6121.44990223049, -20054.968602057532, 0.638, -0.8, 0.096, 192.0, 0.0, 0.0, 0.0, 0.0, 0.0, 0.0, 0.0, 0.0, 0.0, 1.6635905663087273E9, 0.0, 2022-09-19 17:29:26.308
132.0, -1797.6166960736152, 14214.010740996688, -21233.9113633527, -40924.63593776655, -187500.02235174447, -187500.02235174447, 6319.888689504706, -20219.030406359485, 0.638, -0.8, 0.096, 192.0, 0.0, 0.0, 0.0, 0.0, 0.0, 0.0, 0.0, 0.0, 0.0, 1.6635905663136718E9, 0.0, 2022-09-19 17:29:26.313
133.0, -2068.162210960652, 14198.006891966688, -22302.056527382916, -40650.692957722305, -187500.02235174447, -187500.02235174447, 6080.523858132823, -21189.92313026466, 0.638, -0.8, 0.096, 192.0, 0.0, 0.0, 0.0, 0.0, 0.0, 0.0, 0.0, 0.0, 0.0, 1.6635905663177135E9, 0.0, 2022-09-19 17:29:26.317
134.0, -2735.719410862853, 14046.909099448812, -23404.86924706331, -40216.51032167796, -187500.02235174447, -187500.02235174447, 5513.2365838571295, -22279.235396294047, 0.638, -0.8, 0.096, 192.0, 0.0, 0.0, 0.0, 0.0, 0.0, 0.0, 0.0, 0.0, 0.0, 1.663590566321752E9, 0.0, 2022-09-19 17:29:26.321
135.0, -2687.707863772853, 14033.855680686913, -22157.887775646184, -40429.61185331486, -187500.02235174447, -187500.02235174447, 5569.071241506486, -21253.916174640202, 0.638, -0.8, 0.096, 192.0, 0.0, 0.0, 0.0, 0.0, 0.0, 0.0, 0.0, 0.0, 0.0, 1.6635905663247168E9, 0.0, 2022-09-19 17:29:26.324
136.0, -2052.7171555420346, 14186.160467405376, -20985.516427220875, -40856.95485555588, -187500.02235174447, -187500.02235174447, 6107.413006712557, -20095.60407347728, 0.638, -0.8, 0.096, 192.0, 0.0, 0.0, 0.0, 0.0, 0.0, 0.0, 0.0, 0.0, 0.0, 1.6635905663286777E9, 0.0, 2022-09-19 17:29:26.328
137.0, -1826.718667354425, 14294.119393124509, -21278.436038307675, -40883.620486691056, -187500.02235174447, -187500.02235174447, 6290.183221123603, -20254.323810854414, 0.638, -0.8, 0.096, 192.0, 0.0, 0.0, 0.0, 0.0, 0.0, 0.0, 0.0, 0.0, 0.0, 1.6635905663326683E9, 0.0, 2022-09-19 17:29:26.332
138.0, -2099.2758392424394, 14273.511084736716, -22347.832900027384, -40590.924393048816, -187500.02235174447, -187500.02235174447, 6040.7601047468315, -21250.518709482993, 0.638, -0.8, 0.096, 192.0, 0.0, 0.0, 0.0, 0.0, 0.0, 0.0, 0.0, 0.0, 0.0, 1.6635905663367152E9, 0.0, 2022-09-19 17:29:26.336
139.0, -2766.8553908890954, 14110.499812424161, -23463.386114047305, -40143.978910920494, -187500.02235174447, -187500.02235174447, 5461.626405909826, -22329.99620795205, 0.64, -0.792, 0.098, 192.0, 20.0, 0.0, 231.0, 64.0, 3.0, 16.0, 0.0, 0.0, 0.0, 1.6635905663407016E9, 0.0, 2022-09-19 17:29:26.340
140.0, -2728.7456665927966, 14090.271483692108, -22236.87884055124, -40335.242788224554, -187500.02235174447, -187500.02235174447, 5504.742920964113, -21282.682869754182, 0.64, -0.792, 0.098, 192.0, 0.0, 0.0, 0.0, 0.0, 0.0, 0.0, 0.0, 0.0, 0.0, 1.663590566345734E9, 0.0, 2022-09-19 17:29:26.345
141.0, -2110.4293597256374, 14242.665677388391, -21085.94281505857, -40734.0649645406, -187500.02235174447, -187500.02235174447, 6029.874805197097, -20133.020893695462, 0.64, -0.792, 0.098, 192.0, 0.0, 0.0, 0.0, 0.0, 0.0, 0.0, 0.0, 0.0, 0.0, 1.663590566349748E9, 0.0, 2022-09-19 17:29:26.349
142.0, -1899.0936159007092, 14352.859777553056, -21395.335661808927, -40744.59263617905, -187500.02235174447, -187500.02235174447, 6201.804423547319, -20330.990294336116, 0.64, -0.792, 0.098, 192.0, 0.0, 0.0, 0.0, 0.0, 0.0, 0.0, 0.0, 0.0, 0.0, 1.6635905663528323E9, 0.0, 2022-09-19 17:29:26.352
143.0, -2184.927723995176, 14335.35836164455, -22457.69172402522, -40441.324167409446, -187500.02235174447, -187500.02235174447, 5951.84486530362, -21324.637094096794, 0.64, -0.792, 0.098, 192.0, 0.0, 0.0, 0.0, 0.0, 0.0, 0.0, 0.0, 0.0, 0.0, 1.6635905663567576E9, 0.0, 2022-09-19 17:29:26.356
144.0, -2852.3955169195556, 14177.644452767903, -23556.481129703658, -39987.96373462245, -187500.02235174447, -187500.02235174447, 5379.059061891921, -22414.128174081823, 0.64, -0.792, 0.098, 192.0, 0.0, 0.0, 0.0, 0.0, 0.0, 0.0, 0.0, 0.0, 0.0, 1.6635905663607368E9, 0.0, 2022-09-19 17:29:26.360
145.0, -2805.188632629947, 14158.980746147723, -22312.383033321268, -40172.14210893418, -187500.02235174447, -187500.02235174447, 5432.323268928918, -21364.110274804865, 0.64, -0.792, 0.098, 192.0, 0.0, 0.0, 0.0, 0.0, 0.0, 0.0, 0.0, 0.0, 0.0, 1.6635905663647933E9, 0.0, 2022-09-19 17:29:26.364
146.0, -2186.760567040511, 14299.573218771604, -21170.924147477646, -40566.42688112579, -187500.02235174447, -187500.02235174447, 5958.595092129122, -20222.226705816593, 0.64, -0.792, 0.098, 192.0, 0.0, 0.0, 0.0, 0.0, 0.0, 0.0, 0.0, 0.0, 0.0, 1.6635905663687973E9, 0.0, 2022-09-19 17:29:26.368
147.0, -1987.6065239437253, 14389.449583226393, -21481.881616339877, -40582.587192366984, -187500.02235174447, -187500.02235174447, 6127.618983700155, -20448.4263597043, 0.64, -0.792, 0.098, 192.0, 0.0, 0.0, 0.0, 0.0, 0.0, 0.0, 0.0, 0.0, 0.0, 1.6635905663737507E9, 0.0, 2022-09-19 17:29:26.373
148.0, -2282.02370190903, 14356.726629343824, -22565.98592591118, -40289.041732435435, -187500.02235174447, -187500.02235174447, 5872.384413765003, -21440.53088909756, 0.64, -0.792, 0.098, 192.0, 0.0, 0.0, 0.0, 0.0, 0.0, 0.0, 0.0, 0.0, 0.0, 1.663590566377836E9, 0.0, 2022-09-19 17:29:26.377
149.0, -2949.893826233605, 14195.302330887596, -23641.19424118927, -39849.65113993301, -187500.02235174447, -187500.02235174447, 5312.808491326391, -22495.533227388052, 0.64, -0.79, 0.10200000000000001, 192.0, 20.0, 0.0, 231.0, 80.0, 3.0, 48.0, 0.0, 0.0, 0.0, 1.6635905663808334E9, 0.0, 2022-09-19 17:29:26.380
150.0, -2903.5810117222086, 14180.259606869175, -22382.075772532913, -40042.99372947142, -187500.02235174447, -187500.02235174447, 5368.978425142578, -21418.894400464822, 0.64, -0.79, 0.10200000000000001, 192.0, 0.0, 0.0, 0.0, 0.0, 0.0, 0.0, 0.0, 0.0, 0.0, 1.6635905663848104E9, 0.0, 2022-09-19 17:29:26.384
151.0, -2276.1004896283735, 14332.139710442987, -21240.549831455926, -40437.97140574115, -187500.02235174447, -187500.02235174447, 5900.525260034235, -20281.615290834343, 0.64, -0.79, 0.10200000000000001, 192.0, 0.0, 0.0, 0.0, 0.0, 0.0, 0.0, 0.0, 0.0, 0.0, 1.6635905663888052E9, 0.0, 2022-09-19 17:29:26.388
152.0, -2067.6928243270904, 14434.778920981757, -21560.69386728929, -40448.70024307969, -187500.02235174447, -187500.02235174447, 6070.085593472194, -20525.606933308474, 0.64, -0.79, 0.10200000000000001, 192.0, 0.0, 0.0, 0.0, 0.0, 0.0, 0.0, 0.0, 0.0, 0.0, 1.6635905663928568E9, 0.0, 2022-09-19 17:29:26.392
153.0, -2376.795098399532, 14406.526315990248, -22684.80779943559, -40117.626204207685, -187500.02235174447, -187500.02235174447, 5792.141651170451, -21535.0340646546, 0.64, -0.79, 0.10200000000000001, 192.0, 0.0, 0.0, 0.0, 0.0, 0.0, 0.0, 0.0, 0.0, 0.0, 1.663590566396836E9, 0.0, 2022-09-19 17:29:26.396
154.0, -3083.534906331886, 14234.551994151116, -23845.556240744143, -39624.16674186787, -187500.02235174447, -187500.02235174447, 5175.591132115261, -22621.48530739371, 0.64, -0.79, 0.10200000000000001, 192.0, 0.0, 0.0, 0.0, 0.0, 0.0, 0.0, 0.0, 0.0, 0.0, 1.6635905664018E9, 0.0, 2022-09-19 17:29:26.401
155.0, -3086.6417988111734, 14198.520982089161, -22657.583374689028, -39753.00219690826, -187500.02235174447, -187500.02235174447, 5177.289864693865, -21636.28746703714, 0.64, -0.79, 0.10200000000000001, 192.0, 0.0, 0.0, 0.0, 0.0, 0.0, 0.0, 0.0, 0.0, 0.0, 1.6635905664058812E9, 0.0, 2022-09-19 17:29:26.405
156.0, -2507.6645621853545, 14332.273820909719, -21581.816265799556, -40080.63406713415, -187500.02235174447, -187500.02235174447, 5654.052573925564, -20561.034448270137, 0.64, -0.79, 0.10200000000000001, 192.0, 0.0, 0.0, 0.0, 0.0, 0.0, 0.0, 0.0, 0.0, 0.0, 1.6635905664089699E9, 0.0, 2022-09-19 17:29:26.408
157.0, -2320.245184927605, 14418.573906251659, -21881.217882778394, -40054.81780228827, -187500.02235174447, -187500.02235174447, 5811.7217793133, -20782.003793955304, 0.64, -0.79, 0.10200000000000001, 192.0, 0.0, 0.0, 0.0, 0.0, 0.0, 0.0, 0.0, 0.0, 0.0, 1.6635905664128325E9, 0.0, 2022-09-19 17:29:26.412
158.0, -2611.8907465804514, 14382.252321511785, -22938.142471092044, -39744.82145843762, -187500.02235174447, -187500.02235174447, 5559.884674535355, -21744.91694508993, 0.64, -0.79, 0.10200000000000001, 192.0, 0.0, 0.0, 0.0, 0.0, 0.0, 0.0, 0.0, 0.0, 0.0, 1.6635905664168327E9, 0.0, 2022-09-19 17:29:26.416
159.0, -3261.655957896228, 14218.928124776856, -24000.789105986252, -39313.052810794456, -187500.02235174447, -187500.02235174447, 5001.828670719704, -22811.341024797086, 0.628, -0.788, 0.11, 192.0, 19.0, 160.0, 231.0, 96.0, 3.0, 112.0, 0.0, 0.0, 0.0, 1.6635905664208703E9, 0.0, 2022-09-19 17:29:26.420
160.0, -3197.975837943058, 14211.037958984132, -22728.39370112344, -39493.25257459314, -187500.02235174447, -187500.02235174447, 5075.835296611225, -21754.50584346126, 0.628, -0.788, 0.11, 192.0, 0.0, 0.0, 0.0, 0.0, 0.0, 0.0, 0.0, 0.0, 0.0, 1.663590566424863E9, 0.0, 2022-09-19 17:29:26.424
161.0, -2586.163888712393, 14357.8889200555, -21612.41580395887, -39866.39259653004, -187500.02235174447, -187500.02235174447, 5599.313151754517, -20620.154812354423, 0.628, -0.788, 0.11, 192.0, 0.0, 0.0, 0.0, 0.0, 0.0, 0.0, 0.0, 0.0, 0.0, 1.663590566429867E9, 0.0, 2022-09-19 17:29:26.429
162.0, -2370.335444251948, 14455.05195320272, -21899.076926598183, -39890.286611352756, -187500.02235174447, -187500.02235174447, 5780.183467886862, -20807.2612651898, 0.628, -0.788, 0.11, 192.0, 0.0, 0.0, 0.0, 0.0, 0.0, 0.0, 0.0, 0.0, 0.0, 1.6635905664338856E9, 0.0, 2022-09-19 17:29:26.433
163.0, -2622.5525286856328, 14438.511662305793, -22921.64688368403, -39625.060811646086, -187500.02235174447, -187500.02235174447, 5554.967290755188, -21754.796416139176, 0.628, -0.788, 0.11, 192.0, 0.0, 0.0, 0.0, 0.0, 0.0, 0.0, 0.0, 0.0, 0.0, 1.6635905664370375E9, 0.0, 2022-09-19 17:29:26.437
164.0, -3234.1409604717446, 14299.148535626953, -23939.522974434254, -39239.80614421441, -187500.02235174447, -187500.02235174447, 5035.937432758503, -22765.98933529727, 0.628, -0.788, 0.11, 192.0, 0.0, 0.0, 0.0, 0.0, 0.0, 0.0, 0.0, 0.0, 0.0, 1.663590566440914E9, 0.0, 2022-09-19 17:29:26.440
165.0, -3143.2140640275557, 14312.805451489146, -22638.00324654618, -39452.930027595765, -187500.02235174447, -187500.02235174447, 5123.265698345387, -21721.44761341186, 0.628, -0.788, 0.11, 192.0, 0.0, 0.0, 0.0, 0.0, 0.0, 0.0, 0.0, 0.0, 0.0, 1.6635905664448838E9, 0.0, 2022-09-19 17:29:26.444
166.0, -2514.526547733134, 14478.521284880791, -21515.409233022838, -39844.73375615284, -187500.02235174447, -187500.02235174447, 5661.227483895717, -20535.598163079998, 0.628, -0.788, 0.11, 192.0, 0.0, 0.0, 0.0, 0.0, 0.0, 0.0, 0.0, 0.0, 0.0, 1.6635905664488792E9, 0.0, 2022-09-19 17:29:26.448
167.0, -2285.0635391549517, 14590.190600179507, -21788.368736311048, -39896.74626550034, -187500.02235174447, -187500.02235174447, 5861.275596770715, -20696.57542664712, 0.628, -0.788, 0.11, 192.0, 0.0, 0.0, 0.0, 0.0, 0.0, 0.0, 0.0, 0.0, 0.0, 1.663590566452953E9, 0.0, 2022-09-19 17:29:26.452
168.0, -2524.383667037924, 14582.188675664507, -22774.63946040147, -39662.70114930882, -187500.02235174447, -187500.02235174447, 5661.205132151263, -21610.717071380266, 0.628, -0.788, 0.11, 192.0, 0.0, 0.0, 0.0, 0.0, 0.0, 0.0, 0.0, 0.0, 0.0, 1.6635905664578993E9, 0.0, 2022-09-19 17:29:26.457
169.0, -3108.7253223330167, 14451.989764212343, -23756.037504200638, -39308.090723525376, -187500.02235174447, -187500.02235174447, 5168.751498311937, -22598.10538269346, 0.62, -0.794, 0.11, 192.0, 19.0, 96.0, 231.0, 48.0, 3.0, 112.0, 0.0, 0.0, 0.0, 1.6635905664619997E9, 0.0, 2022-09-19 17:29:26.461
170.0, -2996.541916911831, 14471.391078399549, -22476.891872512326, -39535.81029603604, -187500.02235174447, -187500.02235174447, 5267.099173915288, -21511.028291109596, 0.62, -0.794, 0.11, 192.0, 0.0, 0.0, 0.0, 0.0, 0.0, 0.0, 0.0, 0.0, 0.0, 1.6635905664649775E9, 0.0, 2022-09-19 17:29:26.464
171.0, -2360.210104013694, 14640.504376948402, -21361.60687942587, -39937.80642006474, -187500.02235174447, -187500.02235174447, 5806.938505999864, -20409.17669644078, 0.62, -0.794, 0.11, 192.0, 0.0, 0.0, 0.0, 0.0, 0.0, 0.0, 0.0, 0.0, 0.0, 1.6635905664689648E9, 0.0, 2022-09-19 17:29:26.468
172.0, -2123.2369092985286, 14753.581852147801, -21607.856048089987, -40004.794598197295, -187500.02235174447, -187500.02235174447, 6011.658133466021, -20593.086849819047, 0.62, -0.794, 0.11, 192.0, 0.0, 0.0, 0.0, 0.0, 0.0, 0.0, 0.0, 0.0, 0.0, 1.6635905664729288E9, 0.0, 2022-09-19 17:29:26.472
173.0, -2366.08861280544, 14746.183424733093, -22625.128641739924, -39793.34709565009, -187500.02235174447, -187500.02235174447, 5801.350569886037, -21510.849477153955, 0.62, -0.794, 0.11, 192.0, 0.0, 0.0, 0.0, 0.0, 0.0, 0.0, 0.0, 0.0, 0.0, 1.6635905664769528E9, 0.0, 2022-09-19 17:29:26.476
174.0, -2958.342785637711, 14617.683245859535, -23597.7200982237, -39462.09424282244, -187500.02235174447, -187500.02235174447, 5301.565563865372, -22478.188273690736, 0.62, -0.794, 0.11, 192.0, 0.0, 0.0, 0.0, 0.0, 0.0, 0.0, 0.0, 0.0, 0.0, 1.6635905664810135E9, 0.0, 2022-09-19 17:29:26.481
175.0, -2841.9796040033825, 14646.271127017872, -22291.730021444564, -39697.72633287029, -187500.02235174447, -187500.02235174447, 5404.316533126418, -21350.073379286932, 0.62, -0.794, 0.11, 192.0, 0.0, 0.0, 0.0, 0.0, 0.0, 0.0, 0.0, 0.0, 0.0, 1.6635905664849606E9, 0.0, 2022-09-19 17:29:26.484
176.0, -2204.9772387715866, 14823.721626248554, -21195.689880334125, -40096.14617778613, -187500.02235174447, -187500.02235174447, 5939.953737253397, -20213.800098156942, 0.62, -0.794, 0.11, 192.0, 0.0, 0.0, 0.0, 0.0, 0.0, 0.0, 0.0, 0.0, 0.0, 1.663590566488952E9, 0.0, 2022-09-19 17:29:26.488
177.0, -1979.738709895457, 14933.71456071312, -21464.648421364836, -40171.91859148963, -187500.02235174447, -187500.02235174447, 6131.284669790825, -20428.220382716703, 0.62, -0.794, 0.11, 192.0, 0.0, 0.0, 0.0, 0.0, 0.0, 0.0, 0.0, 0.0, 0.0, 1.6635905664920185E9, 0.0, 2022-09-19 17:29:26.492
178.0, -2221.405770946237, 14932.038179878973, -22445.845299463905, -39963.399167466065, -187500.02235174447, -187500.02235174447, 5938.165597696972, -21371.12872256383, 0.62, -0.794, 0.11, 192.0, 0.0, 0.0, 0.0, 0.0, 0.0, 0.0, 0.0, 0.0, 0.0, 1.6635905664970367E9, 0.0, 2022-09-19 17:29:26.497
179.0, -2806.373275086078, 14814.177431366139, -23407.953787798142, -39637.66719551888, -187500.02235174447, -187500.02235174447, 5448.014193536544, -22348.034065727483, 0.62, -0.794, 0.11, 192.0, 0.0, 0.0, 0.0, 0.0, 0.0, 0.0, 0.0, 0.0, 0.0, 1.6635905665010092E9, 0.0, 2022-09-19 17:29:26.501
180.0, -2705.2986866591796, 14845.760446281487, -22130.86451659972, -39872.20405008842, -187500.02235174447, -187500.02235174447, 5539.589290569937, -21241.9132878677, 0.62, -0.804, 0.11800000000000001, 192.0, 19.0, 96.0, 230.0, 224.0, 3.0, 176.0, 0.0, 0.0, 0.0, 1.663590566504973E9, 0.0, 2022-09-19 17:29:26.504
181.0, -2092.5032606724812, 15017.153622764781, -21043.385093615663, -40265.19242110162, -187500.02235174447, -187500.02235174447, 6063.938863746985, -20134.563164062878, 0.62, -0.804, 0.11800000000000001, 192.0, 0.0, 0.0, 0.0, 0.0, 0.0, 0.0, 0.0, 0.0, 0.0, 1.6635905665090115E9, 0.0, 2022-09-19 17:29:26.509
182.0, -1877.166554590053, 15123.27970543858, -21332.907239545257, -40335.73452660257, -187500.02235174447, -187500.02235174447, 6243.244557767458, -20344.98248636514, 0.62, -0.804, 0.11800000000000001, 192.0, 0.0, 0.0, 0.0, 0.0, 0.0, 0.0, 0.0, 0.0, 0.0, 1.66359056651305E9, 0.0, 2022-09-19 17:29:26.513
183.0, -2129.4953977460145, 15106.359434885913, -22377.3819061973, -40134.546474760355, -187500.02235174447, -187500.02235174447, 6030.523005786301, -21291.668271025213, 0.62, -0.804, 0.11800000000000001, 192.0, 0.0, 0.0, 0.0, 0.0, 0.0, 0.0, 0.0, 0.0, 0.0, 1.663590566517002E9, 0.0, 2022-09-19 17:29:26.517
184.0, -2712.4065413959675, 14990.935026518706, -23291.702364886092, -39803.11480797706, -187500.02235174447, -187500.02235174447, 5550.943976753232, -22234.44250040561, 0.62, -0.804, 0.11800000000000001, 192.0, 0.0, 0.0, 0.0, 0.0, 0.0, 0.0, 0.0, 0.0, 0.0, 1.6635905665200672E9, 0.0, 2022-09-19 17:29:26.520
185.0, -2599.3067144521137, 15028.709474648176, -21990.964948053952, -40018.92090069305, -187500.02235174447, -187500.02235174447, 5653.2926146140835, -21098.526847186906, 0.62, -0.804, 0.11800000000000001, 192.0, 0.0, 0.0, 0.0, 0.0, 0.0, 0.0, 0.0, 0.0, 0.0, 1.6635905665250823E9, 0.0, 2022-09-19 17:29:26.525
186.0, -1994.1108815802195, 15190.066717871037, -20946.311467446267, -40397.85002444387, -187500.02235174447, -187500.02235174447, 6164.566417284777, -20061.092980038284, 0.62, -0.804, 0.11800000000000001, 192.0, 0.0, 0.0, 0.0, 0.0, 0.0, 0.0, 0.0, 0.0, 0.0, 1.6635905665291243E9, 0.0, 2022-09-19 17:29:26.529
187.0, -1787.759576768825, 15287.967358585282, -21250.49635773854, -40454.24347570461, -187500.02235174447, -187500.02235174447, 6334.752599567485, -20267.37722961631, 0.62, -0.804, 0.11800000000000001, 192.0, 0.0, 0.0, 0.0, 0.0, 0.0, 0.0, 0.0, 0.0, 0.0, 1.663590566533043E9, 0.0, 2022-09-19 17:29:26.533
188.0, -2041.675393781113, 15266.30851820809, -22266.15962578769, -40243.57828421334, -187500.02235174447, -187500.02235174447, 6113.716198648954, -21195.734583823036, 0.62, -0.804, 0.11800000000000001, 192.0, 0.0, 0.0, 0.0, 0.0, 0.0, 0.0, 0.0, 0.0, 0.0, 1.6635905665370426E9, 0.0, 2022-09-19 17:29:26.537
189.0, -2628.7663136442084, 15130.879298553384, -23196.483933506483, -39919.67915531149, -187500.02235174447, -187500.02235174447, 5636.26058533914, -22137.257115513938, 0.62, -0.804, 0.11800000000000001, 192.0, 0.0, 0.0, 0.0, 0.0, 0.0, 0.0, 0.0, 0.0, 0.0, 1.6635905665410664E9, 0.0, 2022-09-19 17:29:26.541
190.0, -2526.015344383162, 15155.175644776304, -21936.024360182808, -40139.26269284042, -187500.02235174447, -187500.02235174447, 5738.2292435442505, -21034.600858044727, 0.612, -0.804, 0.12, 192.0, 19.0, 32.0, 230.0, 224.0, 3.0, 192.0, 0.0, 0.0, 0.0, 1.6635905665451102E9, 0.0, 2022-09-19 17:29:26.545
191.0, -1919.2101859104857, 15320.198574089834, -20871.969565387913, -40520.024659636576, -187500.02235174447, -187500.02235174447, 6258.622557952709, -19960.174853822573, 0.612, -0.804, 0.12, 192.0, 0.0, 0.0, 0.0, 0.0, 0.0, 0.0, 0.0, 0.0, 0.0, 1.6635905665480943E9, 0.0, 2022-09-19 17:29:26.548
192.0, -1697.2573634692865, 15431.934944621915, -21132.94853364808, -40593.427788427805, -187500.02235174447, -187500.02235174447, 6457.106048715837, -20148.13067294725, 0.612, -0.804, 0.12, 192.0, 0.0, 0.0, 0.0, 0.0, 0.0, 0.0, 0.0, 0.0, 0.0, 1.6635905665521173E9, 0.0, 2022-09-19 17:29:26.552
193.0, -1934.2752616733626, 15423.262467773257, -22133.94905733455, -40412.89274846229, -187500.02235174447, -187500.02235174447, 6256.163866062626, -21095.777582618903, 0.612, -0.804, 0.12, 192.0, 0.0, 0.0, 0.0, 0.0, 0.0, 0.0, 0.0, 0.0, 0.0, 1.663590566557187E9, 0.0, 2022-09-19 17:29:26.557
194.0, -2512.492538987701, 15298.02564359017, -23057.679600439027, -40123.97409963299, -187500.02235174447, -187500.02235174447, 5772.04743290513, -22066.13386465715, 0.612, -0.804, 0.12, 192.0, 0.0, 0.0, 0.0, 0.0, 0.0, 0.0, 0.0, 0.0, 0.0, 1.6635905665611503E9, 0.0, 2022-09-19 17:29:26.561
195.0, -2400.107967866417, 15336.783568475674, -21772.11901809204, -40351.201933765646, -187500.02235174447, -187500.02235174447, 5862.4378874823915, -20947.00437152438, 0.612, -0.804, 0.12, 192.0, 0.0, 0.0, 0.0, 0.0, 0.0, 0.0, 0.0, 0.0, 0.0, 1.663590566565112E9, 0.0, 2022-09-19 17:29:26.565
196.0, -1793.302809393741, 15511.59656186063, -20735.06513059916, -40722.21853997929, -187500.02235174447, -187500.02235174447, 6365.575655171354, -19853.35586707066, 0.612, -0.804, 0.12, 192.0, 0.0, 0.0, 0.0, 0.0, 0.0, 0.0, 0.0, 0.0, 0.0, 1.6635905665690963E9, 0.0, 2022-09-19 17:29:26.569
197.0, -1581.9670655688126, 15621.56714458074, -21021.480384049464, -40792.470072802316, -187500.02235174447, -187500.02235174447, 6546.513026537064, -20065.429218462614, 0.612, -0.804, 0.12, 192.0, 0.0, 0.0, 0.0, 0.0, 0.0, 0.0, 0.0, 0.0, 0.0, 1.663590566573145E9, 0.0, 2022-09-19 17:29:26.573
198.0, -1847.3493274866735, 15606.94910370697, -22059.428341320556, -40588.689218603286, -187500.02235174447, -187500.02235174447, 6322.146215694692, -21013.009072900903, 0.612, -0.804, 0.12, 192.0, 0.0, 0.0, 0.0, 0.0, 0.0, 0.0, 0.0, 0.0, 0.0, 1.6635905665761652E9, 0.0, 2022-09-19 17:29:26.576
199.0, -2457.0602127385396, 15472.279843363744, -23022.676768622016, -40274.26722935048, -187500.02235174447, -187500.02235174447, 5817.3544189160375, -21980.549035137778, 0.612, -0.804, 0.12, 192.0, 0.0, 0.0, 0.0, 0.0, 0.0, 0.0, 0.0, 0.0, 0.0, 1.6635905665801404E9, 0.0, 2022-09-19 17:29:26.580
200.0, -2362.489981948135, 15498.386680887543, -21741.094796788075, -40499.14813031532, -187500.02235174447, -187500.02235174447, 5902.425158312936, -20866.336925785177, 0.596, -0.796, 0.116, 192.0, 18.0, 160.0, 231.0, 32.0, 3.0, 160.0, 0.0, 0.0, 0.0, 1.6635905665851622E9, 0.0, 2022-09-19 17:29:26.585
201.0, -1770.3475678381405, 15672.372659727653, -20696.933054558405, -40853.84796307659, -187500.02235174447, -187500.02235174447, 6404.64650447923, -19805.813706614223, 0.596, -0.796, 0.116, 192.0, 0.0, 0.0, 0.0, 0.0, 0.0, 0.0, 0.0, 0.0, 0.0, 1.663590566589258E9, 0.0, 2022-09-19 17:29:26.589
202.0, -1570.9476555523463, 15787.84177158377, -20997.899293649112, -40886.14623381451, -187500.02235174447, -187500.02235174447, 6577.894875752316, -20027.58771509978, 0.596, -0.796, 0.116, 192.0, 0.0, 0.0, 0.0, 0.0, 0.0, 0.0, 0.0, 0.0, 0.0, 1.6635905665931275E9, 0.0, 2022-09-19 17:29:26.593
203.0, -1836.1511035145645, 15775.92829178909, -22042.530422512344, -40652.771669956644, -187500.02235174447, -187500.02235174447, 6348.677736363142, -21033.237401632956, 0.596, -0.796, 0.116, 192.0, 0.0, 0.0, 0.0, 0.0, 0.0, 0.0, 0.0, 0.0, 0.0, 1.663590566597159E9, 0.0, 2022-09-19 17:29:26.597
204.0, -2445.7278782996987, 15631.446615629986, -23013.669015606527, -40333.722869601595, -187500.02235174447, -187500.02235174447, 5816.236831693272, -21981.8901398051, 0.596, -0.796, 0.116, 192.0, 0.0, 0.0, 0.0, 0.0, 0.0, 0.0, 0.0, 0.0, 0.0, 1.6635905666011984E9, 0.0, 2022-09-19 17:29:26.601
205.0, -2361.9982435701186, 15646.936374537514, -21745.8333666126, -40546.511476816115, -187500.02235174447, -187500.02235174447, 5891.875134930031, -20878.339812557675, 0.596, -0.796, 0.116, 192.0, 0.0, 0.0, 0.0, 0.0, 0.0, 0.0, 0.0, 0.0, 0.0, 1.6635905666042216E9, 0.0, 2022-09-19 17:29:26.604
206.0, -1777.8354022306685, 15813.680388174105, -20722.995188593293, -40874.83625112013, -187500.02235174447, -187500.02235174447, 6400.667893966186, -19828.433672002993, 0.596, -0.796, 0.116, 192.0, 0.0, 0.0, 0.0, 0.0, 0.0, 0.0, 0.0, 0.0, 0.0, 1.6635905666081858E9, 0.0, 2022-09-19 17:29:26.608
207.0, -1581.8106033576255, 15922.689845882636, -21032.20922138801, -40892.53883272873, -187500.02235174447, -187500.02235174447, 6572.262236149578, -20071.397134232182, 0.596, -0.796, 0.116, 192.0, 0.0, 0.0, 0.0, 0.0, 0.0, 0.0, 0.0, 0.0, 0.0, 1.663590566612158E9, 0.0, 2022-09-19 17:29:26.612
208.0, -1865.9236271290335, 15901.232171205542, -22103.28246394187, -40639.33827153901, -187500.02235174447, -187500.02235174447, 6330.416361143156, -21008.292854820833, 0.596, -0.796, 0.116, 192.0, 0.0, 0.0, 0.0, 0.0, 0.0, 0.0, 0.0, 0.0, 0.0, 1.663590566617309E9, 0.0, 2022-09-19 17:29:26.617
209.0, -2495.5946201794886, 15752.235442666466, -23081.238339094918, -40288.17001440168, -187500.02235174447, -187500.02235174447, 5789.1241656689845, -21976.279851946816, 0.596, -0.796, 0.116, 192.0, 0.0, 0.0, 0.0, 0.0, 0.0, 0.0, 0.0, 0.0, 0.0, 1.6635905666212175E9, 0.0, 2022-09-19 17:29:26.621
210.0, -2424.2925553670593, 15763.143093960654, -21799.11992539405, -40452.81296405947, -187500.02235174447, -187500.02235174447, 5858.012242080241, -20896.80235347776, 0.588, -0.788, 0.12, 192.0, 18.0, 96.0, 231.0, 96.0, 3.0, 192.0, 0.0, 0.0, 0.0, 1.6635905666252744E9, 0.0, 2022-09-19 17:29:26.625
211.0, -1847.2152170199415, 15918.755938858503, -20817.11838449459, -40736.76952561969, -187500.02235174447, -187500.02235174447, 6334.663192589664, -19927.965990062476, 0.588, -0.788, 0.12, 192.0, 0.0, 0.0, 0.0, 0.0, 0.0, 0.0, 0.0, 0.0, 0.0, 1.663590566628308E9, 0.0, 2022-09-19 17:29:26.628
212.0, -1661.3381101296081, 16019.003512740555, -21157.401342082187, -40701.230251935754, -187500.02235174447, -187500.02235174447, 6472.819325067917, -20198.57856018288, 0.588, -0.788, 0.12, 192.0, 0.0, 0.0, 0.0, 0.0, 0.0, 0.0, 0.0, 0.0, 0.0, 1.6635905666322775E9, 0.0, 2022-09-19 17:29:26.632
213.0, -1964.6512823881249, 15989.007471681532, -22232.65436084919, -40392.32914356341, -187500.02235174447, -187500.02235174447, 6207.973505016984, -21119.090452085788, 0.588, -0.788, 0.12, 192.0, 0.0, 0.0, 0.0, 0.0, 0.0, 0.0, 0.0, 0.0, 0.0, 1.6635905666362388E9, 0.0, 2022-09-19 17:29:26.636
214.0, -2610.8849180799625, 15833.819309928336, -23199.702584708048, -39995.51862424835, -187500.02235174447, -187500.02235174447, 5663.395603107882, -22084.79757127733, 0.588, -0.788, 0.12, 192.0, 0.0, 0.0, 0.0, 0.0, 0.0, 0.0, 0.0, 0.0, 0.0, 1.6635905666412358E9, 0.0, 2022-09-19 17:29:26.641
215.0, -2528.6975537177987, 15841.955344910068, -21941.76875850782, -40153.61251278073, -187500.02235174447, -187500.02235174447, 5724.4382172153255, -21001.922607651068, 0.588, -0.788, 0.12, 192.0, 0.0, 0.0, 0.0, 0.0, 0.0, 0.0, 0.0, 0.0, 0.0, 1.663590566645274E9, 0.0, 2022-09-19 17:29:26.645
216.0, -1924.0158109683766, 15998.775184008502, -20921.076347956223, -40460.881943807835, -187500.02235174447, -187500.02235174447, 6220.579888889777, -20014.064909704317, 0.588, -0.788, 0.12, 192.0, 0.0, 0.0, 0.0, 0.0, 0.0, 0.0, 0.0, 0.0, 0.0, 1.6635905666492307E9, 0.0, 2022-09-19 17:29:26.649
217.0, -1710.4895961868283, 16094.217132832664, -21200.271987947464, -40474.024769547555, -187500.02235174447, -187500.02235174447, 6413.050760394426, -20202.266598018003, 0.588, -0.788, 0.12, 192.0, 0.0, 0.0, 0.0, 0.0, 0.0, 0.0, 0.0, 0.0, 0.0, 1.6635905666542273E9, 0.0, 2022-09-19 17:29:26.654
218.0, -1954.190665983041, 16063.327021995428, -22222.97605550004, -40252.29546455091, -187500.02235174447, -187500.02235174447, 6204.933667771062, -21094.056498295846, 0.588, -0.788, 0.12, 192.0, 0.0, 0.0, 0.0, 0.0, 0.0, 0.0, 0.0, 0.0, 0.0, 1.663590566657265E9, 0.0, 2022-09-19 17:29:26.657
219.0, -2515.1076930889717, 15915.112604512287, -23058.216042305954, -39970.66348441404, -187500.02235174447, -187500.02235174447, 5738.631574944446, -22010.232151774428, 0.588, -0.788, 0.12, 192.0, 0.0, 0.0, 0.0, 0.0, 0.0, 0.0, 0.0, 0.0, 0.0, 1.6635905666612563E9, 0.0, 2022-09-19 17:29:26.661
220.0, -2346.910816062786, 15932.234040765054, -21657.76749345869, -40273.507270038994, -187500.02235174447, -187500.02235174447, 5893.797384953187, -20839.89481209455, 0.594, -0.798, 0.116, 192.0, 18.0, 144.0, 231.0, 16.0, 3.0, 160.0, 0.0, 0.0, 0.0, 1.6635905666652575E9, 0.0, 2022-09-19 17:29:26.665
221.0, -1691.177688977443, 16090.819667675456, -20565.750666350206, -40709.0086590062, -187500.02235174447, -187500.02235174447, 6465.644415097763, -19736.411540080495, 0.594, -0.798, 0.116, 192.0, 0.0, 0.0, 0.0, 0.0, 0.0, 0.0, 0.0, 0.0, 0.0, 1.6635905666682837E9, 0.0, 2022-09-19 17:29:26.668
222.0, -1463.1004885554896, 16187.893293844856, -20883.346603315666, -40785.608087254535, -187500.02235174447, -187500.02235174447, 6667.8382954404715, -19950.965935106986, 0.594, -0.798, 0.116, 192.0, 0.0, 0.0, 0.0, 0.0, 0.0, 0.0, 0.0, 0.0, 0.0, 1.6635905666724312E9, 0.0, 2022-09-19 17:29:26.672
223.0, -1729.3768202515628, 16155.997354507132, -21933.029226425795, -40592.62312562742, -187500.02235174447, -187500.02235174447, 6454.334432403378, -20931.358150405664, 0.594, -0.798, 0.116, 192.0, 0.0, 0.0, 0.0, 0.0, 0.0, 0.0, 0.0, 0.0, 0.0, 1.6635905666762507E9, 0.0, 2022-09-19 17:29:26.676
224.0, -2325.8331210414317, 16006.821812012413, -22851.596516561094, -40322.189369462656, -187500.02235174447, -187500.02235174447, 5957.946891539918, -21829.384187386535, 0.594, -0.798, 0.116, 192.0, 0.0, 0.0, 0.0, 0.0, 0.0, 0.0, 0.0, 0.0, 0.0, 1.6635905666803176E9, 0.0, 2022-09-19 17:29:26.680
225.0, -2193.3096281659164, 16026.938382022188, -21518.225552824206, -40614.2372625157, -187500.02235174447, -187500.02235174447, 6074.377128407613, -20688.349984687567, 0.594, -0.798, 0.116, 192.0, 0.0, 0.0, 0.0, 0.0, 0.0, 0.0, 0.0, 0.0, 0.0, 1.6635905666853137E9, 0.0, 2022-09-19 17:29:26.685
226.0, -1576.7814608551814, 16187.490962444659, -20510.117174400948, -41022.73774418089, -187500.02235174447, -187500.02235174447, 6592.669378837273, -19668.484588680814, 0.594, -0.798, 0.116, 192.0, 0.0, 0.0, 0.0, 0.0, 0.0, 0.0, 0.0, 0.0, 0.0, 1.6635905666893516E9, 0.0, 2022-09-19 17:29:26.689
227.0, -1376.7780514690937, 16285.346899669994, -20805.718994822382, -41093.011628748376, -187500.02235174447, -187500.02235174447, 6771.170410057356, -19877.45104759348, 0.594, -0.798, 0.116, 192.0, 0.0, 0.0, 0.0, 0.0, 0.0, 0.0, 0.0, 0.0, 0.0, 1.6635905666933372E9, 0.0, 2022-09-19 17:29:26.693
228.0, -1656.0630984381555, 16258.45775109026, -21861.503644168813, -40886.839137892624, -187500.02235174447, -187500.02235174447, 6538.86872993335, -20801.896846520525, 0.594, -0.798, 0.116, 192.0, 0.0, 0.0, 0.0, 0.0, 0.0, 0.0, 0.0, 0.0, 0.0, 1.663590566696336E9, 0.0, 2022-09-19 17:29:26.696
229.0, -2257.347376030371, 16117.306484854995, -22763.329477707088, -40601.541471665085, -187500.02235174447, -187500.02235174447, 6047.935014716985, -21736.557392663646, 0.594, -0.798, 0.116, 192.0, 0.0, 0.0, 0.0, 0.0, 0.0, 0.0, 0.0, 0.0, 0.0, 1.663590566700372E9, 0.0, 2022-09-19 17:29:26.700
230.0, -2119.7723889079557, 16143.010990978599, -21458.836967806456, -40892.89646064001, -187500.02235174447, -187500.02235174447, 6171.406051088101, -20596.93134986536, 0.61, -0.806, 0.11800000000000001, 192.0, 19.0, 16.0, 230.0, 208.0, 3.0, 176.0, 0.0, 0.0, 0.0, 1.6635905667043736E9, 0.0, 2022-09-19 17:29:26.704
231.0, -1501.3890268074308, 16311.207868004783, -20429.874411806395, -41300.36876206026, -187500.02235174447, -187500.02235174447, 6682.858667714438, -19547.025209310676, 0.61, -0.806, 0.11800000000000001, 192.0, 0.0, 0.0, 0.0, 0.0, 0.0, 0.0, 0.0, 0.0, 0.0, 1.6635905667083695E9, 0.0, 2022-09-19 17:29:26.708
232.0, -1283.8171462794717, 16415.29994193315, -20675.296565925666, -41375.42591994118, -187500.02235174447, -187500.02235174447, 6880.246922999254, -19740.077226171165, 0.61, -0.806, 0.11800000000000001, 192.0, 0.0, 0.0, 0.0, 0.0, 0.0, 0.0, 0.0, 0.0, 0.0, 1.6635905667123115E9, 0.0, 2022-09-19 17:29:26.712
233.0, -1542.5162366051957, 16386.220322396795, -21725.71679660282, -41180.36224607971, -187500.02235174447, -187500.02235174447, 6666.050155884047, -20707.4383744524, 0.61, -0.806, 0.11800000000000001, 192.0, 0.0, 0.0, 0.0, 0.0, 0.0, 0.0, 0.0, 0.0, 0.0, 1.663590566717441E9, 0.0, 2022-09-19 17:29:26.717
234.0, -2132.155255336196, 16237.648277002369, -22616.746737569185, -40915.024687650766, -187500.02235174447, -187500.02235174447, 6176.345786612724, -21591.382812426426, 0.61, -0.806, 0.11800000000000001, 192.0, 0.0, 0.0, 0.0, 0.0, 0.0, 0.0, 0.0, 0.0, 0.0, 1.6635905667213943E9, 0.0, 2022-09-19 17:29:26.721
235.0, -1982.5773814412812, 16256.826073745022, -21254.273802551485, -41241.80719158735, -187500.02235174447, -187500.02235174447, 6307.192898654092, -20439.575068899998, 0.61, -0.806, 0.11800000000000001, 192.0, 0.0, 0.0, 0.0, 0.0, 0.0, 0.0, 0.0, 0.0, 0.0, 1.6635905667243588E9, 0.0, 2022-09-19 17:29:26.724
236.0, -1358.4719727601973, 16425.268819960216, -20235.280124578494, -41659.24837103467, -187500.02235174447, -187500.02235174447, 6833.107093943012, -19410.545457666572, 0.61, -0.806, 0.11800000000000001, 192.0, 0.0, 0.0, 0.0, 0.0, 0.0, 0.0, 0.0, 0.0, 0.0, 1.6635905667284427E9, 0.0, 2022-09-19 17:29:26.728
237.0, -1149.460810358621, 16529.6514665665, -20562.755532593197, -41739.088802229024, -187500.02235174447, -187500.02235174447, 7009.507061184295, -19615.913285721934, 0.61, -0.806, 0.11800000000000001, 192.0, 0.0, 0.0, 0.0, 0.0, 0.0, 0.0, 0.0, 0.0, 0.0, 1.6635905667325156E9, 0.0, 2022-09-19 17:29:26.732
238.0, -1415.8489007769706, 16502.82937322013, -21592.589806627013, -41560.341901819935, -187500.02235174447, -187500.02235174447, 6792.002235889702, -20594.472657975275, 0.61, -0.806, 0.11800000000000001, 192.0, 0.0, 0.0, 0.0, 0.0, 0.0, 0.0, 0.0, 0.0, 0.0, 1.6635905667363677E9, 0.0, 2022-09-19 17:29:26.736
239.0, -2003.0962828512531, 16357.230109838261, -22460.664506037774, -41315.99263143452, -187500.02235174447, -187500.02235174447, 6328.941146009105, -21478.595909904947, 0.61, -0.806, 0.11800000000000001, 192.0, 0.0, 0.0, 0.0, 0.0, 0.0, 0.0, 0.0, 0.0, 0.0, 1.663590566740358E9, 0.0, 2022-09-19 17:29:26.740
240.0, -1840.8673215946344, 16381.012365938708, -21093.8776843402, -41653.77219364312, -187500.02235174447, -187500.02235174447, 6467.454906398643, -20315.25466623958, 0.618, -0.808, 0.12, 192.0, 19.0, 80.0, 230.0, 192.0, 3.0, 192.0, 0.0, 0.0, 0.0, 1.6635905667454214E9, 0.0, 2022-09-19 17:29:26.745
241.0, -1206.2342412751009, 16544.716542329377, -20079.55552095837, -42101.00824844936, -187500.02235174447, -187500.02235174447, 6997.303008711697, -19274.28922346702, 0.618, -0.808, 0.12, 192.0, 0.0, 0.0, 0.0, 0.0, 0.0, 0.0, 0.0, 0.0, 0.0, 1.6635905667484136E9, 0.0, 2022-09-19 17:29:26.748
242.0, -996.3290090953124, 16644.20415689995, -20376.78901872504, -42215.27036610489, -187500.02235174447, -187500.02235174447, 7192.366682573162, -19460.702772224282, 0.618, -0.808, 0.12, 192.0, 0.0, 0.0, 0.0, 0.0, 0.0, 0.0, 0.0, 0.0, 0.0, 1.663590566752404E9, 0.0, 2022-09-19 17:29:26.752
243.0, -1260.5042768125866, 16620.846583944152, -21456.758255572113, -42045.55357045574, -187500.02235174447, -187500.02235174447, 6980.852124792591, -20449.56629867152, 0.618, -0.808, 0.12, 192.0, 0.0, 0.0, 0.0, 0.0, 0.0, 0.0, 0.0, 0.0, 0.0, 1.6635905667564003E9, 0.0, 2022-09-19 17:29:26.756
244.0, -1852.5349322003046, 16482.4892857658, -22332.5219550755, -41782.5629451946, -187500.02235174447, -187500.02235174447, 6486.9903310525815, -21338.785748337003, 0.618, -0.808, 0.12, 192.0, 0.0, 0.0, 0.0, 0.0, 0.0, 0.0, 0.0, 0.0, 0.0, 1.663590566760409E9, 0.0, 2022-09-19 17:29:26.760
245.0, -1719.6761631579595, 16506.897390710998, -20963.298793232298, -42078.20946910494, -187500.02235174447, -187500.02235174447, 6595.530402127552, -20162.74871382102, 0.618, -0.808, 0.12, 192.0, 0.0, 0.0, 0.0, 0.0, 0.0, 0.0, 0.0, 0.0, 0.0, 1.6635905667644067E9, 0.0, 2022-09-19 17:29:26.764
246.0, -1124.8291879688727, 16672.724982824922, -20017.887058006174, -42454.36697654331, -187500.02235174447, -187500.02235174447, 7083.6030940536375, -19174.153408307244, 0.618, -0.808, 0.12, 192.0, 0.0, 0.0, 0.0, 0.0, 0.0, 0.0, 0.0, 0.0, 0.0, 1.663590566768434E9, 0.0, 2022-09-19 17:29:26.768
247.0, -946.3952119821563, 16777.26409164239, -20397.620844557387, -42479.46798556662, -187500.02235174447, -187500.02235174447, 7216.350104373706, -19448.27520230713, 0.618, -0.808, 0.12, 192.0, 0.0, 0.0, 0.0, 0.0, 0.0, 0.0, 0.0, 0.0, 0.0, 1.6635905667734742E9, 0.0, 2022-09-19 17:29:26.773
248.0, -1246.7356022281174, 16749.68203898454, -21491.78343913358, -42212.40934281461, -187500.02235174447, -187500.02235174447, 6954.141790168499, -20407.053280717526, 0.618, -0.808, 0.12, 192.0, 0.0, 0.0, 0.0, 0.0, 0.0, 0.0, 0.0, 0.0, 0.0, 1.663590566776432E9, 0.0, 2022-09-19 17:29:26.776
249.0, -1861.2074090489639, 16603.009891868816, -22368.66472585973, -41870.42765264841, -187500.02235174447, -187500.02235174447, 6443.538539831465, -21344.016056539545, 0.618, -0.808, 0.12, 192.0, 0.0, 0.0, 0.0, 0.0, 0.0, 0.0, 0.0, 0.0, 0.0, 1.6635905667804527E9, 0.0, 2022-09-19 17:29:26.780
250.0, -1722.9618695928896, 16625.406339813035, -21000.045061116823, -42121.61655683715, -187500.02235174447, -187500.02235174447, 6561.376936599843, -20191.627167657276, 0.624, -0.802, 0.114, 192.0, 19.0, 128.0, 230.0, 240.0, 3.0, 144.0, 0.0, 0.0, 0.0, 1.6635905667844455E9, 0.0, 2022-09-19 17:29:26.784
251.0, -1116.0002489090264, 16782.047364955826, -20041.91518329563, -42484.832404235895, -187500.02235174447, -187500.02235174447, 7055.976337906878, -19181.909463633237, 0.624, -0.802, 0.114, 192.0, 0.0, 0.0, 0.0, 0.0, 0.0, 0.0, 0.0, 0.0, 0.0, 1.6635905667885003E9, 0.0, 2022-09-19 17:29:26.788
252.0, -932.0900955307599, 16875.47765677901, -20367.021306398074, -42523.277404699016, -187500.02235174447, -187500.02235174447, 7221.088674198231, -19395.03334701459, 0.624, -0.802, 0.114, 192.0, 0.0, 0.0, 0.0, 0.0, 0.0, 0.0, 0.0, 0.0, 0.0, 1.6635905667924895E9, 0.0, 2022-09-19 17:29:26.792
253.0, -1219.779398415017, 16843.916993608116, -21440.217964675187, -42302.06218982484, -187500.02235174447, -187500.02235174447, 6989.546953385706, -20371.17873086676, 0.624, -0.802, 0.114, 192.0, 0.0, 0.0, 0.0, 0.0, 0.0, 0.0, 0.0, 0.0, 0.0, 1.6635905667964823E9, 0.0, 2022-09-19 17:29:26.796
254.0, -1803.8975362655565, 16698.5412476708, -22295.060431368405, -42026.10755277963, -187500.02235174447, -187500.02235174447, 6507.084549317903, -21257.403046775227, 0.624, -0.802, 0.114, 192.0, 0.0, 0.0, 0.0, 0.0, 0.0, 0.0, 0.0, 0.0, 0.0, 1.6635905668015337E9, 0.0, 2022-09-19 17:29:26.801
255.0, -1618.0651328641336, 16724.69278868351, -20861.88892863857, -42357.6956817741, -187500.02235174447, -187500.02235174447, 6661.512751759619, -20043.926840296608, 0.624, -0.802, 0.114, 192.0, 0.0, 0.0, 0.0, 0.0, 0.0, 0.0, 0.0, 0.0, 0.0, 1.6635905668045096E9, 0.0, 2022-09-19 17:29:26.804
0.0, -952.7654591519189, 16893.806087232362, -19813.413299729025, -42806.071675547566, -187500.02235174447, -187500.02235174447, 7219.456996852994, -18968.74087676297, 0.624, -0.802, 0.114, 192.0, 0.0, 0.0, 0.0, 0.0, 0.0, 0.0, 0.0, 0.0, 0.0, 1.6635905668085525E9, 0.0, 2022-09-19 17:29:26.808
1.0, -721.6931249729545, 16999.17221059468, -20129.55637330489, -42902.43004589439, -187500.02235174447, -187500.02235174447, 7422.321429529361, -19181.70829793314, 0.624, -0.802, 0.114, 192.0, 0.0, 0.0, 0.0, 0.0, 0.0, 0.0, 0.0, 0.0, 0.0, 1.663590566812595E9, 0.0, 2022-09-19 17:29:26.812
2.0, -1012.6904860365971, 16965.10815204479, -21236.97355234308, -42700.45968299624, -187500.02235174447, -187500.02235174447, 7190.153859872086, -20121.330931345336, 0.624, -0.802, 0.114, 192.0, 0.0, 0.0, 0.0, 0.0, 0.0, 0.0, 0.0, 0.0, 0.0, 1.66359056681654E9, 0.0, 2022-09-19 17:29:26.816
3.0, -1601.9718768563125, 16821.18526949707, -22068.36903910268, -42451.52830499748, -187500.02235174447, -187500.02235174447, 6718.330886165009, -21030.622247531683, 0.624, -0.802, 0.114, 192.0, 0.0, 0.0, 0.0, 0.0, 0.0, 0.0, 0.0, 0.0, 0.0, 1.6635905668205104E9, 0.0, 2022-09-19 17:29:26.820
4.0, -1412.4961391086745, 16857.216281559024, -20631.777719471185, -42817.04638207512, -187500.02235174447, -187500.02235174447, 6891.668664415916, -19806.461907203426, 0.614, -0.792, 0.116, 192.0, 19.0, 48.0, 231.0, 64.0, 3.0, 160.0, 0.0, 0.0, 0.0, 1.6635905668245003E9, 0.0, 2022-09-19 17:29:26.824
5.0, -753.6784712884988, 17022.686245761663, -19595.036756400677, -43306.01314377942, -187500.02235174447, -187500.02235174447, 7452.8092089664, -18768.402191210054, 0.614, -0.792, 0.116, 192.0, 0.0, 0.0, 0.0, 0.0, 0.0, 0.0, 0.0, 0.0, 0.0, 1.6635905668296027E9, 0.0, 2022-09-19 17:29:26.829
6.0, -514.8947852724535, 17126.4430435232, -19856.75333222787, -43470.11965157028, -187500.02235174447, -187500.02235174447, 7678.338310520448, -18944.824510195795, 0.614, -0.792, 0.116, 192.0, 0.0, 0.0, 0.0, 0.0, 0.0, 0.0, 0.0, 0.0, 0.0, 1.6635905668325832E9, 0.0, 2022-09-19 17:29:26.832
7.0, -771.7163290639317, 17098.436307720698, -20893.114315642633, -43346.894484388176, -187500.02235174447, -187500.02235174447, 7484.392223881749, -19892.13614370062, 0.614, -0.792, 0.116, 192.0, 0.0, 0.0, 0.0, 0.0, 0.0, 0.0, 0.0, 0.0, 0.0, 1.663590566835596E9, 0.0, 2022-09-19 17:29:26.835
8.0, -1341.2611295296108, 16961.040134553925, -21750.616639926033, -43136.452810341456, -187500.02235174447, -187500.02235174447, 6999.515831412773, -20757.43922679892, 0.614, -0.792, 0.116, 192.0, 0.0, 0.0, 0.0, 0.0, 0.0, 0.0, 0.0, 0.0, 0.0, 1.663590566840534E9, 0.0, 2022-09-19 17:29:26.840
9.0, -1156.680423817685, 17007.397652554235, -20356.65009697081, -43486.95051514513, -187500.02235174447, -187500.02235174447, 7141.22589125942, -19556.971735593288, 0.614, -0.792, 0.116, 192.0, 0.0, 0.0, 0.0, 0.0, 0.0, 0.0, 0.0, 0.0, 0.0, 1.663590566844602E9, 0.0, 2022-09-19 17:29:26.844
10.0, -541.1133815185286, 17185.608111096397, -19408.734966365693, -43890.287743841145, -187500.02235174447, -187500.02235174447, 7655.830103853954, -18566.230662611804, 0.614, -0.792, 0.116, 192.0, 0.0, 0.0, 0.0, 0.0, 0.0, 0.0, 0.0, 0.0, 0.0, 1.6635905668485785E9, 0.0, 2022-09-19 17:29:26.848
11.0, -372.06713820304134, 17291.868304236927, -19770.475598630383, -43921.379020378474, -187500.02235174447, -187500.02235174447, 7797.517811956145, -18788.786982153295, 0.614, -0.792, 0.116, 192.0, 0.0, 0.0, 0.0, 0.0, 0.0, 0.0, 0.0, 0.0, 0.0, 1.663590566852584E9, 0.0, 2022-09-19 17:29:26.852
12.0, -705.6669241984993, 17266.32026032451, -20898.702251756462, -43641.51282805358, -187500.02235174447, -187500.02235174447, 7520.266773732516, -19834.267477305828, 0.614, -0.792, 0.116, 192.0, 0.0, 0.0, 0.0, 0.0, 0.0, 0.0, 0.0, 0.0, 0.0, 1.6635905668566656E9, 0.0, 2022-09-19 17:29:26.856
13.0, -1350.8500279009377, 17123.15733708827, -21825.494983851313, -43277.82759402128, -187500.02235174447, -187500.02235174447, 6972.0455374772, -20791.190360926434, 0.614, -0.792, 0.116, 192.0, 0.0, 0.0, 0.0, 0.0, 0.0, 0.0, 0.0, 0.0, 0.0, 1.6635905668606741E9, 0.0, 2022-09-19 17:29:26.860
14.0, -1229.9494421421816, 17146.067875154957, -20499.142467873393, -43492.65020998123, -187500.02235174447, -187500.02235174447, 7049.762552948303, -19618.774309012213, 0.614, -0.792, 0.116, 192.0, 0.0, 0.0, 0.0, 0.0, 0.0, 0.0, 0.0, 0.0, 0.0, 1.663590566863665E9, 0.0, 2022-09-19 17:29:26.863
15.0, -660.9187317989746, 17303.066528209034, -19602.949273937855, -43794.46581536124, -187500.02235174447, -187500.02235174447, 7503.726482835589, -18659.25862303479, 0.614, -0.782, 0.116, 192.0, 19.0, 48.0, 231.0, 144.0, 3.0, 160.0, 0.0, 0.0, 0.0, 1.663590566867706E9, 0.0, 2022-09-19 17:29:26.867
16.0, -514.9394887613641, 17383.376346036952, -19994.775354239388, -43786.598001312974, -187500.02235174447, -187500.02235174447, 7630.259708197083, -18979.380307123698, 0.614, -0.782, 0.116, 192.0, 0.0, 0.0, 0.0, 0.0, 0.0, 0.0, 0.0, 0.0, 0.0, 1.6635905668726556E9, 0.0, 2022-09-19 17:29:26.872
17.0, -854.5965975042102, 17334.984819291214, -21122.197344565076, -43474.813517905895, -187500.02235174447, -187500.02235174447, 7345.543187325381, -19987.019298913398, 0.614, -0.782, 0.116, 192.0, 0.0, 0.0, 0.0, 0.0, 0.0, 0.0, 0.0, 0.0, 0.0, 1.6635905668766525E9, 0.0, 2022-09-19 17:29:26.876
18.0, -1513.570727535573, 17180.511913360588, -22022.145631569103, -43057.52880066977, -187500.02235174447, -187500.02235174447, 6790.079985866545, -20936.29788593029, 0.614, -0.782, 0.116, 192.0, 0.0, 0.0, 0.0, 0.0, 0.0, 0.0, 0.0, 0.0, 0.0, 1.6635905668806484E9, 0.0, 2022-09-19 17:29:26.880
19.0, -1414.641906576384, 17203.377747938364, -20718.636598424506, -43207.10667456468, -187500.02235174447, -187500.02235174447, 6843.858283026014, -19792.693232618956, 0.614, -0.782, 0.116, 192.0, 0.0, 0.0, 0.0, 0.0, 0.0, 0.0, 0.0, 0.0, 0.0, 1.6635905668846931E9, 0.0, 2022-09-19 17:29:26.884
20.0, -886.827813008763, 17346.04893279659, -19904.697824084502, -43418.196549200606, -187500.02235174447, -187500.02235174447, 7244.6697645985805, -18889.325128713266, 0.614, -0.782, 0.116, 192.0, 0.0, 0.0, 0.0, 0.0, 0.0, 0.0, 0.0, 0.0, 0.0, 1.6635905668887477E9, 0.0, 2022-09-19 17:29:26.888
21.0, -798.896050321585, 17406.130421892456, -20345.07189334296, -43276.687655054055, -187500.02235174447, -187500.02235174447, 7303.231335071485, -19256.251365691587, 0.614, -0.782, 0.116, 192.0, 0.0, 0.0, 0.0, 0.0, 0.0, 0.0, 0.0, 0.0, 0.0, 1.6635905668916616E9, 0.0, 2022-09-19 17:29:26.891
22.0, -1194.745444625073, 17331.296781456087, -21511.96706437672, -42850.08226038006, -187500.02235174447, -187500.02235174447, 6994.106709254588, -20361.880405173353, 0.614, -0.782, 0.116, 192.0, 0.0, 0.0, 0.0, 0.0, 0.0, 0.0, 0.0, 0.0, 0.0, 1.6635905668956654E9, 0.0, 2022-09-19 17:29:26.895
23.0, -1883.3803395486284, 17145.77730247704, -22440.25736335008, -42369.966789480066, -187500.02235174447, -187500.02235174447, 6419.845690708839, -21291.914140214223, 0.614, -0.782, 0.116, 192.0, 0.0, 0.0, 0.0, 0.0, 0.0, 0.0, 0.0, 0.0, 0.0, 1.663590566900644E9, 0.0, 2022-09-19 17:29:26.900
24.0, -1784.339759867163, 17141.888098941818, -21130.199269080076, -42497.684657297694, -187500.02235174447, -187500.02235174447, 6474.830982068895, -20120.570972033856, 0.614, -0.782, 0.116, 192.0, 0.0, 0.0, 0.0, 0.0, 0.0, 0.0, 0.0, 0.0, 0.0, 1.6635905669046698E9, 0.0, 2022-09-19 17:29:26.904
25.0, -1242.846398692894, 17269.427152803797, -20273.38984887479, -42707.902813899855, -187500.02235174447, -187500.02235174447, 6895.26729527322, -19216.062929160944, 0.616, -0.788, 0.11, 192.0, 19.0, 64.0, 231.0, 96.0, 3.0, 112.0, 0.0, 0.0, 0.0, 1.6635905669086936E9, 0.0, 2022-09-19 17:29:26.908
26.0, -1130.5065310605207, 17324.747720330684, -20685.5336648862, -42577.86036465888, -187500.02235174447, -187500.02235174447, 6971.240874676809, -19547.606354666514, 0.616, -0.788, 0.11, 192.0, 0.0, 0.0, 0.0, 0.0, 0.0, 0.0, 0.0, 0.0, 0.0, 1.6635905669126775E9, 0.0, 2022-09-19 17:29:26.912
27.0, -1499.9361634178358, 17248.3718095269, -21856.362742944093, -42162.81082186828, -187500.02235174447, -187500.02235174447, 6648.034649853069, -20639.623181774998, 0.616, -0.788, 0.11, 192.0, 0.0, 0.0, 0.0, 0.0, 0.0, 0.0, 0.0, 0.0, 0.0, 1.6635905669166868E9, 0.0, 2022-09-19 17:29:26.916
28.0, -2176.85874424681, 17053.33048740989, -22775.287660990678, -41699.21329012076, -187500.02235174447, -187500.02235174447, 6083.63075061211, -21579.42462914284, 0.616, -0.788, 0.11, 192.0, 0.0, 0.0, 0.0, 0.0, 0.0, 0.0, 0.0, 0.0, 0.0, 1.6635905669196842E9, 0.0, 2022-09-19 17:29:26.919
29.0, -2065.8823330262107, 17044.367437883313, -21410.825420716457, -41842.46562033482, -187500.02235174447, -187500.02235174447, 6173.037728433339, -20413.17765869828, 0.616, -0.788, 0.11, 192.0, 0.0, 0.0, 0.0, 0.0, 0.0, 0.0, 0.0, 0.0, 0.0, 1.663590566923714E9, 0.0, 2022-09-19 17:29:26.923
30.0, -1507.4016460659084, 17169.02311671056, -20545.58939285152, -42067.4806317664, -187500.02235174447, -187500.02235174447, 6617.323352971477, -19521.454813653807, 0.616, -0.788, 0.11, 192.0, 0.0, 0.0, 0.0, 0.0, 0.0, 0.0, 0.0, 0.0, 0.0, 1.6635905669287264E9, 0.0, 2022-09-19 17:29:26.928
31.0, -1387.2833713630882, 17217.16877426729, -20970.76427588037, -41962.98622643784, -187500.02235174447, -187500.02235174447, 6714.016999485136, -19813.59211368467, 0.616, -0.788, 0.11, 192.0, 0.0, 0.0, 0.0, 0.0, 0.0, 0.0, 0.0, 0.0, 0.0, 1.6635905669327037E9, 0.0, 2022-09-19 17:29:26.932
32.0, -1757.0035763983224, 17136.76954946155, -22124.158993263125, -41578.245649128636, -187500.02235174447, -187500.02235174447, 6417.364647074301, -20888.71102198494, 0.616, -0.788, 0.11, 192.0, 0.0, 0.0, 0.0, 0.0, 0.0, 0.0, 0.0, 0.0, 0.0, 1.6635905669367166E9, 0.0, 2022-09-19 17:29:26.936
33.0, -2411.395598816347, 16951.853567582795, -22997.17342819851, -41146.87933288566, -187500.02235174447, -187500.02235174447, 5876.005396366763, -21812.64273078951, 0.616, -0.788, 0.11, 192.0, 0.0, 0.0, 0.0, 0.0, 0.0, 0.0, 0.0, 0.0, 0.0, 1.663590566939738E9, 0.0, 2022-09-19 17:29:26.939
34.0, -2265.528114501013, 16948.858433825782, -21632.46531873528, -41326.81087575089, -187500.02235174447, -187500.02235174447, 5974.934217325952, -20607.704890692818, 0.616, -0.788, 0.11, 192.0, 0.0, 0.0, 0.0, 0.0, 0.0, 0.0, 0.0, 0.0, 0.0, 1.663590566943758E9, 0.0, 2022-09-19 17:29:26.943
35.0, -1695.402168679496, 17068.864949806328, -20752.991229652314, -41588.035713200064, -187500.02235174447, -187500.02235174447, 6435.514263572009, -19729.080167899152, 0.618, -0.792, 0.106, 192.0, 19.0, 80.0, 231.0, 64.0, 3.0, 80.0, 0.0, 0.0, 0.0, 1.6635905669477506E9, 0.0, 2022-09-19 17:29:26.947
36.0, -1570.6794346188826, 17115.468336995644, -21173.405191112186, -41510.54221517351, -187500.02235174447, -187500.02235174447, 6538.131122366324, -20051.951116556065, 0.618, -0.792, 0.106, 192.0, 0.0, 0.0, 0.0, 0.0, 0.0, 0.0, 0.0, 0.0, 0.0, 1.6635905669517498E9, 0.0, 2022-09-19 17:29:26.951
37.0, -1939.8184942982787, 17029.28001037598, -22353.867871030317, -41149.78505966486, -187500.02235174447, -187500.02235174447, 6219.819929578296, -21059.187776945564, 0.618, -0.792, 0.106, 192.0, 0.0, 0.0, 0.0, 0.0, 0.0, 0.0, 0.0, 0.0, 0.0, 1.6635905669567797E9, 0.0, 2022-09-19 17:29:26.956
38.0, -2586.3427026680356, 16844.699304664053, -23178.513130964417, -40741.91042684441, -187500.02235174447, -187500.02235174447, 5703.561687894069, -21970.244880943883, 0.618, -0.792, 0.106, 192.0, 0.0, 0.0, 0.0, 0.0, 0.0, 0.0, 0.0, 0.0, 0.0, 1.6635905669607632E9, 0.0, 2022-09-19 17:29:26.960
39.0, -2429.232290891682, 16848.655563432643, -21781.283233318714, -40946.51829558829, -187500.02235174447, -187500.02235174447, 5819.030799750185, -20784.14956142301, 0.618, -0.792, 0.106, 192.0, 0.0, 0.0, 0.0, 0.0, 0.0, 0.0, 0.0, 0.0, 0.0, 1.6635905669647696E9, 0.0, 2022-09-19 17:29:26.964
40.0, -1850.8361996217013, 16976.082858572347, -20902.546751802773, -41227.97146176952, -187500.02235174447, -187500.02235174447, 6283.455346042556, -19868.44329457799, 0.618, -0.792, 0.106, 192.0, 0.0, 0.0, 0.0, 0.0, 0.0, 0.0, 0.0, 0.0, 0.0, 1.6635905669677637E9, 0.0, 2022-09-19 17:29:26.967
41.0, -1713.9094130884903, 17025.860193474316, -21301.413631607727, -41173.81318495431, -187500.02235174447, -187500.02235174447, 6405.31705681289, -20171.644708114232, 0.618, -0.792, 0.106, 192.0, 0.0, 0.0, 0.0, 0.0, 0.0, 0.0, 0.0, 0.0, 0.0, 1.6635905669717772E9, 0.0, 2022-09-19 17:29:26.971
42.0, -2068.3410249162944, 16940.92356454415, -22440.994970917105, -40839.18521871391, -187500.02235174447, -187500.02235174447, 6120.332315007725, -21210.62084563027, 0.618, -0.792, 0.106, 192.0, 0.0, 0.0, 0.0, 0.0, 0.0, 0.0, 0.0, 0.0, 0.0, 1.6635905669758773E9, 0.0, 2022-09-19 17:29:26.975
43.0, -2693.1840411644034, 16758.332164088748, -23284.23688223802, -40464.525278154055, -187500.02235174447, -187500.02235174447, 5597.547363942548, -22089.267920168393, 0.618, -0.792, 0.106, 192.0, 0.0, 0.0, 0.0, 0.0, 0.0, 0.0, 0.0, 0.0, 0.0, 1.6635905669798486E9, 0.0, 2022-09-19 17:29:26.979
44.0, -2529.7927891961085, 16767.004640937404, -21885.442362480448, -40699.93385075735, -187500.02235174447, -187500.02235174447, 5715.184595010829, -20863.386495517076, 0.618, -0.792, 0.106, 192.0, 0.0, 0.0, 0.0, 0.0, 0.0, 0.0, 0.0, 0.0, 0.0, 1.663590566984794E9, 0.0, 2022-09-19 17:29:26.984
45.0, -1957.5657793957926, 16898.96934020154, -21014.752508968417, -41001.95062183745, -187500.02235174447, -187500.02235174447, 6183.654807049609, -19950.65301068461, 0.622, -0.804, 0.10200000000000001, 192.0, 19.0, 112.0, 230.0, 224.0, 3.0, 48.0, 0.0, 0.0, 0.0, 1.6635905669888637E9, 0.0, 2022-09-19 17:29:26.988
46.0, -1814.6040218596486, 16961.21894850957, -21382.148132580296, -40961.44926088444, -187500.02235174447, -187500.02235174447, 6320.223965671536, -20255.642563777277, 0.622, -0.804, 0.10200000000000001, 192.0, 0.0, 0.0, 0.0, 0.0, 0.0, 0.0, 0.0, 0.0, 0.0, 1.6635905669929466E9, 0.0, 2022-09-19 17:29:26.992
47.0, -2163.961787696098, 16885.357127828258, -22543.321257033498, -40639.83000991702, -187500.02235174447, -187500.02235174447, 6039.866034968619, -21320.904352772755, 0.622, -0.804, 0.10200000000000001, 192.0, 0.0, 0.0, 0.0, 0.0, 0.0, 0.0, 0.0, 0.0, 0.0, 1.6635905669958675E9, 0.0, 2022-09-19 17:29:26.995
48.0, -2796.4714522923773, 16705.31382624076, -23392.70989807962, -40282.3585608433, -187500.02235174447, -187500.02235174447, 5511.202575111696, -22190.744839995485, 0.622, -0.804, 0.10200000000000001, 192.0, 0.0, 0.0, 0.0, 0.0, 0.0, 0.0, 0.0, 0.0, 0.0, 1.6635905669999275E9, 0.0, 2022-09-19 17:29:26.999
49.0, -2626.844063621052, 16723.083463082727, -21962.689991317988, -40522.93038641577, -187500.02235174447, -187500.02235174447, 5638.898091184866, -20970.00431656889, 0.622, -0.804, 0.10200000000000001, 192.0, 0.0, 0.0, 0.0, 0.0, 0.0, 0.0, 0.0, 0.0, 0.0, 1.663590567003934E9, 0.0, 2022-09-19 17:29:27.003
50.0, -2042.033021692398, 16864.57000548482, -21084.93698655808, -40827.338794152594, -187500.02235174447, -187500.02235174447, 6117.4265882285345, -20060.15420677116, 0.622, -0.804, 0.10200000000000001, 192.0, 0.0, 0.0, 0.0, 0.0, 0.0, 0.0, 0.0, 0.0, 0.0, 1.6635905670078964E9, 0.0, 2022-09-19 17:29:27.007
51.0, -1900.3900170791171, 16927.66898008215, -21484.96615707471, -40798.90737520545, -187500.02235174447, -187500.02235174447, 6237.678973398087, -20362.79682669602, 0.622, -0.804, 0.10200000000000001, 192.0, 0.0, 0.0, 0.0, 0.0, 0.0, 0.0, 0.0, 0.0, 0.0, 1.6635905670119326E9, 0.0, 2022-09-19 17:29:27.011
52.0, -2249.926596871209, 16858.80325541535, -22632.43766217681, -40485.24534526412, -187500.02235174447, -187500.02235174447, 5956.136400239039, -21385.657356459782, 0.622, -0.804, 0.10200000000000001, 192.0, 0.0, 0.0, 0.0, 0.0, 0.0, 0.0, 0.0, 0.0, 0.0, 1.6635905670169213E9, 0.0, 2022-09-19 17:29:27.016
53.0, -2878.703520143452, 16683.856151563665, -23462.112064613353, -40136.80400095034, -187500.02235174447, -187500.02235174447, 5440.1016759993645, -22244.836061577327, 0.622, -0.804, 0.10200000000000001, 192.0, 0.0, 0.0, 0.0, 0.0, 0.0, 0.0, 0.0, 0.0, 0.0, 1.663590567020888E9, 0.0, 2022-09-19 17:29:27.020
54.0, -2701.3424278905904, 16700.21762850495, -22034.50614625289, -40389.356361550854, -187500.02235174447, -187500.02235174447, 5574.05568052002, -21022.508564294407, 0.622, -0.804, 0.10200000000000001, 192.0, 0.0, 0.0, 0.0, 0.0, 0.0, 0.0, 0.0, 0.0, 0.0, 1.663590567023909E9, 0.0, 2022-09-19 17:29:27.023
55.0, -2122.3875430092266, 16835.445682459555, -21169.56069106587, -40699.44211237933, -187500.02235174447, -187500.02235174447, 6050.594872307167, -20124.661341269177, 0.63, -0.8160000000000001, 0.10200000000000001, 192.0, 19.0, 176.0, 230.0, 128.0, 3.0, 48.0, 0.0, 0.0, 0.0, 1.663590567027962E9, 0.0, 2022-09-19 17:29:27.027
56.0, -1983.6279134306806, 16900.86923848024, -21559.241003899697, -40670.69776900981, -187500.02235174447, -187500.02235174447, 6177.686891280043, -20408.081460962472, 0.63, -0.8160000000000001, 0.10200000000000001, 192.0, 0.0, 0.0, 0.0, 0.0, 0.0, 0.0, 0.0, 0.0, 0.0, 1.663590567031991E9, 0.0, 2022-09-19 17:29:27.031
57.0, -2338.6853741032332, 16834.350446981247, -22710.512305559198, -40359.89676235876, -187500.02235174447, -187500.02235174447, 5897.5971815105895, -21450.09743572443, 0.63, -0.8160000000000001, 0.10200000000000001, 192.0, 0.0, 0.0, 0.0, 0.0, 0.0, 0.0, 0.0, 0.0, 0.0, 1.6635905670359638E9, 0.0, 2022-09-19 17:29:27.035
58.0, -2962.2096374284793, 16667.092343222183, -23539.359693450893, -40020.88785420512, -187500.02235174447, -187500.02235174447, 5377.807364202424, -22303.4646872836, 0.63, -0.8160000000000001, 0.10200000000000001, 192.0, 0.0, 0.0, 0.0, 0.0, 0.0, 0.0, 0.0, 0.0, 0.0, 1.663590567039971E9, 0.0, 2022-09-19 17:29:27.039
59.0, -2774.6561497039975, 16697.06603253675, -22091.525446358377, -40280.27984860895, -187500.02235174447, -187500.02235174447, 5517.930450192744, -21062.138207213666, 0.63, -0.8160000000000001, 0.10200000000000001, 192.0, 0.0, 0.0, 0.0, 0.0, 0.0, 0.0, 0.0, 0.0, 0.0, 1.6635905670449822E9, 0.0, 2022-09-19 17:29:27.044
60.0, -2191.0521019759303, 16846.129816309192, -21229.508069695006, -40592.71253260524, -187500.02235174447, -187500.02235174447, 5995.766043158298, -20150.634068326246, 0.63, -0.8160000000000001, 0.10200000000000001, 192.0, 0.0, 0.0, 0.0, 0.0, 0.0, 0.0, 0.0, 0.0, 0.0, 1.6635905670489824E9, 0.0, 2022-09-19 17:29:27.048
61.0, -2048.4032688621605, 16919.130613700225, -21625.8044988876, -40571.187802694774, -187500.02235174447, -187500.02235174447, 6121.360495252668, -20435.28353396458, 0.63, -0.8160000000000001, 0.10200000000000001, 192.0, 0.0, 0.0, 0.0, 0.0, 0.0, 0.0, 0.0, 0.0, 0.0, 1.6635905670519636E9, 0.0, 2022-09-19 17:29:27.051
62.0, -2390.6084764729117, 16852.969450112516, -22775.108847035033, -40270.3556740708, -187500.02235174447, -187500.02235174447, 5846.2328727522945, -21484.720287885702, 0.63, -0.8160000000000001, 0.10200000000000001, 192.0, 0.0, 0.0, 0.0, 0.0, 0.0, 0.0, 0.0, 0.0, 0.0, 1.663590567055973E9, 0.0, 2022-09-19 17:29:27.055
63.0, -3001.3028384808113, 16684.414945175045, -23575.18953981275, -39941.36034743313, -187500.02235174447, -187500.02235174447, 5340.323488750874, -22317.590989779354, 0.63, -0.8160000000000001, 0.10200000000000001, 192.0, 0.0, 0.0, 0.0, 0.0, 0.0, 0.0, 0.0, 0.0, 0.0, 1.6635905670599916E9, 0.0, 2022-09-19 17:29:27.059
64.0, -2804.4957285518326, 16712.667550166556, -22152.43394999909, -40205.915594806145, -187500.02235174447, -187500.02235174447, 5478.814897395957, -21066.83207354928, 0.63, -0.8160000000000001, 0.10200000000000001, 192.0, 0.0, 0.0, 0.0, 0.0, 0.0, 0.0, 0.0, 0.0, 0.0, 1.6635905670639858E9, 0.0, 2022-09-19 17:29:27.063
65.0, -2220.668163379212, 16852.23184254549, -21293.814038492925, -40519.7117352142, -187500.02235174447, -187500.02235174447, 5953.945929282419, -20172.67288835918, 0.622, -0.812, 0.10200000000000001, 192.0, 19.0, 112.0, 230.0, 160.0, 3.0, 48.0, 0.0, 0.0, 0.0, 1.663590567068106E9, 0.0, 2022-09-19 17:29:27.068
66.0, -2074.4877546415037, 16915.39787237619, -21679.605147791524, -40499.66222043779, -187500.02235174447, -187500.02235174447, 6078.601608109666, -20477.081296096003, 0.622, -0.812, 0.10200000000000001, 192.0, 0.0, 0.0, 0.0, 0.0, 0.0, 0.0, 0.0, 0.0, 0.0, 1.663590567072981E9, 0.0, 2022-09-19 17:29:27.072
67.0, -2417.3635145859143, 16849.259060532935, -22825.981417415314, -40201.53465289291, -187500.02235174447, -187500.02235174447, 5801.350569886037, -21533.804718709554, 0.622, -0.812, 0.10200000000000001, 192.0, 0.0, 0.0, 0.0, 0.0, 0.0, 0.0, 0.0, 0.0, 0.0, 1.6635905670770288E9, 0.0, 2022-09-19 17:29:27.077
68.0, -3029.130760327668, 16689.39938418858, -23607.174886128294, -39875.42270128998, -187500.02235174447, -187500.02235174447, 5296.424662640651, -22357.80177805445, 0.622, -0.812, 0.10200000000000001, 192.0, 0.0, 0.0, 0.0, 0.0, 0.0, 0.0, 0.0, 0.0, 0.0, 1.6635905670800118E9, 0.0, 2022-09-19 17:29:27.080
69.0, -2840.1020574691365, 16728.246716051905, -22179.4348573011, -40139.016823651415, -187500.02235174447, -187500.02235174447, 5436.570100375427, -21109.50155371446, 0.622, -0.812, 0.10200000000000001, 192.0, 0.0, 0.0, 0.0, 0.0, 0.0, 0.0, 0.0, 0.0, 0.0, 1.6635905670840244E9, 0.0, 2022-09-19 17:29:27.084
70.0, -2263.3376435443934, 16877.668127735633, -21334.069530256933, -40445.928626767236, -187500.02235174447, -187500.02235174447, 5909.957696194375, -20232.821432688408, 0.622, -0.812, 0.10200000000000001, 192.0, 0.0, 0.0, 0.0, 0.0, 0.0, 0.0, 0.0, 0.0, 0.0, 1.6635905670880737E9, 0.0, 2022-09-19 17:29:27.088
71.0, -2128.735438434534, 16942.398779678202, -21725.672093113913, -40425.61089105736, -187500.02235174447, -187500.02235174447, 6038.301412856747, -20546.5505178631, 0.622, -0.812, 0.10200000000000001, 192.0, 0.0, 0.0, 0.0, 0.0, 0.0, 0.0, 0.0, 0.0, 0.0, 1.663590567092027E9, 0.0, 2022-09-19 17:29:27.092
72.0, -2475.455698425257, 16867.140456097182, -22873.881205783036, -40132.46776252601, -187500.02235174447, -187500.02235174447, 5761.676223477867, -21595.763754339667, 0.622, -0.812, 0.10200000000000001, 192.0, 0.0, 0.0, 0.0, 0.0, 0.0, 0.0, 0.0, 0.0, 0.0, 1.6635905670960472E9, 0.0, 2022-09-19 17:29:27.096
73.0, -3079.265723140922, 16701.15640177207, -23650.134938971394, -39819.54334015171, -187500.02235174447, -187500.02235174447, 5259.767801733948, -22405.790973399995, 0.622, -0.812, 0.10200000000000001, 192.0, 0.0, 0.0, 0.0, 0.0, 0.0, 0.0, 0.0, 0.0, 0.0, 1.6635905671010647E9, 0.0, 2022-09-19 17:29:27.101
74.0, -2876.982435820393, 16744.764655204377, -22209.96734022705, -40097.353171986724, -187500.02235174447, -187500.02235174447, 5415.850033265357, -21129.863992913248, 0.622, -0.812, 0.10200000000000001, 192.0, 0.0, 0.0, 0.0, 0.0, 0.0, 0.0, 0.0, 0.0, 0.0, 1.6635905671040397E9, 0.0, 2022-09-19 17:29:27.104
75.0, -2289.9362194462087, 16902.165639658648, -21350.922745576234, -40419.084181676415, -187500.02235174447, -187500.02235174447, 5904.392111825003, -20240.555136269944, 0.622, -0.806, 0.108, 192.0, 19.0, 112.0, 230.0, 208.0, 3.0, 96.0, 0.0, 0.0, 0.0, 1.6635905671081247E9, 0.0, 2022-09-19 17:29:27.108
76.0, -2137.1396943497293, 16973.06537307088, -21728.801337337656, -40413.94328045169, -187500.02235174447, -187500.02235174447, 6044.314032115225, -20532.35716013398, 0.622, -0.806, 0.108, 192.0, 0.0, 0.0, 0.0, 0.0, 0.0, 0.0, 0.0, 0.0, 0.0, 1.663590567112023E9, 0.0, 2022-09-19 17:29:27.112
77.0, -2471.320625701025, 16905.138421671203, -22873.121246471554, -40134.92645441609, -187500.02235174447, -187500.02235174447, 5773.321482339083, -21589.25939670317, 0.622, -0.806, 0.108, 192.0, 0.0, 0.0, 0.0, 0.0, 0.0, 0.0, 0.0, 0.0, 0.0, 1.6635905671160376E9, 0.0, 2022-09-19 17:29:27.116
78.0, -3060.8702374542045, 16746.03870463833, -23641.954200500753, -39832.037965302225, -187500.02235174447, -187500.02235174447, 5277.313921131364, -22392.446981960176, 0.622, -0.806, 0.108, 192.0, 0.0, 0.0, 0.0, 0.0, 0.0, 0.0, 0.0, 0.0, 0.0, 1.6635905671200535E9, 0.0, 2022-09-19 17:29:27.120
79.0, -2841.3761069030893, 16787.300024902826, -22196.042203431392, -40112.37354426069, -187500.02235174447, -187500.02235174447, 5433.038524751488, -21117.70464392956, 0.622, -0.806, 0.108, 192.0, 0.0, 0.0, 0.0, 0.0, 0.0, 0.0, 0.0, 0.0, 0.0, 1.6635905671241248E9, 0.0, 2022-09-19 17:29:27.124
80.0, -2261.571855732424, 16937.615506364764, -21356.287164245507, -40428.87424574784, -187500.02235174447, -187500.02235174447, 5914.696266018899, -20237.515299024024, 0.622, -0.806, 0.108, 192.0, 0.0, 0.0, 0.0, 0.0, 0.0, 0.0, 0.0, 0.0, 0.0, 1.6635905671290767E9, 0.0, 2022-09-19 17:29:27.129
81.0, -2121.158197064185, 17010.593952011342, -21728.64487512647, -40414.41266708526, -187500.02235174447, -187500.02235174447, 6050.416058351524, -20540.33673290452, 0.622, -0.806, 0.108, 192.0, 0.0, 0.0, 0.0, 0.0, 0.0, 0.0, 0.0, 0.0, 0.0, 1.6635905671320803E9, 0.0, 2022-09-19 17:29:27.132
82.0, -2471.365329189936, 16943.985753534525, -22877.546891873706, -40131.28312006988, -187500.02235174447, -187500.02235174447, 5774.394366072937, -21601.642263131413, 0.622, -0.806, 0.108, 192.0, 0.0, 0.0, 0.0, 0.0, 0.0, 0.0, 0.0, 0.0, 0.0, 1.6635905671350727E9, 0.0, 2022-09-19 17:29:27.135
83.0, -3074.5048015719417, 16783.589635323242, -23635.382787630893, -39830.11571527907, -187500.02235174447, -187500.02235174447, 5277.313921131364, -22378.655955631253, 0.622, -0.806, 0.108, 192.0, 0.0, 0.0, 0.0, 0.0, 0.0, 0.0, 0.0, 0.0, 0.0, 1.6635905671401162E9, 0.0, 2022-09-19 17:29:27.140
84.0, -2864.1301827585917, 16828.09195853376, -22182.72056373603, -40109.17724480358, -187500.02235174447, -187500.02235174447, 5435.966603275133, -21120.56566721984, 0.622, -0.806, 0.108, 192.0, 0.0, 0.0, 0.0, 0.0, 0.0, 0.0, 0.0, 0.0, 0.0, 1.6635905671441052E9, 0.0, 2022-09-19 17:29:27.144
85.0, -2286.248181611083, 16984.621224954277, -21351.727408376624, -40423.398068356284, -187500.02235174447, -187500.02235174447, 5917.490234075813, -20254.524976554512, 0.616, -0.8, 0.10400000000000001, 192.0, 19.0, 64.0, 231.0, 0.0, 3.0, 64.0, 0.0, 0.0, 0.0, 1.6635905671480896E9, 0.0, 2022-09-19 17:29:27.148
86.0, -2144.6275287422573, 17058.113760723325, -21744.24639275627, -40412.088085661904, -187500.02235174447, -187500.02235174447, 6048.225587394904, -20518.946113460795, 0.616, -0.8, 0.10400000000000001, 192.0, 0.0, 0.0, 0.0, 0.0, 0.0, 0.0, 0.0, 0.0, 0.0, 1.6635905671520865E9, 0.0, 2022-09-19 17:29:27.152
87.0, -2490.3419602324916, 16986.610530210797, -22888.946281545912, -40132.40070729265, -187500.02235174447, -187500.02235174447, 5776.696595751834, -21580.072829732042, 0.616, -0.8, 0.10400000000000001, 192.0, 0.0, 0.0, 0.0, 0.0, 0.0, 0.0, 0.0, 0.0, 0.0, 1.6635905671572447E9, 0.0, 2022-09-19 17:29:27.157
88.0, -3085.725377288506, 16823.688664876063, -23633.99697947466, -39838.72113689436, -187500.02235174447, -187500.02235174447, 5279.28087464343, -22356.415969898222, 0.616, -0.8, 0.10400000000000001, 192.0, 0.0, 0.0, 0.0, 0.0, 0.0, 0.0, 0.0, 0.0, 0.0, 1.6635905671601384E9, 0.0, 2022-09-19 17:29:27.160
89.0, -2863.5490374027536, 16869.66620322063, -22187.481485305012, -40114.56401521731, -187500.02235174447, -187500.02235174447, 5432.032696250999, -21077.44915216555, 0.616, -0.8, 0.10400000000000001, 192.0, 0.0, 0.0, 0.0, 0.0, 0.0, 0.0, 0.0, 0.0, 0.0, 1.6635905671631637E9, 0.0, 2022-09-19 17:29:27.163
90.0, -2280.2802658415158, 17016.785385225463, -21362.32213524844, -40416.02199268604, -187500.02235174447, -187500.02235174447, 5912.5057950622795, -20224.05954886193, 0.616, -0.8, 0.10400000000000001, 192.0, 0.0, 0.0, 0.0, 0.0, 0.0, 0.0, 0.0, 0.0, 0.0, 1.66359056716819E9, 0.0, 2022-09-19 17:29:27.168
91.0, -2144.336956064338, 17081.89601682377, -21758.372695252026, -40392.82088194143, -187500.02235174447, -187500.02235174447, 6043.107037914639, -20534.458224112775, 0.616, -0.8, 0.10400000000000001, 192.0, 0.0, 0.0, 0.0, 0.0, 0.0, 0.0, 0.0, 0.0, 0.0, 1.6635905671722312E9, 0.0, 2022-09-19 17:29:27.172
92.0, -2496.8910213578965, 17009.90104793323, -22917.824735382168, -40098.403703976124, -187500.02235174447, -187500.02235174447, 5767.2865113361495, -21600.524675908648, 0.616, -0.8, 0.10400000000000001, 192.0, 0.0, 0.0, 0.0, 0.0, 0.0, 0.0, 0.0, 0.0, 0.0, 1.6635905671761699E9, 0.0, 2022-09-19 17:29:27.176
93.0, -3095.8060140378493, 16850.711923922532, -23656.080502996505, -39792.11774970505, -187500.02235174447, -187500.02235174447, 5277.000996708989, -22372.531577650498, 0.616, -0.8, 0.10400000000000001, 192.0, 0.0, 0.0, 0.0, 0.0, 0.0, 0.0, 0.0, 0.0, 0.0, 1.6635905671801589E9, 0.0, 2022-09-19 17:29:27.180
94.0, -2885.2972847577676, 16897.87410472323, -22216.851677519284, -40054.97426449946, -187500.02235174447, -187500.02235174447, 5431.809178806446, -21103.667748411626, 0.616, -0.8, 0.10400000000000001, 192.0, 0.0, 0.0, 0.0, 0.0, 0.0, 0.0, 0.0, 0.0, 0.0, 1.6635905671842463E9, 0.0, 2022-09-19 17:29:27.184
95.0, -2319.3511151493926, 17047.966068740614, -21408.053804403997, -40344.496410429056, -187500.02235174447, -187500.02235174447, 5895.2502483427825, -20269.34418312838, 0.61, -0.796, 0.10400000000000001, 192.0, 19.0, 16.0, 231.0, 32.0, 3.0, 64.0, 0.0, 0.0, 0.0, 1.663590567189194E9, 0.0, 2022-09-19 17:29:27.189
96.0, -2193.24257293255, 17115.088357339904, -21796.661233503968, -40314.96975600359, -187500.02235174447, -187500.02235174447, 6022.230508593382, -20565.124817505457, 0.61, -0.796, 0.10400000000000001, 192.0, 0.0, 0.0, 0.0, 0.0, 0.0, 0.0, 0.0, 0.0, 0.0, 1.663590567192302E9, 0.0, 2022-09-19 17:29:27.192
97.0, -2551.2504638732034, 17047.34021989587, -22937.784843180758, -40018.227996614936, -187500.02235174447, -187500.02235174447, 5751.372069283971, -21633.627609446958, 0.61, -0.796, 0.10400000000000001, 192.0, 0.0, 0.0, 0.0, 0.0, 0.0, 0.0, 0.0, 0.0, 0.0, 1.663590567195243E9, 0.0, 2022-09-19 17:29:27.195
98.0, -3147.997337340991, 16887.502895295966, -23668.01633453564, -39715.89830111245, -187500.02235174447, -187500.02235174447, 5258.314938344352, -22415.15635432677, 0.61, -0.796, 0.10400000000000001, 192.0, 0.0, 0.0, 0.0, 0.0, 0.0, 0.0, 0.0, 0.0, 0.0, 1.6635905672002037E9, 0.0, 2022-09-19 17:29:27.200
99.0, -2925.7762939663285, 16932.094625484304, -22230.53094512593, -39980.52060371883, -187500.02235174447, -187500.02235174447, 5402.550745314449, -21126.891210900692, 0.61, -0.796, 0.10400000000000001, 192.0, 0.0, 0.0, 0.0, 0.0, 0.0, 0.0, 0.0, 0.0, 0.0, 1.6635905672042089E9, 0.0, 2022-09-19 17:29:27.204
100.0, -2348.9448248082194, 17088.892112838283, -21435.97113322868, -40267.87463043626, -187500.02235174447, -187500.02235174447, 5864.15897180545, -20292.07590723943, 0.61, -0.796, 0.10400000000000001, 192.0, 0.0, 0.0, 0.0, 0.0, 0.0, 0.0, 0.0, 0.0, 0.0, 1.66359056720832E9, 0.0, 2022-09-19 17:29:27.208
101.0, -2217.6506778777457, 17159.0989421724, -21835.732082811843, -40239.890246378214, -187500.02235174447, -187500.02235174447, 5985.595999431133, -20604.30742553561, 0.61, -0.796, 0.10400000000000001, 192.0, 0.0, 0.0, 0.0, 0.0, 0.0, 0.0, 0.0, 0.0, 0.0, 1.6635905672122612E9, 0.0, 2022-09-19 17:29:27.212
102.0, -2577.357301397002, 17084.310005224947, -22983.225939658398, -39948.71407135893, -187500.02235174447, -187500.02235174447, 5707.875574573944, -21669.546862786636, 0.61, -0.796, 0.10400000000000001, 192.0, 0.0, 0.0, 0.0, 0.0, 0.0, 0.0, 0.0, 0.0, 0.0, 1.663590567216226E9, 0.0, 2022-09-19 17:29:27.216
103.0, -3166.10225034979, 16926.104357970282, -23695.68779417131, -39652.575809070564, -187500.02235174447, -187500.02235174447, 5223.580327460805, -22423.58296198642, 0.61, -0.796, 0.10400000000000001, 192.0, 0.0, 0.0, 0.0, 0.0, 0.0, 0.0, 0.0, 0.0, 0.0, 1.6635905672192652E9, 0.0, 2022-09-19 17:29:27.219
104.0, -2936.594538282697, 16978.74271616253, -22256.660134394187, -39917.91336749952, -187500.02235174447, -187500.02235174447, 5379.260227592019, -21140.503423273974, 0.61, -0.796, 0.10400000000000001, 192.0, 0.0, 0.0, 0.0, 0.0, 0.0, 0.0, 0.0, 0.0, 0.0, 1.6635905672232225E9, 0.0, 2022-09-19 17:29:27.223
105.0, -2368.100269806417, 17129.169956346745, -21456.422979405284, -40200.57352788133, -187500.02235174447, -187500.02235174447, 5843.215387250828, -20321.781375620532, 0.622, -0.798, 0.10400000000000001, 192.0, 19.0, 112.0, 231.0, 16.0, 3.0, 64.0, 0.0, 0.0, 0.0, 1.6635905672282624E9, 0.0, 2022-09-19 17:29:27.228
106.0, -2234.3697827303154, 17193.297111189022, -21844.471614893868, -40177.35006539227, -187500.02235174447, -187500.02235174447, 5974.3754237145695, -20621.205344343824, 0.622, -0.798, 0.10400000000000001, 192.0, 0.0, 0.0, 0.0, 0.0, 0.0, 0.0, 0.0, 0.0, 0.0, 1.663590567232288E9, 0.0, 2022-09-19 17:29:27.232
107.0, -2586.3650544124907, 17117.591752718898, -22985.952852481947, -39899.026143434785, -187500.02235174447, -187500.02235174447, 5710.647190886401, -21690.669261296902, 0.622, -0.798, 0.10400000000000001, 192.0, 0.0, 0.0, 0.0, 0.0, 0.0, 0.0, 0.0, 0.0, 0.0, 1.663590567236287E9, 0.0, 2022-09-19 17:29:27.236
108.0, -3164.939959638114, 16956.726247874052, -23664.462407167248, -39623.56324476758, -187500.02235174447, -187500.02235174447, 5237.2372433229975, -22411.133040324814, 0.622, -0.798, 0.10400000000000001, 192.0, 0.0, 0.0, 0.0, 0.0, 0.0, 0.0, 0.0, 0.0, 0.0, 1.6635905672402854E9, 0.0, 2022-09-19 17:29:27.240
109.0, -2922.57999450922, 17006.816507198397, -22207.441593103602, -39909.24089065086, -187500.02235174447, -187500.02235174447, 5404.428291848694, -21116.609408451248, 0.622, -0.798, 0.10400000000000001, 192.0, 0.0, 0.0, 0.0, 0.0, 0.0, 0.0, 0.0, 0.0, 0.0, 1.6635905672443774E9, 0.0, 2022-09-19 17:29:27.244
110.0, -2351.761144609588, 17153.175729891747, -21413.865257962378, -40211.88351057572, -187500.02235174447, -187500.02235174447, 5878.195867323383, -20287.82907579292, 0.622, -0.798, 0.10400000000000001, 192.0, 0.0, 0.0, 0.0, 0.0, 0.0, 0.0, 0.0, 0.0, 0.0, 1.6635905672473822E9, 0.0, 2022-09-19 17:29:27.247
111.0, -2224.4903116810697, 17211.580838153463, -21793.6437480025, -40204.663897116654, -187500.02235174447, -187500.02235174447, 6016.240241079359, -20589.957605595304, 0.622, -0.798, 0.10400000000000001, 192.0, 0.0, 0.0, 0.0, 0.0, 0.0, 0.0, 0.0, 0.0, 0.0, 1.6635905672513654E9, 0.0, 2022-09-19 17:29:27.251
112.0, -2574.496278106723, 17130.53341275852, -22931.325189033174, -39935.10185898565, -187500.02235174447, -187500.02235174447, 5754.814237930088, -21641.8083479176, 0.622, -0.798, 0.10400000000000001, 192.0, 0.0, 0.0, 0.0, 0.0, 0.0, 0.0, 0.0, 0.0, 0.0, 1.663590567256302E9, 0.0, 2022-09-19 17:29:27.256
113.0, -3142.074125060335, 16970.181998036147, -23609.18654312927, -39666.4115388884, -187500.02235174447, -187500.02235174447, 5289.450918370595, -22362.741513579072, 0.622, -0.798, 0.10400000000000001, 192.0, 0.0, 0.0, 0.0, 0.0, 0.0, 0.0, 0.0, 0.0, 0.0, 1.6635905672603452E9, 0.0, 2022-09-19 17:29:27.260
114.0, -2902.0163896103372, 17026.910725463717, -22152.277487787902, -39949.67519637051, -187500.02235174447, -187500.02235174447, 5451.903397071766, -21068.240233449964, 0.622, -0.798, 0.10400000000000001, 192.0, 0.0, 0.0, 0.0, 0.0, 0.0, 0.0, 0.0, 0.0, 0.0, 1.663590567264366E9, 0.0, 2022-09-19 17:29:27.264
115.0, -2329.722324576655, 17180.601320338406, -21383.109257591877, -40237.85623763278, -187500.02235174447, -187500.02235174447, 5912.461091573369, -20249.831110218896, 0.622, -0.798, 0.10400000000000001, 192.0, 0.0, 0.0, 0.0, 0.0, 0.0, 0.0, 0.0, 0.0, 0.0, 1.6635905672684271E9, 0.0, 2022-09-19 17:29:27.268
116.0, -2196.6400380897567, 17249.623507216395, -21789.173399111438, -40215.43743794411, -187500.02235174447, -187500.02235174447, 6034.456912810435, -20576.457151944298, 0.622, -0.796, 0.10400000000000001, 192.0, 19.0, 112.0, 231.0, 32.0, 3.0, 64.0, 0.0, 0.0, 0.0, 1.6635905672714293E9, 0.0, 2022-09-19 17:29:27.271
117.0, -2553.8432662300193, 17176.555654591997, -22935.996703624332, -39932.307890928736, -187500.02235174447, -187500.02235174447, 5764.5819502570575, -21643.104749096008, 0.622, -0.796, 0.10400000000000001, 192.0, 0.0, 0.0, 0.0, 0.0, 0.0, 0.0, 0.0, 0.0, 0.0, 1.6635905672754009E9, 0.0, 2022-09-19 17:29:27.275
118.0, -3132.015840055447, 17022.127452150282, -23617.7249095112, -39651.055890447606, -187500.02235174447, -187500.02235174447, 5290.792023037913, -22362.987382768082, 0.622, -0.796, 0.10400000000000001, 192.0, 0.0, 0.0, 0.0, 0.0, 0.0, 0.0, 0.0, 0.0, 0.0, 1.66359056727944E9, 0.0, 2022-09-19 17:29:27.279
119.0, -2898.842441897684, 17078.655013877753, -22176.126799121714, -39913.778294775286, -187500.02235174447, -187500.02235174447, 5437.955908531655, -21074.297556197354, 0.622, -0.796, 0.10400000000000001, 192.0, 0.0, 0.0, 0.0, 0.0, 0.0, 0.0, 0.0, 0.0, 0.0, 1.6635905672844176E9, 0.0, 2022-09-19 17:29:27.284
120.0, -2340.495865404113, 17227.294114505545, -21421.50955456609, -40182.82624278382, -187500.02235174447, -187500.02235174447, 5889.5505535066795, -20275.736782042597, 0.622, -0.796, 0.10400000000000001, 192.0, 0.0, 0.0, 0.0, 0.0, 0.0, 0.0, 0.0, 0.0, 0.0, 1.6635905672884133E9, 0.0, 2022-09-19 17:29:27.288
121.0, -2218.701209867145, 17287.17443790131, -21814.900256979497, -40153.344291847265, -187500.02235174447, -187500.02235174447, 6010.562897987712, -20598.205399299313, 0.622, -0.796, 0.10400000000000001, 192.0, 0.0, 0.0, 0.0, 0.0, 0.0, 0.0, 0.0, 0.0, 0.0, 1.663590567292428E9, 0.0, 2022-09-19 17:29:27.292
122.0, -2580.777118298664, 17204.271817716577, -22950.950020664935, -39875.48975652335, -187500.02235174447, -187500.02235174447, 5744.37597326946, -21653.408903289903, 0.622, -0.796, 0.10400000000000001, 192.0, 0.0, 0.0, 0.0, 0.0, 0.0, 0.0, 0.0, 0.0, 0.0, 1.6635905672964454E9, 0.0, 2022-09-19 17:29:27.296
123.0, -3157.5638839678627, 17041.3723041263, -23614.72977575419, -39612.02974462864, -187500.02235174447, -187500.02235174447, 5278.118583931754, -22357.511205376533, 0.622, -0.796, 0.10400000000000001, 192.0, 0.0, 0.0, 0.0, 0.0, 0.0, 0.0, 0.0, 0.0, 0.0, 1.6635905672994435E9, 0.0, 2022-09-19 17:29:27.299
124.0, -2908.319581546734, 17097.497534453578, -22173.288127575892, -39893.25939336531, -187500.02235174447, -187500.02235174447, 5438.425295165217, -21056.21499493301, 0.622, -0.796, 0.10400000000000001, 192.0, 0.0, 0.0, 0.0, 0.0, 0.0, 0.0, 0.0, 0.0, 0.0, 1.663590567303439E9, 0.0, 2022-09-19 17:29:27.303
125.0, -2334.527949634546, 17247.589498470963, -21408.76906022657, -40179.71935030453, -187500.02235174447, -187500.02235174447, 5901.039350156707, -20255.68726726619, 0.622, -0.796, 0.10400000000000001, 192.0, 0.0, 0.0, 0.0, 0.0, 0.0, 0.0, 0.0, 0.0, 0.0, 1.6635905673074465E9, 0.0, 2022-09-19 17:29:27.307
126.0, -2197.668218334701, 17312.90129576937, -21788.748715966787, -40171.65037055616, -187500.02235174447, -187500.02235174447, 6039.150779146049, -20580.70398339081, 0.618, -0.796, 0.10400000000000001, 192.0, 19.0, 80.0, 231.0, 32.0, 3.0, 64.0, 0.0, 0.0, 0.0, 1.663590567311452E9, 0.0, 2022-09-19 17:29:27.311
127.0, -2539.0240596561503, 17234.55843145352, -22914.941360347435, -39919.925024500495, -187500.02235174447, -187500.02235174447, 5783.268008621694, -21620.03774881813, 0.618, -0.796, 0.10400000000000001, 192.0, 0.0, 0.0, 0.0, 0.0, 0.0, 0.0, 0.0, 0.0, 0.0, 1.6635905673164277E9, 0.0, 2022-09-19 17:29:27.316
128.0, -3086.3288743887992, 17087.081621537403, -23556.972868081673, -39682.638905362954, -187500.02235174447, -187500.02235174447, 5330.421665957173, -22294.993376135037, 0.618, -0.796, 0.10400000000000001, 192.0, 0.0, 0.0, 0.0, 0.0, 0.0, 0.0, 0.0, 0.0, 0.0, 1.6635905673204303E9, 0.0, 2022-09-19 17:29:27.320
129.0, -2826.311031140212, 17155.20973863718, -22104.355347675722, -39977.25724902836, -187500.02235174447, -187500.02235174447, 5499.557316250482, -21007.711709464995, 0.618, -0.796, 0.10400000000000001, 192.0, 0.0, 0.0, 0.0, 0.0, 0.0, 0.0, 0.0, 0.0, 0.0, 1.6635905673234692E9, 0.0, 2022-09-19 17:29:27.323
130.0, -2265.9304459012087, 17311.604894590964, -21331.186155222196, -40271.4062060602, -187500.02235174447, -187500.02235174447, 5967.669900377978, -20222.874906405796, 0.618, -0.796, 0.10400000000000001, 192.0, 0.0, 0.0, 0.0, 0.0, 0.0, 0.0, 0.0, 0.0, 0.0, 1.6635905673275309E9, 0.0, 2022-09-19 17:29:27.327
131.0, -2140.9394909071316, 17380.29180530212, -21718.11720348802, -40274.82602296186, -187500.02235174447, -187500.02235174447, 6100.662779887054, -20518.901409971884, 0.618, -0.796, 0.10400000000000001, 192.0, 0.0, 0.0, 0.0, 0.0, 0.0, 0.0, 0.0, 0.0, 0.0, 1.6635905673314884E9, 0.0, 2022-09-19 17:29:27.331
132.0, -2490.4760706992233, 17300.74194678568, -22848.62373454854, -40034.790639256316, -187500.02235174447, -187500.02235174447, 5844.2435674957715, -21583.93968152281, 0.618, -0.796, 0.10400000000000001, 192.0, 0.0, 0.0, 0.0, 0.0, 0.0, 0.0, 0.0, 0.0, 0.0, 1.6635905673355083E9, 0.0, 2022-09-19 17:29:27.335
133.0, -3038.1385133431572, 17146.4478548107, -23485.804913735978, -39804.38885741101, -187500.02235174447, -187500.02235174447, 5393.364178343318, -22250.200480246604, 0.618, -0.796, 0.10400000000000001, 192.0, 0.0, 0.0, 0.0, 0.0, 0.0, 0.0, 0.0, 0.0, 0.0, 1.6635905673395212E9, 0.0, 2022-09-19 17:29:27.339
134.0, -2784.155641097503, 17213.950123065726, -22046.5537365143, -40086.89255558164, -187500.02235174447, -187500.02235174447, 5558.05183149002, -20950.647705870593, 0.618, -0.796, 0.10400000000000001, 192.0, 0.0, 0.0, 0.0, 0.0, 0.0, 0.0, 0.0, 0.0, 0.0, 1.6635905673445346E9, 0.0, 2022-09-19 17:29:27.344
135.0, -2235.9344048421867, 17365.830226639537, -21325.35234991936, -40353.66062565573, -187500.02235174447, -187500.02235174447, 6003.030360106273, -20193.460010702613, 0.618, -0.796, 0.10400000000000001, 192.0, 0.0, 0.0, 0.0, 0.0, 0.0, 0.0, 0.0, 0.0, 0.0, 1.6635905673485396E9, 0.0, 2022-09-19 17:29:27.348
136.0, -2128.1319413342408, 17429.957381481814, -21729.360130949037, -40322.85992179631, -187500.02235174447, -187500.02235174447, 6114.16323353806, -20532.133642689427, 0.616, -0.792, 0.108, 192.0, 19.0, 64.0, 231.0, 64.0, 3.0, 96.0, 0.0, 0.0, 0.0, 1.6635905673515344E9, 0.0, 2022-09-19 17:29:27.351
137.0, -2489.7608148766535, 17345.37838046293, -22854.01050496227, -40071.201630974014, -187500.02235174447, -187500.02235174447, 5856.738192646289, -21594.735574094724, 0.616, -0.792, 0.108, 192.0, 0.0, 0.0, 0.0, 0.0, 0.0, 0.0, 0.0, 0.0, 0.0, 1.6635905673555927E9, 0.0, 2022-09-19 17:29:27.355
138.0, -3029.309574283311, 17182.367108150378, -23430.260828764538, -39885.30217233922, -187500.02235174447, -187500.02235174447, 5435.966603275133, -22245.3501516998, 0.616, -0.792, 0.108, 192.0, 0.0, 0.0, 0.0, 0.0, 0.0, 0.0, 0.0, 0.0, 0.0, 1.6635905673595111E9, 0.0, 2022-09-19 17:29:27.359
