%OpenBCI Raw EEG Data
%Number of channels = 8
%Sample Rate = 250 Hz
%Board = OpenBCI_GUI$BoardCytonSerial
Sample Index, EXG Channel 0, EXG Channel 1, EXG Channel 2, EXG Channel 3, EXG Channel 4, EXG Channel 5, EXG Channel 6, EXG Channel 7, Accel Channel 0, Accel Channel 1, Accel Channel 2, Other, Other, Other, Other, Other, Other, Other, Analog Channel 0, Analog Channel 1, Analog Channel 2, Timestamp, Other, Timestamp (Formatted)
6.0, -17990.047394042896, -26225.70410081197, -34686.62168820163, -17209.658588130307, -14762.96958481903, 187500.0, -47518.24408987095, -10233.12035001759, 0.0, 0.0, 0.0, 192.0, 0.0, 0.0, 0.0, 0.0, 0.0, 0.0, 0.0, 0.0, 0.0, 1.663589419705936E9, 0.0, 2022-09-19 17:10:19.705
7.0, -17976.74810609199, -26212.918902983536, -34682.6877811775, -17211.98316955366, -14762.343735974282, 187500.0, -47507.82817695477, -10236.473111685886, 0.0, 0.0, 0.0, 192.0, 0.0, 0.0, 0.0, 0.0, 0.0, 0.0, 0.0, 0.0, 0.0, 1.663589419705965E9, 0.0, 2022-09-19 17:10:19.705
8.0, -17978.26802471495, -26209.85671399316, -34681.436083488, -17209.345663707933, -14768.222244766028, 187500.0, -47513.50552004642, -10242.776303622282, 0.0, 0.0, 0.0, 192.0, 0.0, 0.0, 0.0, 0.0, 0.0, 0.0, 0.0, 0.0, 0.0, 1.6635894197059784E9, 0.0, 2022-09-19 17:10:19.705
9.0, -18009.605170441293, -26221.546676343285, -34680.20673754296, -17210.776175353072, -14767.886968599198, 187500.0, -47519.98752593846, -10269.039603357269, 0.0, 0.0, 0.0, 192.0, 0.0, 0.0, 0.0, 0.0, 0.0, 0.0, 0.0, 0.0, 0.0, 1.6635894197059913E9, 0.0, 2022-09-19 17:10:19.705
0.0, 0.0, 0.0, 0.0, 0.0, 0.0, 0.0, 0.0, 0.0, 0.0, 0.0, 0.0, 192.0, 0.0, 0.0, 0.0, 0.0, 0.0, 0.0, 0.0, 0.0, 0.0, 1.6635894197894714E9, 0.0, 2022-09-19 17:10:19.789
1.0, -14865.362926168791, -27265.976639506418, -34561.49662274082, -17035.85142324584, -13266.654404002955, 187500.0, -47248.01149940628, -10926.78438744359, 0.588, -0.6920000000000001, 0.462, 192.0, 18.0, 96.0, 234.0, 96.0, 14.0, 112.0, 0.0, 0.0, 0.0, 1.6635894198064795E9, 0.0, 2022-09-19 17:10:19.806
2.0, -14855.617565586277, -27274.06797099924, -34559.68613143994, -17034.4209116007, -13274.142238395481, 187500.0, -47254.64996750951, -10934.182814858295, 0.588, -0.6920000000000001, 0.462, 192.0, 0.0, 0.0, 0.0, 0.0, 0.0, 0.0, 0.0, 0.0, 0.0, 1.663589419809518E9, 0.0, 2022-09-19 17:10:19.809
3.0, -14858.523292365468, -27278.82889256822, -34565.564640231685, -17028.60945804232, -13274.633976773499, 187500.0, -47261.02021467927, -10940.530710283603, 0.588, -0.6920000000000001, 0.462, 192.0, 0.0, 0.0, 0.0, 0.0, 0.0, 0.0, 0.0, 0.0, 0.0, 1.6635894198135443E9, 0.0, 2022-09-19 17:10:19.813
4.0, -14843.189995669127, -27272.458645398456, -34580.33914331665, -17035.78436801247, -13272.979947683805, 187500.0, -47269.82680199466, -10933.154634613353, 0.588, -0.6920000000000001, 0.462, 192.0, 0.0, 0.0, 0.0, 0.0, 0.0, 0.0, 0.0, 0.0, 0.0, 1.6635894198175392E9, 0.0, 2022-09-19 17:10:19.817
5.0, -14816.613771511767, -27265.037866239294, -34582.641372995546, -17038.93596398067, -13277.360889597046, 187500.0, -47269.04449093872, -10934.562794514037, 0.588, -0.6920000000000001, 0.462, 192.0, 0.0, 0.0, 0.0, 0.0, 0.0, 0.0, 0.0, 0.0, 0.0, 1.6635894198205123E9, 0.0, 2022-09-19 17:10:19.820
6.0, -14782.54971296188, -27257.930011502507, -34586.329410830665, -17046.08852220637, -13283.57467455562, 187500.0, -47268.01631069378, -10952.913576711844, 0.588, -0.6920000000000001, 0.462, 192.0, 0.0, 0.0, 0.0, 0.0, 0.0, 0.0, 0.0, 0.0, 0.0, 1.6635894198245127E9, 0.0, 2022-09-19 17:10:19.824
7.0, -14771.507951200958, -27264.501424372367, -34571.241983323336, -17039.382998869776, -13291.666006048443, 187500.0, -47260.036737923234, -10955.573434302025, 0.588, -0.6920000000000001, 0.462, 192.0, 0.0, 0.0, 0.0, 0.0, 0.0, 0.0, 0.0, 0.0, 0.0, 1.6635894198285272E9, 0.0, 2022-09-19 17:10:19.828
8.0, -14774.436029724602, -27272.97273552093, -34565.430529764955, -17022.84270797285, -13288.804982758164, 187500.0, -47256.66162451049, -10912.345160525461, 0.598, -0.6880000000000001, 0.47400000000000003, 192.0, 18.0, 176.0, 234.0, 128.0, 14.0, 208.0, 0.0, 0.0, 0.0, 1.6635894198325548E9, 0.0, 2022-09-19 17:10:19.832
9.0, -14763.595433663779, -27273.620936110132, -34567.12926234356, -17024.89906846274, -13283.06058443315, 187500.0, -47254.96289193188, -10914.893259393366, 0.598, -0.6880000000000001, 0.47400000000000003, 192.0, 0.0, 0.0, 0.0, 0.0, 0.0, 0.0, 0.0, 0.0, 0.0, 1.6635894198385472E9, 0.0, 2022-09-19 17:10:19.838
10.0, -14742.115407242229, -27271.318706431237, -34578.506300271314, -17038.578336069386, -13293.185924671403, 187500.0, -47265.89289497053, -10932.059399135042, 0.598, -0.6880000000000001, 0.47400000000000003, 192.0, 0.0, 0.0, 0.0, 0.0, 0.0, 0.0, 0.0, 0.0, 0.0, 1.663589419841551E9, 0.0, 2022-09-19 17:10:19.841
11.0, -14707.246685891949, -27258.913488258542, -34586.530576530764, -17071.94949054116, -13308.496869623288, 187500.0, -47268.39629034952, -11027.791920637123, 0.598, -0.6880000000000001, 0.47400000000000003, 192.0, 0.0, 0.0, 0.0, 0.0, 0.0, 0.0, 0.0, 0.0, 0.0, 1.6635894198455448E9, 0.0, 2022-09-19 17:10:19.845
12.0, -14694.95322644153, -27261.282773170802, -34573.52186125778, -17050.447112375154, -13307.044006233695, 187500.0, -47256.482810554844, -10981.88143752592, 0.598, -0.6880000000000001, 0.47400000000000003, 192.0, 0.0, 0.0, 0.0, 0.0, 0.0, 0.0, 0.0, 0.0, 0.0, 1.663589419848557E9, 0.0, 2022-09-19 17:10:19.848
13.0, -14705.749119013444, -27276.526662889322, -34568.80564317771, -17034.711484278618, -13299.936151496906, 187500.0, -47255.32051984317, -10907.695997678757, 0.598, -0.6880000000000001, 0.47400000000000003, 192.0, 0.0, 0.0, 0.0, 0.0, 0.0, 0.0, 0.0, 0.0, 0.0, 1.6635894198525512E9, 0.0, 2022-09-19 17:10:19.852
14.0, -14698.797726487843, -27280.952308291475, -34574.728855458365, -17041.3723041263, -13294.750546783274, 187500.0, -47259.74616524532, -10907.137204067374, 0.598, -0.6880000000000001, 0.47400000000000003, 192.0, 0.0, 0.0, 0.0, 0.0, 0.0, 0.0, 0.0, 0.0, 0.0, 1.6635894198565493E9, 0.0, 2022-09-19 17:10:19.856
15.0, -14668.935795895553, -27271.34105817569, -34582.93194567346, -17035.42674010119, -13282.658253032954, 187500.0, -47268.95508396091, -10888.495849191648, 0.598, -0.6880000000000001, 0.47400000000000003, 192.0, 0.0, 0.0, 0.0, 0.0, 0.0, 0.0, 0.0, 0.0, 0.0, 1.663589419860585E9, 0.0, 2022-09-19 17:10:19.860
16.0, -14632.122472777663, -27258.801729536266, -34580.02621889427, -17039.89708899225, -13278.187904141892, 187500.0, -47260.66258676798, -10896.96716034021, 0.598, -0.6880000000000001, 0.47400000000000003, 192.0, 0.0, 0.0, 0.0, 0.0, 0.0, 0.0, 0.0, 0.0, 0.0, 1.6635894198646154E9, 0.0, 2022-09-19 17:10:19.864
17.0, -14614.218725468962, -27258.913488258542, -34559.350855273115, -17039.539461080964, -13275.39393608498, 187500.0, -47239.093153368616, -10913.887430892877, 0.598, -0.6880000000000001, 0.47400000000000003, 192.0, 0.0, 0.0, 0.0, 0.0, 0.0, 0.0, 0.0, 0.0, 0.0, 1.6635894198696063E9, 0.0, 2022-09-19 17:10:19.869
18.0, -14610.88831554512, -27260.276944670313, -34558.94852387292, -17043.13809193827, -13283.217046644337, 187500.0, -47239.428429535445, -10946.811550475544, 0.604, -0.676, 0.47800000000000004, 192.0, 18.0, 224.0, 234.0, 224.0, 14.0, 240.0, 0.0, 0.0, 0.0, 1.663589419873613E9, 0.0, 2022-09-19 17:10:19.873
19.0, -14593.051623469786, -27256.991238235383, -34567.21866932138, -17052.056437975938, -13287.307415879657, 187500.0, -47248.19031336193, -10953.852349978966, 0.604, -0.676, 0.47800000000000004, 192.0, 0.0, 0.0, 0.0, 0.0, 0.0, 0.0, 0.0, 0.0, 0.0, 1.6635894198766727E9, 0.0, 2022-09-19 17:10:19.876
20.0, -14554.137236373095, -27246.48591834139, -34574.728855458365, -17037.773673268995, -13276.869151219029, 187500.0, -47250.604301763095, -10881.209180499218, 0.604, -0.676, 0.47800000000000004, 192.0, 0.0, 0.0, 0.0, 0.0, 0.0, 0.0, 0.0, 0.0, 0.0, 1.66358941988066E9, 0.0, 2022-09-19 17:10:19.880
21.0, -14510.551334685248, -27242.484956083892, -34585.72591373038, -17051.005905986538, -13281.942997210384, 187500.0, -47258.49446755582, -10899.202334785741, 0.604, -0.676, 0.47800000000000004, 192.0, 0.0, 0.0, 0.0, 0.0, 0.0, 0.0, 0.0, 0.0, 0.0, 1.6635894198846676E9, 0.0, 2022-09-19 17:10:19.884
22.0, -14498.43668919047, -27257.997066735872, -34588.25166085383, -17046.647315817754, -13290.906046736962, 187500.0, -47265.19999089241, -10896.788346384566, 0.604, -0.676, 0.47800000000000004, 192.0, 0.0, 0.0, 0.0, 0.0, 0.0, 0.0, 0.0, 0.0, 0.0, 1.663589419888588E9, 0.0, 2022-09-19 17:10:19.888
23.0, -14495.598017644646, -27266.64719184008, -34580.42855029447, -17038.019542458005, -13288.603817058065, 187500.0, -47260.886104212535, -10890.01576781461, 0.604, -0.676, 0.47800000000000004, 192.0, 0.0, 0.0, 0.0, 0.0, 0.0, 0.0, 0.0, 0.0, 0.0, 1.6635894198926964E9, 0.0, 2022-09-19 17:10:19.892
24.0, -14470.117028965597, -27257.21475567994, -34572.22546007937, -17038.444225602656, -13269.269558104224, 187500.0, -47250.44783955191, -10901.526916209092, 0.604, -0.676, 0.47800000000000004, 192.0, 0.0, 0.0, 0.0, 0.0, 0.0, 0.0, 0.0, 0.0, 0.0, 1.6635894198976543E9, 0.0, 2022-09-19 17:10:19.897
25.0, -14432.722560491868, -27247.5811538197, -34581.993172406335, -17060.572452613407, -13266.989680169783, 187500.0, -47257.332176844146, -10936.775617215111, 0.604, -0.676, 0.47800000000000004, 192.0, 0.0, 0.0, 0.0, 0.0, 0.0, 0.0, 0.0, 0.0, 0.0, 1.6635894199006455E9, 0.0, 2022-09-19 17:10:19.900
26.0, -14397.071528085653, -27242.887287484085, -34581.099102628126, -17075.168141742724, -13271.05769766065, 187500.0, -47252.75006923081, -10968.179818174818, 0.604, -0.676, 0.47800000000000004, 192.0, 0.0, 0.0, 0.0, 0.0, 0.0, 0.0, 0.0, 0.0, 0.0, 1.6635894199046602E9, 0.0, 2022-09-19 17:10:19.904
27.0, -14389.583693693125, -27259.137005703094, -34585.65885849701, -17059.007830501538, -13273.896369206474, 187500.0, -47261.69076701293, -10930.986515401188, 0.604, -0.676, 0.47800000000000004, 192.0, 0.0, 0.0, 0.0, 0.0, 0.0, 0.0, 0.0, 0.0, 0.0, 1.663589419908716E9, 0.0, 2022-09-19 17:10:19.908
28.0, -14393.785821650723, -27277.465436156446, -34579.08744562715, -17040.27706864799, -13270.700069749364, 187500.0, -47261.84722922411, -10933.154634613353, 0.608, -0.678, 0.48, 192.0, 19.0, 0.0, 234.0, 208.0, 15.0, 0.0, 0.0, 0.0, 0.0, 1.6635894199126563E9, 0.0, 2022-09-19 17:10:19.912
29.0, -14396.535086218726, -27286.696706616487, -34583.44603579593, -17031.89516447725, -13273.29287210618, 187500.0, -47264.06005192519, -10906.131375566885, 0.608, -0.678, 0.48, 192.0, 0.0, 0.0, 0.0, 0.0, 0.0, 0.0, 0.0, 0.0, 0.0, 1.663589419916639E9, 0.0, 2022-09-19 17:10:19.916
30.0, -14388.019071581253, -27286.428485683024, -34582.70842822891, -17048.56956584091, -13271.951767438863, 187500.0, -47257.93567394444, -10942.92234694032, 0.608, -0.678, 0.48, 192.0, 0.0, 0.0, 0.0, 0.0, 0.0, 0.0, 0.0, 0.0, 0.0, 1.6635894199207573E9, 0.0, 2022-09-19 17:10:19.920
31.0, -14375.300928986184, -27281.73461934741, -34553.94173311493, -17033.169213911202, -13253.064543374127, 187500.0, -47237.97556614585, -10923.230460075196, 0.608, -0.678, 0.48, 192.0, 0.0, 0.0, 0.0, 0.0, 0.0, 0.0, 0.0, 0.0, 0.0, 1.6635894199257448E9, 0.0, 2022-09-19 17:10:19.925
32.0, -14410.549629992203, -27304.779267880833, -34548.577314445654, -17013.142050879247, -13254.025668385706, 187500.0, -47239.987223146825, -10895.938980095265, 0.608, -0.678, 0.48, 192.0, 0.0, 0.0, 0.0, 0.0, 0.0, 0.0, 0.0, 0.0, 0.0, 1.6635894199286892E9, 0.0, 2022-09-19 17:10:19.928
33.0, -14451.274508389773, -27316.6480441866, -34549.96312260188, -17019.668760260196, -13267.81669471463, 187500.0, -47236.5003510118, -10935.345105569972, 0.608, -0.678, 0.48, 192.0, 0.0, 0.0, 0.0, 0.0, 0.0, 0.0, 0.0, 0.0, 0.0, 1.6635894199327407E9, 0.0, 2022-09-19 17:10:19.932
34.0, -14480.95762502642, -27320.917227377562, -34557.942695372425, -17034.487966834065, -13276.846799474573, 187500.0, -47242.781191203736, -10979.400393891383, 0.608, -0.678, 0.48, 192.0, 0.0, 0.0, 0.0, 0.0, 0.0, 0.0, 0.0, 0.0, 0.0, 1.6635894199367292E9, 0.0, 2022-09-19 17:10:19.936
35.0, -14494.234561232874, -27317.519762220356, -34552.153593558505, -17025.815489985405, -13270.945938938374, 187500.0, -47237.52853125674, -10954.075867423519, 0.608, -0.678, 0.48, 192.0, 0.0, 0.0, 0.0, 0.0, 0.0, 0.0, 0.0, 0.0, 0.0, 1.6635894199407425E9, 0.0, 2022-09-19 17:10:19.940
36.0, -14505.656302649535, -27315.97749185294, -34551.03600633574, -17040.90291749274, -13274.455162817856, 187500.0, -47239.65194698, -11000.79101333511, 0.608, -0.678, 0.48, 192.0, 0.0, 0.0, 0.0, 0.0, 0.0, 0.0, 0.0, 0.0, 0.0, 1.663589419944697E9, 0.0, 2022-09-19 17:10:19.944
37.0, -14544.816558935234, -27332.070747860762, -34556.10985232709, -17042.579298326888, -13286.525104823722, 187500.0, -47253.39826982001, -11012.615086151969, 0.608, -0.678, 0.48, 192.0, 0.0, 0.0, 0.0, 0.0, 0.0, 0.0, 0.0, 0.0, 0.0, 1.6635894199488E9, 0.0, 2022-09-19 17:10:19.948
38.0, -14574.767896505344, -27331.31078854928, -34539.61426491907, -17017.858268959317, -13268.464895303834, 187500.0, -47237.17090334546, -10959.17206515933, 0.606, -0.678, 0.47000000000000003, 192.0, 18.0, 240.0, 234.0, 208.0, 14.0, 176.0, 0.0, 0.0, 0.0, 1.6635894199537172E9, 0.0, 2022-09-19 17:10:19.953
39.0, -14598.863077028165, -27329.388538526124, -34540.463631208375, -17011.465670045098, -13254.964441652828, 187500.0, -47238.26613882377, -10938.809625960545, 0.606, -0.678, 0.47000000000000003, 192.0, 0.0, 0.0, 0.0, 0.0, 0.0, 0.0, 0.0, 0.0, 0.0, 1.6635894199567869E9, 0.0, 2022-09-19 17:10:19.956
40.0, -14610.351873678193, -27326.25929430238, -34541.245942264315, -17014.572562524387, -13245.599060726056, 187500.0, -47242.31180457018, -10952.198320889274, 0.606, -0.678, 0.47000000000000003, 192.0, 0.0, 0.0, 0.0, 0.0, 0.0, 0.0, 0.0, 0.0, 0.0, 1.6635894199597273E9, 0.0, 2022-09-19 17:10:19.959
41.0, -14605.83682129822, -27313.004709840385, -34526.71730836837, -17013.85730670182, -13235.630182698987, 187500.0, -47212.82985363363, -10947.951489442765, 0.606, -0.678, 0.47000000000000003, 192.0, 0.0, 0.0, 0.0, 0.0, 0.0, 0.0, 0.0, 0.0, 0.0, 1.6635894199647827E9, 0.0, 2022-09-19 17:10:19.964
42.0, -14634.670571645567, -27324.202933812492, -34525.107982767586, -17004.536629263956, -13240.324049034602, 187500.0, -47217.70253392489, -10932.953468913254, 0.606, -0.678, 0.47000000000000003, 192.0, 0.0, 0.0, 0.0, 0.0, 0.0, 0.0, 0.0, 0.0, 0.0, 1.6635894199687817E9, 0.0, 2022-09-19 17:10:19.968
43.0, -14660.33037428026, -27327.44393675851, -34527.946654313404, -16995.30535880391, -13241.66515370192, 187500.0, -47217.81429264716, -10938.653163749357, 0.606, -0.678, 0.47000000000000003, 192.0, 0.0, 0.0, 0.0, 0.0, 0.0, 0.0, 0.0, 0.0, 0.0, 1.6635894199727955E9, 0.0, 2022-09-19 17:10:19.972
44.0, -14671.908577908109, -27322.72771867844, -34538.04964280721, -16999.440431528143, -13247.342496793568, 187500.0, -47223.82691190564, -10938.139073626886, 0.606, -0.678, 0.47000000000000003, 192.0, 0.0, 0.0, 0.0, 0.0, 0.0, 0.0, 0.0, 0.0, 0.0, 1.6635894199768207E9, 0.0, 2022-09-19 17:10:19.976
45.0, -14665.001888871418, -27309.65194817209, -34544.3528347436, -17005.006015897514, -13242.492168246767, 187500.0, -47230.48773175332, -10933.534614269092, 0.606, -0.678, 0.47000000000000003, 192.0, 0.0, 0.0, 0.0, 0.0, 0.0, 0.0, 0.0, 0.0, 0.0, 1.6635894199818375E9, 0.0, 2022-09-19 17:10:19.981
46.0, -14661.224444058473, -27308.53436094932, -34544.26342776578, -17011.97976016757, -13245.33083979259, 187500.0, -47234.175769588444, -10936.842672448478, 0.606, -0.678, 0.47000000000000003, 192.0, 0.0, 0.0, 0.0, 0.0, 0.0, 0.0, 0.0, 0.0, 0.0, 1.6635894199858024E9, 0.0, 2022-09-19 17:10:19.985
47.0, -14684.38085131417, -27321.610131455676, -34538.98841607433, -17020.94280969415, -13248.817711927619, 187500.0, -47235.47217076685, -10947.63856502039, 0.606, -0.678, 0.47000000000000003, 192.0, 0.0, 0.0, 0.0, 0.0, 0.0, 0.0, 0.0, 0.0, 0.0, 1.6635894199888153E9, 0.0, 2022-09-19 17:10:19.988
48.0, -14698.820078232298, -27320.179619810537, -34527.20904674638, -17015.51133579151, -13239.586441467578, 187500.0, -47222.75402817178, -10953.181797645308, 0.606, -0.68, 0.47000000000000003, 192.0, 18.0, 240.0, 234.0, 192.0, 14.0, 176.0, 0.0, 0.0, 0.0, 1.6635894199928007E9, 0.0, 2022-09-19 17:10:19.992
49.0, -14695.132040397173, -27306.12037254815, -34531.2994159817, -17007.822335698886, -13232.47858673079, 187500.0, -47223.78220841673, -10939.368419571927, 0.606, -0.68, 0.47000000000000003, 192.0, 0.0, 0.0, 0.0, 0.0, 0.0, 0.0, 0.0, 0.0, 0.0, 1.6635894199977973E9, 0.0, 2022-09-19 17:10:19.997
50.0, -14686.750136226432, -27301.02417481234, -34543.68228240994, -17013.723196235085, -13233.909098375929, 187500.0, -47231.180635831435, -10941.894166695378, 0.606, -0.68, 0.47000000000000003, 192.0, 0.0, 0.0, 0.0, 0.0, 0.0, 0.0, 0.0, 0.0, 0.0, 1.6635894200019262E9, 0.0, 2022-09-19 17:10:20.001
51.0, -14671.416839530093, -27294.92214857604, -34531.36647121507, -17018.88644920426, -13228.499976217745, 187500.0, -47218.86482463656, -10960.781390760112, 0.606, -0.68, 0.47000000000000003, 192.0, 0.0, 0.0, 0.0, 0.0, 0.0, 0.0, 0.0, 0.0, 0.0, 1.6635894200067708E9, 0.0, 2022-09-19 17:10:20.006
52.0, -14681.877455935177, -27305.31570974776, -34521.08466876563, -16995.841800670838, -13222.33089474808, 187500.0, -47213.67921992293, -10897.68241616278, 0.606, -0.68, 0.47000000000000003, 192.0, 0.0, 0.0, 0.0, 0.0, 0.0, 0.0, 0.0, 0.0, 0.0, 1.6635894200098097E9, 0.0, 2022-09-19 17:10:20.009
53.0, -14707.313741125316, -27321.721890177952, -34538.63078816304, -17005.69891997563, -13232.880918130984, 187500.0, -47230.15245558649, -10918.536593739582, 0.606, -0.68, 0.47000000000000003, 192.0, 0.0, 0.0, 0.0, 0.0, 0.0, 0.0, 0.0, 0.0, 0.0, 1.663589420012852E9, 0.0, 2022-09-19 17:10:20.012
54.0, -14710.711206282522, -27317.542113964813, -34543.59287543212, -17010.95157992263, -13230.913964618918, 187500.0, -47236.36624054507, -10918.089558850475, 0.606, -0.68, 0.47000000000000003, 192.0, 0.0, 0.0, 0.0, 0.0, 0.0, 0.0, 0.0, 0.0, 0.0, 1.6635894200158195E9, 0.0, 2022-09-19 17:10:20.015
55.0, -14705.033863190874, -27312.468267973458, -34538.11669804057, -17016.874792203285, -13230.913964618918, 187500.0, -47222.932842127426, -10925.73385545419, 0.606, -0.68, 0.47000000000000003, 192.0, 0.0, 0.0, 0.0, 0.0, 0.0, 0.0, 0.0, 0.0, 0.0, 1.6635894200209336E9, 0.0, 2022-09-19 17:10:20.020
56.0, -14700.42940383308, -27315.195180797004, -34536.485020695334, -17021.41219632771, -13232.880918130984, 187500.0, -47221.7929031602, -10953.226501134217, 0.606, -0.68, 0.47000000000000003, 192.0, 0.0, 0.0, 0.0, 0.0, 0.0, 0.0, 0.0, 0.0, 0.0, 1.6635894200248911E9, 0.0, 2022-09-19 17:10:20.024
57.0, -14712.901677239142, -27327.93567513653, -34534.4510119499, -17018.4170625707, -13233.506766975734, 187500.0, -47226.86674915156, -10961.340184371495, 0.606, -0.68, 0.47000000000000003, 192.0, 0.0, 0.0, 0.0, 0.0, 0.0, 0.0, 0.0, 0.0, 0.0, 1.6635894200288687E9, 0.0, 2022-09-19 17:10:20.028
58.0, -14718.936648242076, -27323.040643100816, -34523.275139722246, -17009.208143855114, -13231.025723341194, 187500.0, -47218.75306591429, -10926.627925232402, 0.61, -0.678, 0.47000000000000003, 192.0, 19.0, 16.0, 234.0, 208.0, 14.0, 176.0, 0.0, 0.0, 0.0, 1.6635894200329955E9, 0.0, 2022-09-19 17:10:20.032
59.0, -14721.887078510175, -27320.805468655286, -34531.99232005982, -17014.259638102012, -13236.5242524772, 187500.0, -47219.356563014575, -10959.060306437053, 0.61, -0.678, 0.47000000000000003, 192.0, 0.0, 0.0, 0.0, 0.0, 0.0, 0.0, 0.0, 0.0, 0.0, 1.6635894200369055E9, 0.0, 2022-09-19 17:10:20.036
60.0, -14711.515869082914, -27316.759802908877, -34538.00493931829, -17003.84372518584, -13224.454310471334, 187500.0, -47221.9940688603, -10905.39376799986, 0.61, -0.678, 0.47000000000000003, 192.0, 0.0, 0.0, 0.0, 0.0, 0.0, 0.0, 0.0, 0.0, 0.0, 1.6635894200398767E9, 0.0, 2022-09-19 17:10:20.039
61.0, -14699.758851499422, -27312.02123308435, -34537.826125362655, -17018.08178640387, -13220.498051702745, 187500.0, -47225.033906106226, -10930.762997956634, 0.61, -0.678, 0.47000000000000003, 192.0, 0.0, 0.0, 0.0, 0.0, 0.0, 0.0, 0.0, 0.0, 0.0, 1.6635894200438688E9, 0.0, 2022-09-19 17:10:20.043
62.0, -14717.7743575304, -27329.254428059394, -34521.241130976814, -17008.962274666104, -13218.866374357507, 187500.0, -47215.98144960183, -10911.831070402988, 0.61, -0.678, 0.47000000000000003, 192.0, 0.0, 0.0, 0.0, 0.0, 0.0, 0.0, 0.0, 0.0, 0.0, 1.6635894200489016E9, 0.0, 2022-09-19 17:10:20.048
63.0, -14730.045465236362, -27337.144593852117, -34521.68816586592, -17008.3140740769, -13213.323141732591, 187500.0, -47217.92605136944, -10900.63284643088, 0.61, -0.678, 0.47000000000000003, 192.0, 0.0, 0.0, 0.0, 0.0, 0.0, 0.0, 0.0, 0.0, 0.0, 1.6635894200529103E9, 0.0, 2022-09-19 17:10:20.052
64.0, -14727.072683223807, -27327.86861990316, -34531.18765725943, -17020.965161438606, -13215.692426644853, 187500.0, -47227.42554276295, -10925.35387579845, 0.61, -0.678, 0.47000000000000003, 192.0, 0.0, 0.0, 0.0, 0.0, 0.0, 0.0, 0.0, 0.0, 0.0, 1.6635894200569425E9, 0.0, 2022-09-19 17:10:20.056
65.0, -14708.520735325901, -27314.07759357424, -34530.09242178112, -17014.192582868647, -13213.211383010315, 187500.0, -47221.83760664912, -10907.606590700936, 0.61, -0.678, 0.47000000000000003, 192.0, 0.0, 0.0, 0.0, 0.0, 0.0, 0.0, 0.0, 0.0, 0.0, 1.6635894200610335E9, 0.0, 2022-09-19 17:10:20.061
66.0, -14701.34582535575, -27318.63734944312, -34543.324654498654, -17036.633734301777, -13237.507729233233, 187500.0, -47231.51591199826, -10952.60065228947, 0.61, -0.678, 0.47000000000000003, 192.0, 0.0, 0.0, 0.0, 0.0, 0.0, 0.0, 0.0, 0.0, 0.0, 1.6635894200649772E9, 0.0, 2022-09-19 17:10:20.064
67.0, -14717.215563919017, -27332.294265305314, -34536.84264860662, -17017.545344536942, -13250.896424161963, 187500.0, -47231.27004280926, -10901.213991786719, 0.61, -0.678, 0.47000000000000003, 192.0, 0.0, 0.0, 0.0, 0.0, 0.0, 0.0, 0.0, 0.0, 0.0, 1.6635894200699553E9, 0.0, 2022-09-19 17:10:20.069
68.0, -14718.891944753164, -27326.50516349139, -34522.76104959977, -16993.383108780756, -13233.082083831083, 187500.0, -47216.92022286895, -10884.047852045042, 0.61, -0.678, 0.47000000000000003, 192.0, 0.0, 0.0, 0.0, 0.0, 0.0, 0.0, 0.0, 0.0, 0.0, 1.663589420074092E9, 0.0, 2022-09-19 17:10:20.074
69.0, -14713.840450506264, -27316.759802908877, -34516.81548557466, -16993.65132971422, -13229.28228727368, 187500.0, -47213.38864724501, -10902.935076109778, 0.604, -0.676, 0.47400000000000003, 192.0, 18.0, 224.0, 234.0, 224.0, 14.0, 208.0, 0.0, 0.0, 0.0, 1.663589420077992E9, 0.0, 2022-09-19 17:10:20.077
70.0, -14707.537258569868, -27314.07759357424, -34520.905854809986, -16996.73587044905, -13238.37944726699, 187500.0, -47215.57911820163, -10898.978817341187, 0.604, -0.676, 0.47400000000000003, 192.0, 0.0, 0.0, 0.0, 0.0, 0.0, 0.0, 0.0, 0.0, 0.0, 1.66358942008093E9, 0.0, 2022-09-19 17:10:20.080
71.0, -14701.81521198931, -27315.5975121972, -34528.371337458055, -17008.64935024373, -13249.108284605538, 187500.0, -47218.64130719201, -10906.958390111731, 0.604, -0.676, 0.47400000000000003, 192.0, 0.0, 0.0, 0.0, 0.0, 0.0, 0.0, 0.0, 0.0, 0.0, 1.6635894200849707E9, 0.0, 2022-09-19 17:10:20.084
72.0, -14724.077549466796, -27331.55665773829, -34533.71340438288, -17015.4666323026, -13257.825464943107, 187500.0, -47231.49356025381, -10922.15757634134, 0.604, -0.676, 0.47400000000000003, 192.0, 0.0, 0.0, 0.0, 0.0, 0.0, 0.0, 0.0, 0.0, 0.0, 1.663589420088982E9, 0.0, 2022-09-19 17:10:20.088
73.0, -14743.858843309743, -27341.681997976542, -34532.52876192675, -17002.50262051852, -13246.806054926641, 187500.0, -47230.3983247755, -10907.517183723116, 0.604, -0.676, 0.47400000000000003, 192.0, 0.0, 0.0, 0.0, 0.0, 0.0, 0.0, 0.0, 0.0, 0.0, 1.6635894200919707E9, 0.0, 2022-09-19 17:10:20.091
74.0, -14748.530357900901, -27333.367149039168, -34530.56180841468, -17001.31797806239, -13239.027647856194, 187500.0, -47222.55286247169, -10921.107044351942, 0.604, -0.676, 0.47400000000000003, 192.0, 0.0, 0.0, 0.0, 0.0, 0.0, 0.0, 0.0, 0.0, 0.0, 1.6635894200959656E9, 0.0, 2022-09-19 17:10:20.095
75.0, -14742.428331664603, -27323.8006024123, -34530.69591888141, -16995.30535880391, -13236.725418177299, 187500.0, -47222.10582758258, -10918.715407695223, 0.604, -0.676, 0.47400000000000003, 192.0, 0.0, 0.0, 0.0, 0.0, 0.0, 0.0, 0.0, 0.0, 0.0, 1.663589420100093E9, 0.0, 2022-09-19 17:10:20.100
76.0, -14738.695590340567, -27328.047433858806, -34524.07980252264, -16986.901102888718, -13233.32795302009, 187500.0, -47214.28271702322, -10904.812622644022, 0.604, -0.676, 0.47400000000000003, 192.0, 0.0, 0.0, 0.0, 0.0, 0.0, 0.0, 0.0, 0.0, 0.0, 1.6635894201040015E9, 0.0, 2022-09-19 17:10:20.104
77.0, -14762.835474352298, -27344.11833812217, -34523.96804380036, -16988.868056400785, -13236.121921077005, 187500.0, -47217.1437403135, -10918.648352461858, 0.604, -0.676, 0.47400000000000003, 192.0, 0.0, 0.0, 0.0, 0.0, 0.0, 0.0, 0.0, 0.0, 0.0, 1.6635894201090665E9, 0.0, 2022-09-19 17:10:20.109
78.0, -14792.205666566571, -27354.713064993986, -34523.31984321116, -16985.805867410407, -13240.18993856787, 187500.0, -47220.2953362817, -10924.325695553505, 0.604, -0.676, 0.47400000000000003, 192.0, 0.0, 0.0, 0.0, 0.0, 0.0, 0.0, 0.0, 0.0, 0.0, 1.663589420113055E9, 0.0, 2022-09-19 17:10:20.113
79.0, -14800.252294570482, -27346.5546782678, -34522.49282866631, -16983.63774819824, -13236.43484549938, 187500.0, -47216.83081589113, -10929.265431078129, 0.6, -0.674, 0.47400000000000003, 192.0, 18.0, 192.0, 234.0, 240.0, 14.0, 208.0, 0.0, 0.0, 0.0, 1.663589420117034E9, 0.0, 2022-09-19 17:10:20.117
80.0, -14796.296035801894, -27332.294265305314, -34527.65608163549, -16987.16932382218, -13237.038342599672, 187500.0, -47218.26132753627, -10925.845614176467, 0.6, -0.674, 0.47400000000000003, 192.0, 0.0, 0.0, 0.0, 0.0, 0.0, 0.0, 0.0, 0.0, 0.0, 1.6635894201200655E9, 0.0, 2022-09-19 17:10:20.120
81.0, -14799.134707347717, -27334.283570561838, -34525.845590334604, -16986.789344166442, -13238.71472343382, 187500.0, -47217.70253392489, -10921.710541452234, 0.6, -0.674, 0.47400000000000003, 192.0, 0.0, 0.0, 0.0, 0.0, 0.0, 0.0, 0.0, 0.0, 0.0, 1.663589420124E9, 0.0, 2022-09-19 17:10:20.124
82.0, -14834.092835675818, -27355.718893494475, -34520.83879957662, -16983.503637731512, -13247.029572371195, 187500.0, -47216.11556006856, -10930.673590978813, 0.6, -0.674, 0.47400000000000003, 192.0, 0.0, 0.0, 0.0, 0.0, 0.0, 0.0, 0.0, 0.0, 0.0, 1.6635894201280646E9, 0.0, 2022-09-19 17:10:20.128
83.0, -14866.234644202548, -27361.55269879731, -34511.00403201628, -16974.16060854919, -13246.068447359616, 187500.0, -47208.024228575734, -10930.941811912277, 0.6, -0.674, 0.47400000000000003, 192.0, 0.0, 0.0, 0.0, 0.0, 0.0, 0.0, 0.0, 0.0, 0.0, 1.6635894201320612E9, 0.0, 2022-09-19 17:10:20.132
84.0, -14888.541685168944, -27360.055131918805, -34512.5463023837, -16975.859341127794, -13241.039304857171, 187500.0, -47202.235126761814, -10938.474349793714, 0.6, -0.674, 0.47400000000000003, 192.0, 0.0, 0.0, 0.0, 0.0, 0.0, 0.0, 0.0, 0.0, 0.0, 1.663589420136023E9, 0.0, 2022-09-19 17:10:20.136
85.0, -14902.511525453512, -27358.378751084656, -34526.53849441272, -16991.952597135616, -13244.503825247744, 187500.0, -47212.13694955551, -10968.760963530656, 0.6, -0.674, 0.47400000000000003, 192.0, 0.0, 0.0, 0.0, 0.0, 0.0, 0.0, 0.0, 0.0, 0.0, 1.6635894201411443E9, 0.0, 2022-09-19 17:10:20.141
86.0, -14911.89925812474, -27354.489547549434, -34525.28679672322, -17000.334501306355, -13244.43677001438, 187500.0, -47212.98631584481, -10996.186553977317, 0.6, -0.674, 0.47400000000000003, 192.0, 0.0, 0.0, 0.0, 0.0, 0.0, 0.0, 0.0, 0.0, 0.0, 1.663589420145094E9, 0.0, 2022-09-19 17:10:20.145
87.0, -14946.879738197296, -27368.23587038945, -34528.77366885825, -17006.07889963137, -13258.09368587657, 187500.0, -47221.07764733764, -11012.838603596521, 0.6, -0.674, 0.47400000000000003, 192.0, 0.0, 0.0, 0.0, 0.0, 0.0, 0.0, 0.0, 0.0, 0.0, 1.663589420148058E9, 0.0, 2022-09-19 17:10:20.148
88.0, -14973.67947979921, -27375.075504192773, -34527.4996194243, -16992.98077738056, -13253.221005585314, 187500.0, -47222.999897360794, -10940.798931217067, 0.6, -0.674, 0.47400000000000003, 192.0, 0.0, 0.0, 0.0, 0.0, 0.0, 0.0, 0.0, 0.0, 0.0, 1.6635894201520827E9, 0.0, 2022-09-19 17:10:20.152
89.0, -14971.578415820411, -27361.016256930383, -34520.056488520684, -16992.01965236898, -13245.107322348038, 187500.0, -47208.71713265385, -10944.665783007835, 0.604, -0.67, 0.47200000000000003, 192.0, 18.0, 224.0, 235.0, 16.0, 14.0, 192.0, 0.0, 0.0, 0.0, 1.6635894201561427E9, 0.0, 2022-09-19 17:10:20.156
90.0, -14950.232499865593, -27337.658683974587, -34520.749392598795, -16983.950672620616, -13238.781778667186, 187500.0, -47202.63745816201, -10935.188643358784, 0.604, -0.67, 0.47200000000000003, 192.0, 0.0, 0.0, 0.0, 0.0, 0.0, 0.0, 0.0, 0.0, 0.0, 1.663589420160097E9, 0.0, 2022-09-19 17:10:20.160
91.0, -14933.893374668763, -27327.26512280287, -34522.850456577595, -16990.477382001565, -13246.29196480417, 187500.0, -47207.2419175198, -10935.97095441472, 0.604, -0.67, 0.47200000000000003, 192.0, 0.0, 0.0, 0.0, 0.0, 0.0, 0.0, 0.0, 0.0, 0.0, 1.6635894201651287E9, 0.0, 2022-09-19 17:10:20.165
92.0, -14941.582374761389, -27340.005617142397, -34534.048680549706, -16997.674643716175, -13267.034383658694, 187500.0, -47224.56451947267, -10959.820265748533, 0.604, -0.67, 0.47200000000000003, 192.0, 0.0, 0.0, 0.0, 0.0, 0.0, 0.0, 0.0, 0.0, 0.0, 1.6635894201692033E9, 0.0, 2022-09-19 17:10:20.169
93.0, -14940.263621838525, -27338.955085152997, -34531.7017473819, -16986.476419744067, -13261.20057835586, 187500.0, -47222.239938049315, -10951.058381922054, 0.604, -0.67, 0.47200000000000003, 192.0, 0.0, 0.0, 0.0, 0.0, 0.0, 0.0, 0.0, 0.0, 0.0, 1.6635894201731377E9, 0.0, 2022-09-19 17:10:20.173
94.0, -14920.281162295481, -27327.332178036235, -34528.9524828139, -16980.642614441233, -13253.466874774324, 187500.0, -47213.5451094562, -10941.31302133954, 0.604, -0.67, 0.47200000000000003, 192.0, 0.0, 0.0, 0.0, 0.0, 0.0, 0.0, 0.0, 0.0, 0.0, 1.6635894201761467E9, 0.0, 2022-09-19 17:10:20.176
95.0, -14894.487249194057, -27320.559599466276, -34534.942750327915, -16992.39963202472, -13255.791456197674, 187500.0, -47218.75306591429, -10940.664820750335, 0.604, -0.67, 0.47200000000000003, 192.0, 0.0, 0.0, 0.0, 0.0, 0.0, 0.0, 0.0, 0.0, 0.0, 1.6635894201800709E9, 0.0, 2022-09-19 17:10:20.180
96.0, -14870.749696582521, -27321.07368958875, -34534.383956716534, -17000.736832706552, -13265.514465035732, 187500.0, -47225.59269971761, -10952.466541822738, 0.604, -0.67, 0.47200000000000003, 192.0, 0.0, 0.0, 0.0, 0.0, 0.0, 0.0, 0.0, 0.0, 0.0, 1.663589420184258E9, 0.0, 2022-09-19 17:10:20.184
97.0, -14869.028612259463, -27333.613018228178, -34525.82323859015, -16992.533742491454, -13274.72338375132, 187500.0, -47222.73167642733, -10945.73866674169, 0.604, -0.67, 0.47200000000000003, 192.0, 0.0, 0.0, 0.0, 0.0, 0.0, 0.0, 0.0, 0.0, 0.0, 1.6635894201881893E9, 0.0, 2022-09-19 17:10:20.188
98.0, -14851.03545797294, -27326.661625702578, -34526.71730836837, -16984.55416972091, -13278.925511708918, 187500.0, -47219.60243220359, -10937.513224782137, 0.604, -0.67, 0.47200000000000003, 192.0, 0.0, 0.0, 0.0, 0.0, 0.0, 0.0, 0.0, 0.0, 0.0, 1.6635894201921976E9, 0.0, 2022-09-19 17:10:20.192
99.0, -14814.155079621683, -27310.41190748357, -34534.49571543881, -16980.821428396874, -13276.48917156329, 187500.0, -47225.3468305286, -10920.54825074056, 0.602, -0.668, 0.47800000000000004, 192.0, 18.0, 208.0, 235.0, 32.0, 14.0, 240.0, 0.0, 0.0, 0.0, 1.6635894201972015E9, 0.0, 2022-09-19 17:10:20.197
100.0, -14766.322346487326, -27295.615052654157, -34538.18375327394, -16989.69507094563, -13266.363831325036, 187500.0, -47225.30212703969, -10917.68722745028, 0.602, -0.668, 0.47800000000000004, 192.0, 0.0, 0.0, 0.0, 0.0, 0.0, 0.0, 0.0, 0.0, 0.0, 1.6635894202001803E9, 0.0, 2022-09-19 17:10:20.200
101.0, -14731.230107692494, -27293.53634041981, -34548.13027955655, -17000.334501306355, -13272.756430239253, 187500.0, -47232.87936841004, -10922.984590886188, 0.602, -0.668, 0.47800000000000004, 192.0, 0.0, 0.0, 0.0, 0.0, 0.0, 0.0, 0.0, 0.0, 0.0, 1.6635894202041483E9, 0.0, 2022-09-19 17:10:20.204
102.0, -14715.740348784966, -27302.186465524017, -34549.8066603907, -17005.60951299781, -13279.841933231584, 187500.0, -47237.97556614585, -10930.561832256537, 0.602, -0.668, 0.47800000000000004, 192.0, 0.0, 0.0, 0.0, 0.0, 0.0, 0.0, 0.0, 0.0, 0.0, 1.6635894202081404E9, 0.0, 2022-09-19 17:10:20.208
103.0, -14695.757889241922, -27310.233093527928, -34556.333369771644, -17012.449146801133, -13284.245226889281, 187500.0, -47238.02026963476, -10935.501567781159, 0.602, -0.668, 0.47800000000000004, 192.0, 0.0, 0.0, 0.0, 0.0, 0.0, 0.0, 0.0, 0.0, 0.0, 1.6635894202122476E9, 0.0, 2022-09-19 17:10:20.212
104.0, -14655.368287011182, -27304.6451574141, -34557.71917792787, -17015.71250149161, -13280.736003009797, 187500.0, -47238.42260103495, -10937.870852693422, 0.602, -0.668, 0.47800000000000004, 192.0, 0.0, 0.0, 0.0, 0.0, 0.0, 0.0, 0.0, 0.0, 0.0, 1.663589420216243E9, 0.0, 2022-09-19 17:10:20.216
105.0, -14600.897085773599, -27290.138875262604, -34555.640465693534, -17001.340329806844, -13269.3813168265, 187500.0, -47232.67820270994, -10913.462747748226, 0.602, -0.668, 0.47800000000000004, 192.0, 0.0, 0.0, 0.0, 0.0, 0.0, 0.0, 0.0, 0.0, 0.0, 1.663589420220225E9, 0.0, 2022-09-19 17:10:20.220
106.0, -14573.426791838026, -27303.661680658064, -34557.56271571669, -17011.264504345003, -13278.299662864169, 187500.0, -47241.529493514245, -10916.815509416523, 0.602, -0.668, 0.47800000000000004, 192.0, 0.0, 0.0, 0.0, 0.0, 0.0, 0.0, 0.0, 0.0, 0.0, 1.6635894202253451E9, 0.0, 2022-09-19 17:10:20.225
107.0, -14565.827198723222, -27325.700500691, -34562.32363728567, -17023.446205073145, -13292.336558382101, 187500.0, -47250.15726687399, -10963.798876261579, 0.602, -0.668, 0.47800000000000004, 192.0, 0.0, 0.0, 0.0, 0.0, 0.0, 0.0, 0.0, 0.0, 0.0, 1.663589420228238E9, 0.0, 2022-09-19 17:10:20.228
108.0, -14548.459893281448, -27329.053262359295, -34550.79013714673, -17002.055585629416, -13277.897331463973, 187500.0, -47232.25351956529, -10923.722198453212, 0.602, -0.668, 0.47800000000000004, 192.0, 0.0, 0.0, 0.0, 0.0, 0.0, 0.0, 0.0, 0.0, 0.0, 1.6635894202312436E9, 0.0, 2022-09-19 17:10:20.231
109.0, -14521.68250342399, -27323.018291356362, -34553.539401714734, -16995.819448926384, -13269.403668570956, 187500.0, -47232.924071898946, -10896.609532428925, 0.604, -0.668, 0.48, 192.0, 18.0, 224.0, 235.0, 32.0, 15.0, 0.0, 0.0, 0.0, 0.0, 1.66358942023622E9, 0.0, 2022-09-19 17:10:20.236
110.0, -14485.852657062132, -27315.418698241556, -34557.62977095005, -17005.855382186815, -13271.035345916194, 187500.0, -47236.9473859009, -10911.272276791606, 0.604, -0.668, 0.48, 192.0, 0.0, 0.0, 0.0, 0.0, 0.0, 0.0, 0.0, 0.0, 0.0, 1.6635894202403193E9, 0.0, 2022-09-19 17:10:20.240
111.0, -14461.735124794857, -27319.754936665886, -34556.78040466075, -17013.969065424095, -13272.778781983709, 187500.0, -47237.21560683437, -10925.555041498548, 0.604, -0.668, 0.48, 192.0, 0.0, 0.0, 0.0, 0.0, 0.0, 0.0, 0.0, 0.0, 0.0, 1.6635894202442913E9, 0.0, 2022-09-19 17:10:20.244
112.0, -14453.979069468865, -27330.863753660175, -34563.1059483416, -17018.79704222644, -13277.24913087477, 187500.0, -47244.25640633779, -10946.073942908519, 0.604, -0.668, 0.48, 192.0, 0.0, 0.0, 0.0, 0.0, 0.0, 0.0, 0.0, 0.0, 0.0, 1.6635894202482557E9, 0.0, 2022-09-19 17:10:20.248
113.0, -14433.974258181366, -27327.823916414254, -34550.611323191086, -17012.60560901232, -13269.91775869343, 187500.0, -47233.52756899924, -10936.574451515015, 0.604, -0.668, 0.48, 192.0, 0.0, 0.0, 0.0, 0.0, 0.0, 0.0, 0.0, 0.0, 0.0, 1.6635894202533245E9, 0.0, 2022-09-19 17:10:20.253
114.0, -14408.582676480137, -27326.03577685783, -34561.407215763, -17011.532725278466, -13274.388107584491, 187500.0, -47245.3516418161, -10911.607552958436, 0.604, -0.668, 0.48, 192.0, 0.0, 0.0, 0.0, 0.0, 0.0, 0.0, 0.0, 0.0, 0.0, 1.6635894202562668E9, 0.0, 2022-09-19 17:10:20.256
115.0, -14372.08227778462, -27317.765631409366, -34566.88339315455, -17011.37626306728, -13267.86139820354, 187500.0, -47247.20683660589, -10899.8728871194, 0.604, -0.668, 0.48, 192.0, 0.0, 0.0, 0.0, 0.0, 0.0, 0.0, 0.0, 0.0, 0.0, 1.6635894202602615E9, 0.0, 2022-09-19 17:10:20.260
116.0, -14345.886033283, -27318.03385234283, -34565.721102442876, -17018.595876526342, -13265.000374913261, 187500.0, -47245.73162147184, -10921.375265285405, 0.604, -0.668, 0.48, 192.0, 0.0, 0.0, 0.0, 0.0, 0.0, 0.0, 0.0, 0.0, 0.0, 1.6635894202643368E9, 0.0, 2022-09-19 17:10:20.264
117.0, -14345.260184438252, -27330.014387370873, -34562.8600791526, -17011.89035318975, -13262.452276045356, 187500.0, -47247.050374394705, -10913.596858214958, 0.604, -0.668, 0.48, 192.0, 0.0, 0.0, 0.0, 0.0, 0.0, 0.0, 0.0, 0.0, 0.0, 1.6635894202683332E9, 0.0, 2022-09-19 17:10:20.268
118.0, -14334.576050588616, -27332.36132053868, -34559.26144829529, -17009.833992699863, -13258.920700421419, 187500.0, -47244.904606927, -10895.402538228338, 0.604, -0.668, 0.48, 192.0, 0.0, 0.0, 0.0, 0.0, 0.0, 0.0, 0.0, 0.0, 0.0, 1.6635894202722774E9, 0.0, 2022-09-19 17:10:20.272
119.0, -14313.699521267357, -27332.495431005413, -34557.58506746114, -17014.393748568746, -13256.417305042423, 187500.0, -47242.46826678137, -10903.672683676801, 0.608, -0.676, 0.47400000000000003, 192.0, 19.0, 0.0, 234.0, 224.0, 14.0, 208.0, 0.0, 0.0, 0.0, 1.6635894202763567E9, 0.0, 2022-09-19 17:10:20.276
120.0, -14280.417773773406, -27325.097003590705, -34558.859116895095, -17020.60753352732, -13259.703011477353, 187500.0, -47244.7034412269, -10909.461785490726, 0.608, -0.676, 0.47400000000000003, 192.0, 0.0, 0.0, 0.0, 0.0, 0.0, 0.0, 0.0, 0.0, 0.0, 1.6635894202803433E9, 0.0, 2022-09-19 17:10:20.280
121.0, -14250.734657136758, -27321.6995384335, -34555.17107905997, -17025.94960045214, -13262.787552212187, 187500.0, -47240.411906291476, -10927.656105477347, 0.608, -0.676, 0.47400000000000003, 192.0, 0.0, 0.0, 0.0, 0.0, 0.0, 0.0, 0.0, 0.0, 0.0, 1.663589420284318E9, 0.0, 2022-09-19 17:10:20.284
122.0, -14250.198215269831, -27336.339931051723, -34558.233268050346, -17010.616303755796, -13269.023688915217, 187500.0, -47250.604301763095, -10897.749471396146, 0.608, -0.676, 0.47400000000000003, 192.0, 0.0, 0.0, 0.0, 0.0, 0.0, 0.0, 0.0, 0.0, 0.0, 1.663589420287376E9, 0.0, 2022-09-19 17:10:20.287
123.0, -14236.474244174273, -27337.45751827449, -34549.04670107921, -17012.73971947905, -13260.95470916685, 187500.0, -47242.557673759184, -10900.074052819498, 0.608, -0.676, 0.47400000000000003, 192.0, 0.0, 0.0, 0.0, 0.0, 0.0, 0.0, 0.0, 0.0, 0.0, 1.6635894202923975E9, 0.0, 2022-09-19 17:10:20.292
124.0, -14215.15067996391, -27339.513878764377, -34558.41208200599, -17021.635713772263, -13263.122828379015, 187500.0, -47248.25736859529, -10913.999189615153, 0.608, -0.676, 0.47400000000000003, 192.0, 0.0, 0.0, 0.0, 0.0, 0.0, 0.0, 0.0, 0.0, 0.0, 1.663589420296298E9, 0.0, 2022-09-19 17:10:20.296
125.0, -14184.595845293505, -27330.863753660175, -34560.06611109568, -17026.486042319066, -13259.233624843791, 187500.0, -47243.11646737057, -10915.452053004748, 0.608, -0.676, 0.47400000000000003, 192.0, 0.0, 0.0, 0.0, 0.0, 0.0, 0.0, 0.0, 0.0, 0.0, 1.6635894203003051E9, 0.0, 2022-09-19 17:10:20.300
126.0, -14167.027374151634, -27328.449765259, -34549.292570268226, -17013.85730670182, -13255.076200375104, 187500.0, -47238.98139464634, -10888.58525616947, 0.608, -0.676, 0.47400000000000003, 192.0, 0.0, 0.0, 0.0, 0.0, 0.0, 0.0, 0.0, 0.0, 0.0, 1.6635894203043878E9, 0.0, 2022-09-19 17:10:20.304
127.0, -14174.694022499803, -27339.4021200421, -34548.68907316793, -17008.761108966006, -13259.747714966265, 187500.0, -47240.903644669495, -10894.955503339232, 0.608, -0.676, 0.47400000000000003, 192.0, 0.0, 0.0, 0.0, 0.0, 0.0, 0.0, 0.0, 0.0, 0.0, 1.6635894203093984E9, 0.0, 2022-09-19 17:10:20.309
128.0, -14172.905882943378, -27344.163041611082, -34545.49277371082, -17006.83885894285, -13256.685525975887, 187500.0, -47237.64028997902, -10899.202334785741, 0.608, -0.676, 0.47400000000000003, 192.0, 0.0, 0.0, 0.0, 0.0, 0.0, 0.0, 0.0, 0.0, 0.0, 1.6635894203123572E9, 0.0, 2022-09-19 17:10:20.312
129.0, -14161.104161870977, -27343.6042479997, -34539.79307887472, -17000.60272223982, -13249.532967750189, 187500.0, -47229.45955150838, -10894.374357983394, 0.61, -0.674, 0.47400000000000003, 192.0, 19.0, 16.0, 234.0, 240.0, 14.0, 208.0, 0.0, 0.0, 0.0, 1.6635894203153815E9, 0.0, 2022-09-19 17:10:20.315
130.0, -14143.759208173658, -27341.681997976542, -34539.32369224116, -17001.385033295755, -13241.262822301725, 187500.0, -47229.92893814194, -10888.026462558088, 0.61, -0.674, 0.47400000000000003, 192.0, 0.0, 0.0, 0.0, 0.0, 0.0, 0.0, 0.0, 0.0, 0.0, 1.663589420319502E9, 0.0, 2022-09-19 17:10:20.319
131.0, -14145.167368074342, -27349.192184113526, -34539.99424457482, -17004.201353097124, -13250.114113106027, 187500.0, -47239.60724349109, -10900.342273752962, 0.61, -0.674, 0.47400000000000003, 192.0, 0.0, 0.0, 0.0, 0.0, 0.0, 0.0, 0.0, 0.0, 0.0, 1.6635894203244636E9, 0.0, 2022-09-19 17:10:20.324
132.0, -14162.869949682947, -27359.228117373958, -34538.89900909651, -17003.240228085546, -13256.126732364504, 187500.0, -47245.575159260654, -10918.87186990641, 0.61, -0.674, 0.47400000000000003, 192.0, 0.0, 0.0, 0.0, 0.0, 0.0, 0.0, 0.0, 0.0, 0.0, 1.6635894203284247E9, 0.0, 2022-09-19 17:10:20.328
133.0, -14171.832999209524, -27363.89963196512, -34544.822221377166, -17005.341292064346, -13252.393991040468, 187500.0, -47251.40896456349, -10921.44232051877, 0.61, -0.674, 0.47400000000000003, 192.0, 0.0, 0.0, 0.0, 0.0, 0.0, 0.0, 0.0, 0.0, 0.0, 1.6635894203325574E9, 0.0, 2022-09-19 17:10:20.332
134.0, -14159.673650225837, -27354.869527205174, -34541.96119808689, -17005.631864742263, -13250.605851484044, 187500.0, -47243.004708648295, -10914.043893104064, 0.61, -0.674, 0.47400000000000003, 192.0, 0.0, 0.0, 0.0, 0.0, 0.0, 0.0, 0.0, 0.0, 0.0, 1.6635894203364637E9, 0.0, 2022-09-19 17:10:20.336
135.0, -14136.852519136968, -27343.51484102188, -34548.28674176773, -17008.98462641056, -13249.868243917019, 187500.0, -47241.73065921434, -10913.395692514861, 0.61, -0.674, 0.47400000000000003, 192.0, 0.0, 0.0, 0.0, 0.0, 0.0, 0.0, 0.0, 0.0, 0.0, 1.6635894203394587E9, 0.0, 2022-09-19 17:10:20.339
136.0, -14132.27041152363, -27348.4545765465, -34546.208029533394, -17004.424870541676, -13257.356078309545, 187500.0, -47244.323461571155, -10907.58423895648, 0.61, -0.674, 0.47400000000000003, 192.0, 0.0, 0.0, 0.0, 0.0, 0.0, 0.0, 0.0, 0.0, 0.0, 1.6635894203434513E9, 0.0, 2022-09-19 17:10:20.343
137.0, -14144.340353529496, -27361.306829608304, -34538.653139907496, -16993.83014366986, -13260.373563811012, 187500.0, -47238.42260103495, -10890.865134103911, 0.61, -0.674, 0.47400000000000003, 192.0, 0.0, 0.0, 0.0, 0.0, 0.0, 0.0, 0.0, 0.0, 0.0, 1.6635894203484793E9, 0.0, 2022-09-19 17:10:20.348
138.0, -14148.922461142834, -27365.665419777088, -34544.375186488054, -16996.445297771133, -13255.679697475398, 187500.0, -47243.11646737057, -10897.995340585154, 0.61, -0.674, 0.47400000000000003, 192.0, 0.0, 0.0, 0.0, 0.0, 0.0, 0.0, 0.0, 0.0, 0.0, 1.66358942035245E9, 0.0, 2022-09-19 17:10:20.352
139.0, -14136.830167392513, -27361.61975403068, -34545.6045324331, -17000.22274258408, -13250.561147995133, 187500.0, -47241.954176658895, -10896.788346384566, 0.604, -0.674, 0.47200000000000003, 192.0, 18.0, 224.0, 234.0, 240.0, 14.0, 192.0, 0.0, 0.0, 0.0, 1.6635894203564525E9, 0.0, 2022-09-19 17:10:20.356
140.0, -14114.858402592947, -27353.59547777122, -34553.09236682563, -17006.548286264933, -13249.600022983555, 187500.0, -47248.70440348439, -10896.386014984371, 0.604, -0.674, 0.47200000000000003, 192.0, 0.0, 0.0, 0.0, 0.0, 0.0, 0.0, 0.0, 0.0, 0.0, 1.6635894203604672E9, 0.0, 2022-09-19 17:10:20.360
141.0, -14116.512431682639, -27359.026951673863, -34548.242038278826, -17006.816507198397, -13250.069409617116, 187500.0, -47250.134915129536, -10901.951599353742, 0.604, -0.674, 0.47200000000000003, 192.0, 0.0, 0.0, 0.0, 0.0, 0.0, 0.0, 0.0, 0.0, 0.0, 1.6635894203635466E9, 0.0, 2022-09-19 17:10:20.363
142.0, -14127.55419344356, -27361.329181352758, -34539.636616663534, -16997.898161160727, -13244.280307803192, 187500.0, -47243.51879877076, -10897.928285351789, 0.604, -0.674, 0.47200000000000003, 192.0, 0.0, 0.0, 0.0, 0.0, 0.0, 0.0, 0.0, 0.0, 0.0, 1.6635894203674583E9, 0.0, 2022-09-19 17:10:20.367
143.0, -14133.32094351303, -27362.17854764206, -34533.71340438288, -16991.59496922433, -13240.256993801237, 187500.0, -47231.672374209455, -10889.121698036397, 0.604, -0.674, 0.47200000000000003, 192.0, 0.0, 0.0, 0.0, 0.0, 0.0, 0.0, 0.0, 0.0, 0.0, 1.6635894203714814E9, 0.0, 2022-09-19 17:10:20.371
144.0, -14123.173251530321, -27358.5575650403, -34539.41309921898, -16993.89719890323, -13241.888671146473, 187500.0, -47232.96877538786, -10888.182924769275, 0.604, -0.674, 0.47200000000000003, 192.0, 0.0, 0.0, 0.0, 0.0, 0.0, 0.0, 0.0, 0.0, 0.0, 1.6635894203765147E9, 0.0, 2022-09-19 17:10:20.376
145.0, -14105.202448988253, -27350.287419591838, -34542.31882599817, -17001.02740538447, -13243.207424069336, 187500.0, -47235.53922600022, -10906.846631389455, 0.604, -0.674, 0.47200000000000003, 192.0, 0.0, 0.0, 0.0, 0.0, 0.0, 0.0, 0.0, 0.0, 0.0, 1.6635894203805313E9, 0.0, 2022-09-19 17:10:20.380
146.0, -14110.656274635348, -27364.056094176307, -34546.40919523349, -17010.482193289066, -13258.786589954685, 187500.0, -47242.222397592355, -10922.336390296983, 0.604, -0.674, 0.47200000000000003, 192.0, 0.0, 0.0, 0.0, 0.0, 0.0, 0.0, 0.0, 0.0, 0.0, 1.6635894203845036E9, 0.0, 2022-09-19 17:10:20.384
147.0, -14126.280144009608, -27376.6624780491, -34535.099212539106, -16995.841800670838, -13257.646650987464, 187500.0, -47234.756914944286, -10887.512372435614, 0.604, -0.674, 0.47200000000000003, 192.0, 0.0, 0.0, 0.0, 0.0, 0.0, 0.0, 0.0, 0.0, 0.0, 1.6635894203885307E9, 0.0, 2022-09-19 17:10:20.388
148.0, -14130.191699289287, -27373.220309402983, -34528.527799669246, -16995.730041948562, -13250.024706128206, 187500.0, -47227.82787416314, -10893.882619605378, 0.604, -0.674, 0.47200000000000003, 192.0, 0.0, 0.0, 0.0, 0.0, 0.0, 0.0, 0.0, 0.0, 0.0, 1.663589420391564E9, 0.0, 2022-09-19 17:10:20.391
149.0, -14119.999303817667, -27358.98224818495, -34525.73383161233, -16997.384071038257, -13239.854662401041, 187500.0, -47218.596603703096, -10910.10998607993, 0.608, -0.678, 0.47200000000000003, 192.0, 19.0, 0.0, 234.0, 208.0, 14.0, 192.0, 0.0, 0.0, 0.0, 1.663589420395468E9, 0.0, 2022-09-19 17:10:20.395
150.0, -14098.675739607304, -27343.64895148861, -34528.5501514137, -17007.822335698886, -13231.4727582303, 187500.0, -47219.62478394804, -10940.530710283603, 0.608, -0.678, 0.47200000000000003, 192.0, 0.0, 0.0, 0.0, 0.0, 0.0, 0.0, 0.0, 0.0, 0.0, 1.663589420399562E9, 0.0, 2022-09-19 17:10:20.399
151.0, -14106.342387955474, -27350.198012614015, -34525.867942079065, -16994.50069600352, -13232.925621619896, 187500.0, -47225.81621716216, -10900.431680730782, 0.608, -0.678, 0.47200000000000003, 192.0, 0.0, 0.0, 0.0, 0.0, 0.0, 0.0, 0.0, 0.0, 0.0, 1.663589420403519E9, 0.0, 2022-09-19 17:10:20.403
152.0, -14125.944867842778, -27364.950163954516, -34532.48405843783, -16999.6639489727, -13246.806054926641, 187500.0, -47235.650984722495, -10905.550230211047, 0.608, -0.678, 0.47200000000000003, 192.0, 0.0, 0.0, 0.0, 0.0, 0.0, 0.0, 0.0, 0.0, 0.0, 1.6635894204085205E9, 0.0, 2022-09-19 17:10:20.408
153.0, -14128.56002194405, -27363.6090592872, -34530.58416015913, -17002.770841451984, -13250.583499739589, 187500.0, -47238.802580690695, -10909.73000642419, 0.608, -0.678, 0.47200000000000003, 192.0, 0.0, 0.0, 0.0, 0.0, 0.0, 0.0, 0.0, 0.0, 0.0, 1.6635894204125187E9, 0.0, 2022-09-19 17:10:20.412
154.0, -14117.831184605502, -27352.589649270732, -34529.44422119191, -17001.049757128927, -13247.588365982578, 187500.0, -47231.15828408698, -10907.226611045196, 0.608, -0.678, 0.47200000000000003, 192.0, 0.0, 0.0, 0.0, 0.0, 0.0, 0.0, 0.0, 0.0, 0.0, 1.6635894204165564E9, 0.0, 2022-09-19 17:10:20.416
155.0, -14105.493021666172, -27349.952143425005, -34531.34411947061, -16997.585236738352, -13240.86049090153, 187500.0, -47232.27587130974, -10899.403500485838, 0.608, -0.678, 0.47200000000000003, 192.0, 0.0, 0.0, 0.0, 0.0, 0.0, 0.0, 0.0, 0.0, 0.0, 1.6635894204195602E9, 0.0, 2022-09-19 17:10:20.419
156.0, -14120.93807708479, -27369.152291912116, -34531.27706423725, -16999.731004206064, -13244.682639203387, 187500.0, -47238.087324868124, -10896.341311495462, 0.608, -0.678, 0.47200000000000003, 192.0, 0.0, 0.0, 0.0, 0.0, 0.0, 0.0, 0.0, 0.0, 0.0, 1.663589420423557E9, 0.0, 2022-09-19 17:10:20.423
157.0, -14145.368533774441, -27385.42436187558, -34534.27219799426, -17006.637693242752, -13253.66804047442, 187500.0, -47240.79188594722, -10910.758186669134, 0.608, -0.678, 0.47200000000000003, 192.0, 0.0, 0.0, 0.0, 0.0, 0.0, 0.0, 0.0, 0.0, 0.0, 1.6635894204275527E9, 0.0, 2022-09-19 17:10:20.427
158.0, -14152.029353622122, -27386.966632242995, -34534.07103229416, -17006.302417075924, -13250.315278806125, 187500.0, -47235.06983936666, -10902.644503431859, 0.608, -0.678, 0.47200000000000003, 192.0, 0.0, 0.0, 0.0, 0.0, 0.0, 0.0, 0.0, 0.0, 0.0, 1.6635894204315422E9, 0.0, 2022-09-19 17:10:20.431
159.0, -14150.0400483656, -27385.022030475382, -34542.989378331826, -17017.65710325922, -13247.029572371195, 187500.0, -47238.22143533485, -10908.746529668157, 0.61, -0.676, 0.47200000000000003, 192.0, 19.0, 16.0, 234.0, 224.0, 14.0, 192.0, 0.0, 0.0, 0.0, 1.6635894204366257E9, 0.0, 2022-09-19 17:10:20.436
160.0, -14144.005077362666, -27382.965669985497, -34548.39850049001, -17015.109004391314, -13232.545641964156, 187500.0, -47241.88712142553, -10906.556058711536, 0.61, -0.676, 0.47200000000000003, 192.0, 0.0, 0.0, 0.0, 0.0, 0.0, 0.0, 0.0, 0.0, 0.0, 1.6635894204405787E9, 0.0, 2022-09-19 17:10:20.440
161.0, -14153.392810033896, -27387.70423981002, -34541.06712830867, -17014.684321246663, -13226.488319216767, 187500.0, -47239.897816169, -10916.055550105042, 0.61, -0.676, 0.47200000000000003, 192.0, 0.0, 0.0, 0.0, 0.0, 0.0, 0.0, 0.0, 0.0, 0.0, 1.6635894204446075E9, 0.0, 2022-09-19 17:10:20.444
162.0, -14176.526865545138, -27394.879149780176, -34538.04964280721, -17019.17702188218, -13225.057807571628, 187500.0, -47238.15438010149, -10944.017582418632, 0.61, -0.676, 0.47200000000000003, 192.0, 0.0, 0.0, 0.0, 0.0, 0.0, 0.0, 0.0, 0.0, 0.0, 1.663589420447634E9, 0.0, 2022-09-19 17:10:20.447
163.0, -14190.51905757416, -27394.677984080077, -34538.16140152948, -17008.247018843536, -13219.6710371579, 187500.0, -47239.74135395782, -10922.269335063618, 0.61, -0.676, 0.47200000000000003, 192.0, 0.0, 0.0, 0.0, 0.0, 0.0, 0.0, 0.0, 0.0, 0.0, 1.663589420451681E9, 0.0, 2022-09-19 17:10:20.451
164.0, -14193.648301797904, -27389.42532413308, -34538.519029440766, -17007.08472813186, -13218.396987723945, 187500.0, -47242.155342358994, -10898.420023729805, 0.61, -0.676, 0.47200000000000003, 192.0, 0.0, 0.0, 0.0, 0.0, 0.0, 0.0, 0.0, 0.0, 0.0, 1.6635894204555907E9, 0.0, 2022-09-19 17:10:20.455
165.0, -14188.28388312863, -27379.74701878393, -34540.28481725274, -17010.862172944806, -13218.396987723945, 187500.0, -47245.03871739373, -10907.114852322919, 0.61, -0.676, 0.47200000000000003, 192.0, 0.0, 0.0, 0.0, 0.0, 0.0, 0.0, 0.0, 0.0, 0.0, 1.663589420459636E9, 0.0, 2022-09-19 17:10:20.459
166.0, -14199.303293145096, -27382.473931607477, -34530.58416015913, -16999.932169906162, -13220.162775535915, 187500.0, -47243.407040048485, -10895.044910317054, 0.61, -0.676, 0.47200000000000003, 192.0, 0.0, 0.0, 0.0, 0.0, 0.0, 0.0, 0.0, 0.0, 0.0, 1.663589420464589E9, 0.0, 2022-09-19 17:10:20.464
167.0, -14222.750273078713, -27387.10074270973, -34523.92334031145, -17003.955483908117, -13221.52623194769, 187500.0, -47232.298223054204, -10910.467613991215, 0.61, -0.676, 0.47200000000000003, 192.0, 0.0, 0.0, 0.0, 0.0, 0.0, 0.0, 0.0, 0.0, 0.0, 1.6635894204685824E9, 0.0, 2022-09-19 17:10:20.468
168.0, -14239.223508742274, -27385.558472342313, -34537.334386984636, -17012.896181690237, -13216.877069100985, 187500.0, -47241.68595572543, -10924.169233342318, 0.61, -0.676, 0.47200000000000003, 192.0, 0.0, 0.0, 0.0, 0.0, 0.0, 0.0, 0.0, 0.0, 0.0, 1.6635894204726574E9, 0.0, 2022-09-19 17:10:20.472
169.0, -14242.44215994384, -27381.021068217884, -34534.42866020544, -17012.3150363344, -13207.288170729658, 187500.0, -47238.71317371287, -10910.802890158046, 0.61, -0.676, 0.47200000000000003, 192.0, 0.0, 0.0, 0.0, 0.0, 0.0, 0.0, 0.0, 0.0, 0.0, 1.6635894204757092E9, 0.0, 2022-09-19 17:10:20.475
170.0, -14238.307087219608, -27378.495321094433, -34521.73286935483, -17006.257713587012, -13198.638045625454, 187500.0, -47226.48676949582, -10897.078919062486, 0.61, -0.678, 0.47600000000000003, 192.0, 19.0, 16.0, 234.0, 208.0, 14.0, 224.0, 0.0, 0.0, 0.0, 1.6635894204796731E9, 0.0, 2022-09-19 17:10:20.479
171.0, -14255.249709516731, -27384.61969907519, -34522.090497266116, -17004.80485019742, -13206.394100951446, 187500.0, -47229.437199763925, -10898.509430707625, 0.61, -0.678, 0.47600000000000003, 192.0, 0.0, 0.0, 0.0, 0.0, 0.0, 0.0, 0.0, 0.0, 0.0, 1.663589420483616E9, 0.0, 2022-09-19 17:10:20.483
172.0, -14285.625730231492, -27398.075449237283, -34524.817410089665, -17006.816507198397, -13219.648685413444, 187500.0, -47232.27587130974, -10907.472480234204, 0.61, -0.678, 0.47600000000000003, 192.0, 0.0, 0.0, 0.0, 0.0, 0.0, 0.0, 0.0, 0.0, 0.0, 1.6635894204876382E9, 0.0, 2022-09-19 17:10:20.487
173.0, -14302.568352528615, -27399.75183007143, -34518.62597687554, -17009.431661299666, -13222.085025559072, 187500.0, -47219.42361824794, -10923.610439730935, 0.61, -0.678, 0.47600000000000003, 192.0, 0.0, 0.0, 0.0, 0.0, 0.0, 0.0, 0.0, 0.0, 0.0, 1.6635894204916859E9, 0.0, 2022-09-19 17:10:20.491
174.0, -14305.094099652064, -27387.90540551012, -34510.914625038466, -17000.379204795267, -13215.915944089407, 187500.0, -47212.56163270016, -10921.06234086303, 0.61, -0.678, 0.47600000000000003, 192.0, 0.0, 0.0, 0.0, 0.0, 0.0, 0.0, 0.0, 0.0, 0.0, 1.663589420495688E9, 0.0, 2022-09-19 17:10:20.495
175.0, -14306.9269426974, -27381.244585662436, -34523.54336065571, -16991.706727946606, -13217.793490623653, 187500.0, -47224.475112494845, -10894.150840538841, 0.61, -0.678, 0.47600000000000003, 192.0, 0.0, 0.0, 0.0, 0.0, 0.0, 0.0, 0.0, 0.0, 0.0, 1.6635894204996386E9, 0.0, 2022-09-19 17:10:20.499
176.0, -14338.040570979187, -27397.360193414712, -34525.376203701046, -16989.40449826771, -13220.587458680566, 187500.0, -47228.386667774525, -10889.702843392235, 0.61, -0.678, 0.47600000000000003, 192.0, 0.0, 0.0, 0.0, 0.0, 0.0, 0.0, 0.0, 0.0, 0.0, 1.6635894205036745E9, 0.0, 2022-09-19 17:10:20.503
177.0, -14371.858760340067, -27410.32420519879, -34521.464648421366, -16990.477382001565, -13215.535964433666, 187500.0, -47228.319612541156, -10914.557983226536, 0.61, -0.678, 0.47600000000000003, 192.0, 0.0, 0.0, 0.0, 0.0, 0.0, 0.0, 0.0, 0.0, 0.0, 1.6635894205086508E9, 0.0, 2022-09-19 17:10:20.508
178.0, -14389.315472759661, -27407.28436795287, -34526.18086650144, -16993.338405291845, -13212.607885910022, 187500.0, -47231.046525364705, -10930.986515401188, 0.61, -0.678, 0.47600000000000003, 192.0, 0.0, 0.0, 0.0, 0.0, 0.0, 0.0, 0.0, 0.0, 0.0, 1.6635894205127325E9, 0.0, 2022-09-19 17:10:20.512
179.0, -14396.445679240906, -27402.009356261417, -34530.53945667022, -16995.88650415975, -13217.748787134742, 187500.0, -47232.789961432216, -10921.218803074218, 0.61, -0.678, 0.47600000000000003, 192.0, 0.0, 0.0, 0.0, 0.0, 0.0, 0.0, 0.0, 0.0, 0.0, 1.6635894205157337E9, 0.0, 2022-09-19 17:10:20.515
180.0, -14392.668234427958, -27396.019088747395, -34530.964139814874, -17000.08863211735, -13218.978133079783, 187500.0, -47233.37110678806, -10919.095387350964, 0.606, -0.672, 0.47800000000000004, 192.0, 18.0, 240.0, 235.0, 0.0, 14.0, 240.0, 0.0, 0.0, 0.0, 1.6635894205197244E9, 0.0, 2022-09-19 17:10:20.519
181.0, -14411.264885814773, -27403.95395802903, -34518.89419780901, -16986.476419744067, -13210.28330448667, 187500.0, -47222.44110374941, -10909.573544213003, 0.606, -0.672, 0.47800000000000004, 192.0, 0.0, 0.0, 0.0, 0.0, 0.0, 0.0, 0.0, 0.0, 0.0, 1.663589420523734E9, 0.0, 2022-09-19 17:10:20.523
182.0, -14439.67395301747, -27410.503019154432, -34514.043869262205, -16981.626091197264, -13204.069519528095, 187500.0, -47218.663658936464, -10908.478308734693, 0.606, -0.672, 0.47800000000000004, 192.0, 0.0, 0.0, 0.0, 0.0, 0.0, 0.0, 0.0, 0.0, 0.0, 1.6635894205278435E9, 0.0, 2022-09-19 17:10:20.527
183.0, -14452.079171190164, -27402.99283301745, -34520.52587515424, -16984.732983676553, -13204.717720117298, 187500.0, -47224.51981598375, -10911.093462835965, 0.606, -0.672, 0.47800000000000004, 192.0, 0.0, 0.0, 0.0, 0.0, 0.0, 0.0, 0.0, 0.0, 0.0, 1.6635894205317247E9, 0.0, 2022-09-19 17:10:20.531
184.0, -14454.04612470223, -27396.175550958582, -34523.476305422344, -16991.438507013143, -13207.355225963025, 187500.0, -47230.06304860867, -10918.894221650866, 0.606, -0.672, 0.47800000000000004, 192.0, 0.0, 0.0, 0.0, 0.0, 0.0, 0.0, 0.0, 0.0, 0.0, 1.663589420536703E9, 0.0, 2022-09-19 17:10:20.536
185.0, -14450.469845589381, -27396.4661236365, -34525.01857578976, -16990.83500991285, -13203.309560216614, 187500.0, -47232.74525794331, -10899.403500485838, 0.606, -0.672, 0.47800000000000004, 192.0, 0.0, 0.0, 0.0, 0.0, 0.0, 0.0, 0.0, 0.0, 0.0, 1.6635894205408647E9, 0.0, 2022-09-19 17:10:20.540
186.0, -14471.905168522022, -27409.072507509292, -34523.208084488884, -16989.53860873444, -13205.857659084519, 187500.0, -47236.992089389816, -10899.023520830098, 0.606, -0.672, 0.47800000000000004, 192.0, 0.0, 0.0, 0.0, 0.0, 0.0, 0.0, 0.0, 0.0, 0.0, 1.6635894205437794E9, 0.0, 2022-09-19 17:10:20.543
187.0, -14495.374500200094, -27412.492324410956, -34522.13520075502, -16983.615396453788, -13201.633179382467, 187500.0, -47236.276833567244, -10899.045872574554, 0.606, -0.672, 0.47800000000000004, 192.0, 0.0, 0.0, 0.0, 0.0, 0.0, 0.0, 0.0, 0.0, 0.0, 1.6635894205477695E9, 0.0, 2022-09-19 17:10:20.547
188.0, -14505.097509038153, -27406.99379527495, -34523.409250188975, -16982.274291786467, -13192.312501944603, 187500.0, -47235.092191111115, -10892.16153528232, 0.606, -0.672, 0.47800000000000004, 192.0, 0.0, 0.0, 0.0, 0.0, 0.0, 0.0, 0.0, 0.0, 0.0, 1.6635894205517972E9, 0.0, 2022-09-19 17:10:20.551
189.0, -14504.471660193403, -27402.925777784083, -34532.61816890456, -16991.773783179975, -13194.167696734394, 187500.0, -47239.361374302076, -10902.666855176312, 0.606, -0.672, 0.47800000000000004, 192.0, 0.0, 0.0, 0.0, 0.0, 0.0, 0.0, 0.0, 0.0, 0.0, 1.6635894205557628E9, 0.0, 2022-09-19 17:10:20.555
190.0, -14503.287017737273, -27395.90733002512, -34532.282892737734, -16996.3111873044, -13203.130746260971, 187500.0, -47230.15245558649, -10904.343236010462, 0.6, -0.676, 0.482, 192.0, 18.0, 192.0, 234.0, 224.0, 15.0, 16.0, 0.0, 0.0, 0.0, 1.6635894205598102E9, 0.0, 2022-09-19 17:10:20.559
191.0, -14520.788433645777, -27400.89176903865, -34533.73575612733, -16995.908855904207, -13208.5175166747, 187500.0, -47235.00278413329, -10910.646427946858, 0.6, -0.676, 0.482, 192.0, 0.0, 0.0, 0.0, 0.0, 0.0, 0.0, 0.0, 0.0, 0.0, 1.6635894205648687E9, 0.0, 2022-09-19 17:10:20.564
192.0, -14542.670791467524, -27406.166780730106, -34524.97387230085, -16988.13044883376, -13206.148231762438, 187500.0, -47232.521740498756, -10912.389864014373, 0.6, -0.676, 0.482, 192.0, 0.0, 0.0, 0.0, 0.0, 0.0, 0.0, 0.0, 0.0, 0.0, 1.6635894205679288E9, 0.0, 2022-09-19 17:10:20.567
193.0, -14553.600794506168, -27409.832466820775, -34531.00884330378, -16992.332576791356, -13210.819746353596, 187500.0, -47238.042621379216, -10914.557983226536, 0.6, -0.676, 0.482, 192.0, 0.0, 0.0, 0.0, 0.0, 0.0, 0.0, 0.0, 0.0, 0.0, 1.6635894205707633E9, 0.0, 2022-09-19 17:10:20.570
194.0, -14549.219852592929, -27405.116248740705, -34532.864038093576, -16997.808754182908, -13216.832365612074, 187500.0, -47235.18159808894, -10921.174099585307, 0.6, -0.676, 0.482, 192.0, 0.0, 0.0, 0.0, 0.0, 0.0, 0.0, 0.0, 0.0, 0.0, 1.6635894205758784E9, 0.0, 2022-09-19 17:10:20.575
195.0, -14541.754369944856, -27399.79653356034, -34535.47919219484, -16992.109059346803, -13209.322179475092, 187500.0, -47233.706382954886, -10890.976892826187, 0.6, -0.676, 0.482, 192.0, 0.0, 0.0, 0.0, 0.0, 0.0, 0.0, 0.0, 0.0, 0.0, 1.66358942057983E9, 0.0, 2022-09-19 17:10:20.579
196.0, -14557.512349785848, -27408.89369355365, -34534.8533433501, -17001.65325422922, -13210.462118442312, 187500.0, -47240.59072024712, -10899.314093508017, 0.6, -0.676, 0.482, 192.0, 0.0, 0.0, 0.0, 0.0, 0.0, 0.0, 0.0, 0.0, 0.0, 1.663589420583855E9, 0.0, 2022-09-19 17:10:20.583
197.0, -14573.940881960498, -27412.112344755216, -34526.53849441272, -16996.69116696014, -13208.338702719058, 187500.0, -47233.37110678806, -10892.943846338254, 0.6, -0.676, 0.482, 192.0, 0.0, 0.0, 0.0, 0.0, 0.0, 0.0, 0.0, 0.0, 0.0, 1.66358942058786E9, 0.0, 2022-09-19 17:10:20.587
198.0, -14577.561864562258, -27411.039461021363, -34536.21679976187, -17004.13429786376, -13210.372711464492, 187500.0, -47240.5013132693, -10906.958390111731, 0.6, -0.676, 0.482, 192.0, 0.0, 0.0, 0.0, 0.0, 0.0, 0.0, 0.0, 0.0, 0.0, 1.6635894205919049E9, 0.0, 2022-09-19 17:10:20.591
199.0, -14583.708594287467, -27417.47676342449, -34545.023387077264, -17011.37626306728, -13215.33479873357, 187500.0, -47252.39244131952, -10928.751340955656, 0.6, -0.676, 0.482, 192.0, 0.0, 0.0, 0.0, 0.0, 0.0, 0.0, 0.0, 0.0, 0.0, 1.663589420596048E9, 0.0, 2022-09-19 17:10:20.596
200.0, -14589.587103079213, -27414.749850600943, -34530.78532585923, -16998.23343732756, -13209.299827730636, 187500.0, -47241.41773479197, -10921.867003663421, 0.604, -0.674, 0.48, 192.0, 18.0, 224.0, 234.0, 240.0, 15.0, 0.0, 0.0, 0.0, 0.0, 1.66358942059881E9, 0.0, 2022-09-19 17:10:20.598
201.0, -14613.70463534649, -27421.075394281794, -34521.28583446572, -16990.052698856915, -13212.585534165566, 187500.0, -47231.76178118727, -10920.816471674023, 0.604, -0.674, 0.48, 192.0, 0.0, 0.0, 0.0, 0.0, 0.0, 0.0, 0.0, 0.0, 0.0, 1.6635894206038263E9, 0.0, 2022-09-19 17:10:20.603
202.0, -14638.76094088089, -27429.636112408178, -34514.42384891795, -16984.42005925418, -13208.025778296684, 187500.0, -47228.47607475234, -10918.558945484036, 0.604, -0.674, 0.48, 192.0, 0.0, 0.0, 0.0, 0.0, 0.0, 0.0, 0.0, 0.0, 0.0, 1.6635894206079254E9, 0.0, 2022-09-19 17:10:20.607
203.0, -14648.416894485581, -27425.545743172854, -34516.144933241005, -16984.151838320715, -13201.633179382467, 187500.0, -47231.27004280926, -10922.001114130153, 0.604, -0.674, 0.48, 192.0, 0.0, 0.0, 0.0, 0.0, 0.0, 0.0, 0.0, 0.0, 0.0, 1.6635894206118908E9, 0.0, 2022-09-19 17:10:20.611
204.0, -14640.392618226126, -27410.726536598988, -34520.123543754045, -16984.55416972091, -13190.70317634382, 187500.0, -47232.521740498756, -10925.242117076174, 0.604, -0.674, 0.48, 192.0, 0.0, 0.0, 0.0, 0.0, 0.0, 0.0, 0.0, 0.0, 0.0, 1.663589420615873E9, 0.0, 2022-09-19 17:10:20.615
205.0, -14636.458711201993, -27408.24549296445, -34527.79019210222, -16988.197504067124, -13195.844077568541, 187500.0, -47236.58975798962, -10907.383073256384, 0.604, -0.674, 0.48, 192.0, 0.0, 0.0, 0.0, 0.0, 0.0, 0.0, 0.0, 0.0, 0.0, 1.6635894206198606E9, 0.0, 2022-09-19 17:10:20.619
206.0, -14660.933871380554, -27426.417461206613, -34527.0972880241, -16990.007995368003, -13205.99176955125, 187500.0, -47240.97069990286, -10913.909782637333, 0.604, -0.674, 0.48, 192.0, 0.0, 0.0, 0.0, 0.0, 0.0, 0.0, 0.0, 0.0, 0.0, 1.6635894206238744E9, 0.0, 2022-09-19 17:10:20.623
207.0, -14686.571322270791, -27431.178382775593, -34519.90002630949, -16986.69993718862, -13204.002464294728, 187500.0, -47236.075667867146, -10934.987477658688, 0.604, -0.674, 0.48, 192.0, 0.0, 0.0, 0.0, 0.0, 0.0, 0.0, 0.0, 0.0, 0.0, 1.6635894206269124E9, 0.0, 2022-09-19 17:10:20.626
208.0, -14696.786069486865, -27422.215333249016, -34519.52004665376, -16982.36369876429, -13202.236676482758, 187500.0, -47233.23699632132, -10939.63664050539, 0.604, -0.674, 0.48, 192.0, 0.0, 0.0, 0.0, 0.0, 0.0, 0.0, 0.0, 0.0, 0.0, 1.6635894206319215E9, 0.0, 2022-09-19 17:10:20.631
209.0, -14695.132040397173, -27414.05694652283, -34518.78243908673, -16978.87682662926, -13196.04524326864, 187500.0, -47227.42554276295, -10921.06234086303, 0.604, -0.674, 0.48, 192.0, 0.0, 0.0, 0.0, 0.0, 0.0, 0.0, 0.0, 0.0, 0.0, 1.6635894206360216E9, 0.0, 2022-09-19 17:10:20.636
210.0, -14689.924083939086, -27412.447620922045, -34520.07884026514, -16984.64357669873, -13186.389289663946, 187500.0, -47231.27004280926, -10921.710541452234, 0.606, -0.672, 0.47400000000000003, 192.0, 18.0, 240.0, 235.0, 0.0, 14.0, 208.0, 0.0, 0.0, 0.0, 1.6635894206399245E9, 0.0, 2022-09-19 17:10:20.639
211.0, -14712.901677239142, -27427.602103662743, -34518.60362513109, -16985.51529473249, -13192.379557177968, 187500.0, -47238.377897546045, -10947.079771409008, 0.606, -0.672, 0.47400000000000003, 192.0, 0.0, 0.0, 0.0, 0.0, 0.0, 0.0, 0.0, 0.0, 0.0, 1.6635894206439834E9, 0.0, 2022-09-19 17:10:20.643
212.0, -14739.053218251851, -27437.5262782009, -34513.68624135092, -16973.93709110464, -13191.261969955203, 187500.0, -47232.432333520934, -10935.725085225713, 0.606, -0.672, 0.47400000000000003, 192.0, 0.0, 0.0, 0.0, 0.0, 0.0, 0.0, 0.0, 0.0, 0.0, 1.6635894206479485E9, 0.0, 2022-09-19 17:10:20.647
213.0, -14741.44485490857, -27430.99956881995, -34525.1973897454, -16981.53668421944, -13185.182295463359, 187500.0, -47236.902682411994, -10920.592954229469, 0.606, -0.672, 0.47400000000000003, 192.0, 0.0, 0.0, 0.0, 0.0, 0.0, 0.0, 0.0, 0.0, 0.0, 1.6635894206519573E9, 0.0, 2022-09-19 17:10:20.651
214.0, -14724.166956444617, -27409.29602495385, -34523.43160193344, -16977.669832428674, -13174.878141269463, 187500.0, -47227.22437706285, -10893.972026583198, 0.606, -0.672, 0.47400000000000003, 192.0, 0.0, 0.0, 0.0, 0.0, 0.0, 0.0, 0.0, 0.0, 0.0, 1.663589420654956E9, 0.0, 2022-09-19 17:10:20.654
215.0, -14712.38758711667, -27398.030745748372, -34528.1478200135, -16981.871960386274, -13180.84605703903, 187500.0, -47229.839531164114, -10883.489058433659, 0.606, -0.672, 0.47400000000000003, 192.0, 0.0, 0.0, 0.0, 0.0, 0.0, 0.0, 0.0, 0.0, 0.0, 1.663589420659925E9, 0.0, 2022-09-19 17:10:20.659
216.0, -14736.594526361767, -27410.637129621166, -34520.749392598795, -16988.018690111483, -13192.915999044895, 187500.0, -47224.117484583556, -10899.649369674848, 0.606, -0.672, 0.47400000000000003, 192.0, 0.0, 0.0, 0.0, 0.0, 0.0, 0.0, 0.0, 0.0, 0.0, 1.6635894206640174E9, 0.0, 2022-09-19 17:10:20.664
217.0, -14751.614898635735, -27413.788725589362, -34522.515180410766, -17000.736832706552, -13200.85086832653, 187500.0, -47233.125237599044, -10920.503547251648, 0.606, -0.672, 0.47400000000000003, 192.0, 0.0, 0.0, 0.0, 0.0, 0.0, 0.0, 0.0, 0.0, 0.0, 1.6635894206679773E9, 0.0, 2022-09-19 17:10:20.667
218.0, -14746.473997411013, -27407.485533652965, -34530.78532585923, -16996.624111726775, -13202.70606311632, 187500.0, -47237.86380742357, -10909.282971535084, 0.606, -0.672, 0.47400000000000003, 192.0, 0.0, 0.0, 0.0, 0.0, 0.0, 0.0, 0.0, 0.0, 0.0, 1.6635894206719592E9, 0.0, 2022-09-19 17:10:20.671
219.0, -14722.892907010664, -27396.13084746967, -34533.42283170496, -16996.758222193508, -13200.202667737327, 187500.0, -47235.40511553349, -10893.860267860922, 0.606, -0.672, 0.47400000000000003, 192.0, 0.0, 0.0, 0.0, 0.0, 0.0, 0.0, 0.0, 0.0, 0.0, 1.6635894206759646E9, 0.0, 2022-09-19 17:10:20.675
220.0, -14691.622816517689, -27387.212501432005, -34535.725061383855, -17002.212047840603, -13200.359129948512, 187500.0, -47242.06593538117, -10889.166401525308, 0.61, -0.674, 0.47800000000000004, 192.0, 19.0, 16.0, 234.0, 240.0, 14.0, 240.0, 0.0, 0.0, 0.0, 1.663589420680072E9, 0.0, 2022-09-19 17:10:20.680
221.0, -14675.61896748769, -27384.21736767499, -34538.40727071849, -16998.79223093894, -13201.633179382467, 187500.0, -47250.87252269656, -10883.980796811677, 0.61, -0.674, 0.47800000000000004, 192.0, 0.0, 0.0, 0.0, 0.0, 0.0, 0.0, 0.0, 0.0, 0.0, 1.6635894206830146E9, 0.0, 2022-09-19 17:10:20.683
222.0, -14651.881414876154, -27378.674135050078, -34539.144878285515, -16995.75239369302, -13200.85086832653, 187500.0, -47250.55959827419, -10862.590177367947, 0.61, -0.674, 0.47800000000000004, 192.0, 0.0, 0.0, 0.0, 0.0, 0.0, 0.0, 0.0, 0.0, 0.0, 1.6635894206869693E9, 0.0, 2022-09-19 17:10:20.686
223.0, -14612.408234168082, -27368.012352944894, -34544.77751788825, -17000.46861177309, -13202.259028227214, 187500.0, -47251.74424073032, -10846.09458995993, 0.61, -0.674, 0.47800000000000004, 192.0, 0.0, 0.0, 0.0, 0.0, 0.0, 0.0, 0.0, 0.0, 0.0, 1.6635894206921177E9, 0.0, 2022-09-19 17:10:20.692
224.0, -14555.634803251602, -27357.551736539812, -34550.4548609799, -17008.515239777, -13193.698310100832, 187500.0, -47252.414793063974, -10845.446389370727, 0.61, -0.674, 0.47800000000000004, 192.0, 0.0, 0.0, 0.0, 0.0, 0.0, 0.0, 0.0, 0.0, 0.0, 1.6635894206960351E9, 0.0, 2022-09-19 17:10:20.696
225.0, -14494.301616466239, -27350.68975099203, -34557.965047116886, -17012.024463656482, -13185.338757674546, 187500.0, -47256.549865788205, -10820.300676858507, 0.61, -0.674, 0.47800000000000004, 192.0, 0.0, 0.0, 0.0, 0.0, 0.0, 0.0, 0.0, 0.0, 0.0, 1.66358942070002E9, 0.0, 2022-09-19 17:10:20.700
226.0, -14435.225955870863, -27344.252448588904, -34551.63950343603, -17008.626998499276, -13183.70708032931, 187500.0, -47252.19127561942, -10797.27838006954, 0.61, -0.674, 0.47800000000000004, 192.0, 0.0, 0.0, 0.0, 0.0, 0.0, 0.0, 0.0, 0.0, 0.0, 1.6635894207040372E9, 0.0, 2022-09-19 17:10:20.704
227.0, -14397.94324611941, -27353.59547777122, -34546.16332604448, -17010.70571073362, -13194.234751967759, 187500.0, -47252.995938419816, -10811.404682565295, 0.61, -0.674, 0.47800000000000004, 192.0, 0.0, 0.0, 0.0, 0.0, 0.0, 0.0, 0.0, 0.0, 0.0, 1.6635894207070348E9, 0.0, 2022-09-19 17:10:20.707
228.0, -14396.043347840709, -27384.932623497563, -34546.92328535596, -17013.3655683238, -13207.824612596585, 187500.0, -47256.16988613247, -10844.306450403506, 0.61, -0.674, 0.47800000000000004, 192.0, 0.0, 0.0, 0.0, 0.0, 0.0, 0.0, 0.0, 0.0, 0.0, 1.6635894207110052E9, 0.0, 2022-09-19 17:10:20.711
229.0, -14392.645882683502, -27402.23287370597, -34552.578276703156, -17019.914629449206, -13215.535964433666, 187500.0, -47262.294264113225, -10877.856418830923, 0.61, -0.674, 0.47800000000000004, 192.0, 0.0, 0.0, 0.0, 0.0, 0.0, 0.0, 0.0, 0.0, 0.0, 1.6635894207150009E9, 0.0, 2022-09-19 17:10:20.715
230.0, -14394.121097817553, -27412.447620922045, -34537.37909047354, -17005.69891997563, -13209.411586452912, 187500.0, -47248.726755228854, -10884.87486658989, 0.602, -0.674, 0.47200000000000003, 192.0, 18.0, 208.0, 234.0, 240.0, 14.0, 192.0, 0.0, 0.0, 0.0, 1.6635894207200484E9, 0.0, 2022-09-19 17:10:20.720
231.0, -14427.067569144676, -27436.900429356152, -34530.02536654775, -16999.149858850225, -13214.887763844463, 187500.0, -47243.339984815124, -10904.20912554373, 0.602, -0.674, 0.47200000000000003, 192.0, 0.0, 0.0, 0.0, 0.0, 0.0, 0.0, 0.0, 0.0, 0.0, 1.6635894207240305E9, 0.0, 2022-09-19 17:10:20.724
232.0, -14458.807046271211, -27451.786691163386, -34529.66773863647, -16995.908855904207, -13219.603981924532, 187500.0, -47240.903644669495, -10910.199393057752, 0.602, -0.674, 0.47200000000000003, 192.0, 0.0, 0.0, 0.0, 0.0, 0.0, 0.0, 0.0, 0.0, 0.0, 1.6635894207280295E9, 0.0, 2022-09-19 17:10:20.728
233.0, -14473.514494122803, -27453.328961530802, -34536.95440732889, -16999.485135017054, -13217.27940050118, 187500.0, -47247.27389183926, -10909.126509323896, 0.602, -0.674, 0.47200000000000003, 192.0, 0.0, 0.0, 0.0, 0.0, 0.0, 0.0, 0.0, 0.0, 0.0, 1.6635894207310345E9, 0.0, 2022-09-19 17:10:20.731
234.0, -14470.541712110247, -27444.142394559673, -34531.85820959308, -16999.105155361314, -13209.098662030538, 187500.0, -47240.054278380194, -10894.44141321676, 0.602, -0.674, 0.47200000000000003, 192.0, 0.0, 0.0, 0.0, 0.0, 0.0, 0.0, 0.0, 0.0, 0.0, 1.6635894207350855E9, 0.0, 2022-09-19 17:10:20.735
235.0, -14459.946985238432, -27430.70899614203, -34524.5491891562, -16995.55122799292, -13201.811993338108, 187500.0, -47236.88033066754, -10886.953578824232, 0.602, -0.674, 0.47200000000000003, 192.0, 0.0, 0.0, 0.0, 0.0, 0.0, 0.0, 0.0, 0.0, 0.0, 1.663589420739064E9, 0.0, 2022-09-19 17:10:20.739
236.0, -14480.48823839286, -27438.755624145942, -34518.42481117544, -16997.920512905184, -13214.217211510804, 187500.0, -47236.5003510118, -10920.078864106998, 0.602, -0.674, 0.47200000000000003, 192.0, 0.0, 0.0, 0.0, 0.0, 0.0, 0.0, 0.0, 0.0, 0.0, 1.663589420743095E9, 0.0, 2022-09-19 17:10:20.743
237.0, -14510.126651540597, -27451.965505119028, -34524.146857756, -16999.932169906162, -13219.246354013248, 187500.0, -47241.41773479197, -10929.466596778226, 0.602, -0.674, 0.47200000000000003, 192.0, 0.0, 0.0, 0.0, 0.0, 0.0, 0.0, 0.0, 0.0, 0.0, 1.6635894207480817E9, 0.0, 2022-09-19 17:10:20.748
238.0, -14526.577535459703, -27454.558307475843, -34529.24305549182, -16998.702823961117, -13211.155022520426, 187500.0, -47245.798676705206, -10910.53466922458, 0.602, -0.674, 0.47200000000000003, 192.0, 0.0, 0.0, 0.0, 0.0, 0.0, 0.0, 0.0, 0.0, 0.0, 1.6635894207520912E9, 0.0, 2022-09-19 17:10:20.752
239.0, -14527.53866047128, -27440.923743358107, -34522.35871819958, -16991.17028607968, -13202.527249160677, 187500.0, -47235.4498190224, -10901.951599353742, 0.602, -0.674, 0.47200000000000003, 192.0, 0.0, 0.0, 0.0, 0.0, 0.0, 0.0, 0.0, 0.0, 0.0, 1.6635894207560687E9, 0.0, 2022-09-19 17:10:20.756
240.0, -14543.564861245735, -27442.845993381263, -34522.17990424394, -16996.847629171327, -13213.099624288037, 187500.0, -47234.28752831072, -10917.798986172556, 0.612, -0.674, 0.468, 192.0, 19.0, 32.0, 234.0, 240.0, 14.0, 160.0, 0.0, 0.0, 0.0, 1.6635894207592125E9, 0.0, 2022-09-19 17:10:20.759
241.0, -14575.661966283556, -27453.798348164364, -34506.75720056977, -16997.719347205086, -13218.821670868598, 187500.0, -47223.96102237237, -10935.21099510324, 0.612, -0.674, 0.468, 192.0, 0.0, 0.0, 0.0, 0.0, 0.0, 0.0, 0.0, 0.0, 0.0, 1.6635894207631304E9, 0.0, 2022-09-19 17:10:20.763
242.0, -14602.528763118837, -27453.463071997532, -34500.36460165556, -16991.12558259077, -13210.596228909044, 187500.0, -47219.31185952567, -10931.969992157221, 0.612, -0.674, 0.468, 192.0, 0.0, 0.0, 0.0, 0.0, 0.0, 0.0, 0.0, 0.0, 0.0, 1.6635894207671332E9, 0.0, 2022-09-19 17:10:20.767
243.0, -14618.487908659925, -27445.841127138276, -34495.33545915311, -16981.894312130727, -13203.51072591671, 187500.0, -47213.92508911194, -10917.463710005726, 0.612, -0.674, 0.468, 192.0, 0.0, 0.0, 0.0, 0.0, 0.0, 0.0, 0.0, 0.0, 0.0, 1.6635894207710965E9, 0.0, 2022-09-19 17:10:20.771
244.0, -14625.88633607463, -27439.403824735145, -34496.497749864786, -16982.944844120128, -13200.85086832653, 187500.0, -47211.71226641086, -10926.06913162102, 0.612, -0.674, 0.468, 192.0, 0.0, 0.0, 0.0, 0.0, 0.0, 0.0, 0.0, 0.0, 0.0, 1.663589420775184E9, 0.0, 2022-09-19 17:10:20.775
245.0, -14649.623888686168, -27450.646752196164, -34503.67265983494, -16982.654271442207, -13208.092833530049, 187500.0, -47222.10582758258, -10918.223669317207, 0.612, -0.674, 0.468, 192.0, 0.0, 0.0, 0.0, 0.0, 0.0, 0.0, 0.0, 0.0, 0.0, 1.6635894207801368E9, 0.0, 2022-09-19 17:10:20.780
246.0, -14695.914351453108, -27470.495101272478, -34509.05943024867, -16990.857361657305, -13221.168604036404, 187500.0, -47228.92310964145, -10943.056457407052, 0.612, -0.674, 0.468, 192.0, 0.0, 0.0, 0.0, 0.0, 0.0, 0.0, 0.0, 0.0, 0.0, 1.6635894207841263E9, 0.0, 2022-09-19 17:10:20.784
247.0, -14735.812215305832, -27475.658354241652, -34505.43844764691, -16980.866131885785, -13217.27940050118, 187500.0, -47223.134007827524, -10947.079771409008, 0.612, -0.674, 0.468, 192.0, 0.0, 0.0, 0.0, 0.0, 0.0, 0.0, 0.0, 0.0, 0.0, 1.6635894207871325E9, 0.0, 2022-09-19 17:10:20.787
248.0, -14768.959852333051, -27472.171482106627, -34494.195520185895, -16971.724268403563, -13202.504897416222, 187500.0, -47213.12042631155, -10937.31205908204, 0.612, -0.674, 0.468, 192.0, 0.0, 0.0, 0.0, 0.0, 0.0, 0.0, 0.0, 0.0, 0.0, 1.663589420791155E9, 0.0, 2022-09-19 17:10:20.791
249.0, -14796.988939880008, -27468.77401694942, -34488.83110151662, -16974.83116088285, -13196.335815946559, 187500.0, -47204.35854248507, -10947.057419664552, 0.612, -0.674, 0.468, 192.0, 0.0, 0.0, 0.0, 0.0, 0.0, 0.0, 0.0, 0.0, 0.0, 1.6635894207951555E9, 0.0, 2022-09-19 17:10:20.795
250.0, -14833.243469386516, -27470.33863906129, -34485.27717414823, -16975.188788794138, -13200.94027530435, 187500.0, -47204.87263260754, -10959.641451792892, 0.604, -0.672, 0.468, 192.0, 18.0, 224.0, 235.0, 0.0, 14.0, 160.0, 0.0, 0.0, 0.0, 1.6635894207991903E9, 0.0, 2022-09-19 17:10:20.799
251.0, -14888.18405725766, -27480.307517088357, -34485.70185729288, -16973.73592540454, -13210.126842275482, 187500.0, -47206.48195820832, -10975.622949078435, 0.604, -0.672, 0.468, 192.0, 0.0, 0.0, 0.0, 0.0, 0.0, 0.0, 0.0, 0.0, 0.0, 1.6635894208032022E9, 0.0, 2022-09-19 17:10:20.803
252.0, -14930.317095555914, -27476.15009261967, -34485.76891252624, -16971.32193700337, -13204.248333483736, 187500.0, -47203.57623142913, -10982.239065437207, 0.604, -0.672, 0.468, 192.0, 0.0, 0.0, 0.0, 0.0, 0.0, 0.0, 0.0, 0.0, 0.0, 1.66358942080819E9, 0.0, 2022-09-19 17:10:20.808
253.0, -14955.90984295724, -27465.711827959043, -34485.74656078179, -16972.841855626328, -13195.061766512605, 187500.0, -47203.91150759596, -10972.046669965586, 0.604, -0.672, 0.468, 192.0, 0.0, 0.0, 0.0, 0.0, 0.0, 0.0, 0.0, 0.0, 0.0, 1.6635894208122308E9, 0.0, 2022-09-19 17:10:20.812
254.0, -14967.979784963107, -27453.261906297437, -34492.586194585114, -16983.83891389834, -13192.737185089254, 187500.0, -47207.2419175198, -10958.300347125572, 0.604, -0.672, 0.468, 192.0, 0.0, 0.0, 0.0, 0.0, 0.0, 0.0, 0.0, 0.0, 0.0, 1.6635894208151712E9, 0.0, 2022-09-19 17:10:20.815
255.0, -14982.061383969949, -27450.982028362996, -34499.0458487327, -16988.73394593405, -13201.856696827019, 187500.0, -47216.18261530192, -10967.464562352248, 0.604, -0.672, 0.468, 192.0, 0.0, 0.0, 0.0, 0.0, 0.0, 0.0, 0.0, 0.0, 0.0, 1.6635894208191924E9, 0.0, 2022-09-19 17:10:20.819
0.0, -15017.39949195379, -27460.90620290115, -34499.82815978863, -16985.805867410407, -13216.117109789504, 187500.0, -47217.83664439162, -10976.517018856648, 0.604, -0.672, 0.468, 192.0, 0.0, 0.0, 0.0, 0.0, 0.0, 0.0, 0.0, 0.0, 0.0, 1.6635894208232224E9, 0.0, 2022-09-19 17:10:20.823
1.0, -15040.846471887407, -27457.732255188497, -34494.888424264005, -16977.334556261845, -13208.092833530049, 187500.0, -47208.96300184286, -10964.715297784245, 0.604, -0.672, 0.468, 192.0, 0.0, 0.0, 0.0, 0.0, 0.0, 0.0, 0.0, 0.0, 0.0, 1.6635894208272548E9, 0.0, 2022-09-19 17:10:20.827
2.0, -15051.26238480358, -27447.450452739056, -34499.11290396606, -16974.697050416118, -13199.845039826041, 187500.0, -47216.27202227974, -10937.35676257095, 0.604, -0.672, 0.468, 192.0, 0.0, 0.0, 0.0, 0.0, 0.0, 0.0, 0.0, 0.0, 0.0, 1.663589420831242E9, 0.0, 2022-09-19 17:10:20.831
3.0, -15050.748294681109, -27439.023845079406, -34489.21108117236, -16982.58721620884, -13194.011234523206, 187500.0, -47205.92316459694, -10933.445207291272, 0.604, -0.672, 0.468, 192.0, 0.0, 0.0, 0.0, 0.0, 0.0, 0.0, 0.0, 0.0, 0.0, 1.663589420835252E9, 0.0, 2022-09-19 17:10:20.835
4.0, -15057.051486617505, -27440.81198463583, -34491.9379939959, -16990.03034711246, -13194.011234523206, 187500.0, -47212.516929211255, -10943.771713229622, 0.604, -0.674, 0.47000000000000003, 192.0, 18.0, 224.0, 234.0, 240.0, 14.0, 176.0, 0.0, 0.0, 0.0, 1.6635894208402991E9, 0.0, 2022-09-19 17:10:20.840
5.0, -15090.310882367003, -27456.614667965732, -34497.88355802102, -16985.425887754667, -13200.85086832653, 187500.0, -47222.664621193966, -10945.559852786047, 0.604, -0.674, 0.47000000000000003, 192.0, 0.0, 0.0, 0.0, 0.0, 0.0, 0.0, 0.0, 0.0, 0.0, 1.6635894208433037E9, 0.0, 2022-09-19 17:10:20.843
6.0, -15115.009559990116, -27457.888717399685, -34501.99627900079, -16983.660099942696, -13202.862525327508, 187500.0, -47221.01059210427, -10945.224576619217, 0.604, -0.674, 0.47000000000000003, 192.0, 0.0, 0.0, 0.0, 0.0, 0.0, 0.0, 0.0, 0.0, 0.0, 1.6635894208472593E9, 0.0, 2022-09-19 17:10:20.847
7.0, -15123.61498160541, -27447.67397018361, -34504.09734297959, -16985.783515665953, -13193.206571722814, 187500.0, -47224.676278194944, -10941.447131806271, 0.604, -0.674, 0.47000000000000003, 192.0, 0.0, 0.0, 0.0, 0.0, 0.0, 0.0, 0.0, 0.0, 0.0, 1.663589420851256E9, 0.0, 2022-09-19 17:10:20.851
8.0, -15123.436167649767, -27442.644827681164, -34509.21589245986, -16991.103230846315, -13191.463135655302, 187500.0, -47230.51008349778, -10941.223614361717, 0.604, -0.674, 0.47000000000000003, 192.0, 0.0, 0.0, 0.0, 0.0, 0.0, 0.0, 0.0, 0.0, 0.0, 1.663589420855278E9, 0.0, 2022-09-19 17:10:20.855
9.0, -15131.058112509027, -27446.422272494114, -34503.94088076841, -16988.152800578213, -13199.532115403666, 187500.0, -47230.30891779768, -10946.588033030992, 0.604, -0.674, 0.47000000000000003, 192.0, 0.0, 0.0, 0.0, 0.0, 0.0, 0.0, 0.0, 0.0, 0.0, 1.6635894208593893E9, 0.0, 2022-09-19 17:10:20.859
10.0, -15160.249490767657, -27459.18511857809, -34498.68822082141, -16979.70384117411, -13203.689539872354, 187500.0, -47229.61601371956, -10947.303288853562, 0.604, -0.674, 0.47000000000000003, 192.0, 0.0, 0.0, 0.0, 0.0, 0.0, 0.0, 0.0, 0.0, 0.0, 1.663589420863312E9, 0.0, 2022-09-19 17:10:20.863
11.0, -15175.940415375284, -27455.228859809504, -34492.519139351745, -16977.60277719531, -13200.090909015049, 187500.0, -47219.20010080339, -10955.774600002123, 0.604, -0.674, 0.47000000000000003, 192.0, 0.0, 0.0, 0.0, 0.0, 0.0, 0.0, 0.0, 0.0, 0.0, 1.6635894208673525E9, 0.0, 2022-09-19 17:10:20.867
12.0, -15177.214464809236, -27445.81877539382, -34495.6930870644, -16981.31316677489, -13198.034548525162, 187500.0, -47213.12042631155, -10974.617120577946, 0.604, -0.674, 0.47000000000000003, 192.0, 0.0, 0.0, 0.0, 0.0, 0.0, 0.0, 0.0, 0.0, 0.0, 1.663589420872342E9, 0.0, 2022-09-19 17:10:20.872
13.0, -15169.369002505424, -27440.007321835437, -34508.90296803749, -16976.194617294626, -13199.42035668139, 187500.0, -47222.12817932704, -10942.698829495768, 0.604, -0.674, 0.47000000000000003, 192.0, 0.0, 0.0, 0.0, 0.0, 0.0, 0.0, 0.0, 0.0, 0.0, 1.6635894208753984E9, 0.0, 2022-09-19 17:10:20.875
14.0, -15174.465200241233, -27449.037426595383, -34508.388877915015, -16981.827256897363, -13208.003426552228, 187500.0, -47225.369182273054, -10944.956355685754, 0.604, -0.674, 0.47000000000000003, 192.0, 0.0, 0.0, 0.0, 0.0, 0.0, 0.0, 0.0, 0.0, 0.0, 1.663589420879356E9, 0.0, 2022-09-19 17:10:20.879
15.0, -15198.381566808412, -27465.39890353667, -34488.808749772164, -16972.26071027049, -13200.716757859798, 187500.0, -47214.28271702322, -10948.845559220978, 0.604, -0.672, 0.468, 192.0, 18.0, 224.0, 235.0, 0.0, 14.0, 160.0, 0.0, 0.0, 0.0, 1.6635894208833416E9, 0.0, 2022-09-19 17:10:20.883
16.0, -15216.933514706316, -27464.303668058357, -34490.842758517596, -16968.907948602195, -13193.251275211725, 187500.0, -47210.48292046582, -10952.555948800558, 0.604, -0.672, 0.468, 192.0, 0.0, 0.0, 0.0, 0.0, 0.0, 0.0, 0.0, 0.0, 0.0, 1.6635894208894062E9, 0.0, 2022-09-19 17:10:20.889
17.0, -15219.258096129668, -27458.80513892235, -34493.569671341145, -16970.807846880896, -13196.201705479825, 187500.0, -47207.4430832199, -10950.968974944231, 0.604, -0.672, 0.468, 192.0, 0.0, 0.0, 0.0, 0.0, 0.0, 0.0, 0.0, 0.0, 0.0, 1.6635894208925593E9, 0.0, 2022-09-19 17:10:20.892
18.0, -15209.512735547154, -27449.90914462914, -34505.97488951384, -16972.484227715042, -13195.70996710181, 187500.0, -47217.30020252469, -10943.056457407052, 0.604, -0.672, 0.468, 192.0, 0.0, 0.0, 0.0, 0.0, 0.0, 0.0, 0.0, 0.0, 0.0, 1.6635894208954148E9, 0.0, 2022-09-19 17:10:20.895
19.0, -15215.525354805632, -27454.692417942577, -34511.62988086103, -16975.300547516414, -13202.191972993849, 187500.0, -47222.91049038297, -10949.82903597701, 0.604, -0.672, 0.468, 192.0, 0.0, 0.0, 0.0, 0.0, 0.0, 0.0, 0.0, 0.0, 0.0, 1.6635894208984847E9, 0.0, 2022-09-19 17:10:20.898
20.0, -15244.49321561971, -27466.896470415173, -34496.87772952053, -16974.18296029365, -13204.807127095119, 187500.0, -47216.58494670212, -10962.12249542743, 0.604, -0.672, 0.468, 192.0, 0.0, 0.0, 0.0, 0.0, 0.0, 0.0, 0.0, 0.0, 0.0, 1.6635894209035428E9, 0.0, 2022-09-19 17:10:20.903
21.0, -15256.54080588112, -27464.728351203008, -34495.22370043083, -16972.707745159598, -13193.94417928984, 187500.0, -47208.65007742048, -10964.178855917318, 0.604, -0.672, 0.468, 192.0, 0.0, 0.0, 0.0, 0.0, 0.0, 0.0, 0.0, 0.0, 0.0, 1.6635894209074059E9, 0.0, 2022-09-19 17:10:20.907
22.0, -15260.228843716246, -27463.96839189153, -34498.01766848775, -16972.5065794595, -13190.189086221348, 187500.0, -47207.688952408906, -10957.585091303003, 0.604, -0.672, 0.468, 192.0, 0.0, 0.0, 0.0, 0.0, 0.0, 0.0, 0.0, 0.0, 0.0, 1.6635894209114275E9, 0.0, 2022-09-19 17:10:20.911
23.0, -15252.49514013471, -27456.972295877018, -34498.330592910126, -16965.10815204479, -13179.393193649435, 187500.0, -47205.87846110803, -10949.203187132262, 0.604, -0.672, 0.468, 192.0, 0.0, 0.0, 0.0, 0.0, 0.0, 0.0, 0.0, 0.0, 0.0, 1.6635894209154055E9, 0.0, 2022-09-19 17:10:20.915
24.0, -15266.59909088601, -27465.264793069935, -34508.27711919274, -16972.283062014947, -13194.525324645678, 187500.0, -47221.23410954882, -10946.699791753268, 0.604, -0.672, 0.468, 192.0, 0.0, 0.0, 0.0, 0.0, 0.0, 0.0, 0.0, 0.0, 0.0, 1.663589420919584E9, 0.0, 2022-09-19 17:10:20.919
25.0, -15293.532942954655, -27476.53007227541, -34503.24797669029, -16973.17713179316, -13201.700234615832, 187500.0, -47227.15732182948, -10958.143884914385, 0.604, -0.678, 0.47000000000000003, 192.0, 18.0, 224.0, 234.0, 208.0, 14.0, 176.0, 0.0, 0.0, 0.0, 1.6635894209234328E9, 0.0, 2022-09-19 17:10:20.923
26.0, -15311.928428641371, -27477.49119728699, -34507.137180225516, -16978.69801267362, -13201.811993338108, 187500.0, -47231.11358059807, -10957.36157385845, 0.604, -0.678, 0.47000000000000003, 192.0, 0.0, 0.0, 0.0, 0.0, 0.0, 0.0, 0.0, 0.0, 0.0, 1.6635894209265132E9, 0.0, 2022-09-19 17:10:20.926
27.0, -15315.683521709863, -27472.752627462465, -34509.014726759764, -16974.18296029365, -13200.694406115343, 187500.0, -47224.676278194944, -10946.677440008812, 0.604, -0.678, 0.47000000000000003, 192.0, 0.0, 0.0, 0.0, 0.0, 0.0, 0.0, 0.0, 0.0, 0.0, 1.663589420931399E9, 0.0, 2022-09-19 17:10:20.931
28.0, -15309.469736751287, -27465.085979114294, -34511.78634307222, -16973.400649237712, -13200.001502037228, 187500.0, -47224.36335377257, -10940.59776551697, 0.604, -0.678, 0.47000000000000003, 192.0, 0.0, 0.0, 0.0, 0.0, 0.0, 0.0, 0.0, 0.0, 0.0, 1.663589420935492E9, 0.0, 2022-09-19 17:10:20.935
29.0, -15319.572725245087, -27470.785673950395, -34518.15659024198, -16979.07799232936, -13202.080214271571, 187500.0, -47236.23213007834, -10951.706582511257, 0.604, -0.678, 0.47000000000000003, 192.0, 0.0, 0.0, 0.0, 0.0, 0.0, 0.0, 0.0, 0.0, 0.0, 1.6635894209394536E9, 0.0, 2022-09-19 17:10:20.939
30.0, -15339.644591765953, -27479.614613010242, -34505.55020636919, -16974.518236460477, -13197.520458402689, 187500.0, -47225.1456648285, -10961.049611693576, 0.604, -0.678, 0.47000000000000003, 192.0, 0.0, 0.0, 0.0, 0.0, 0.0, 0.0, 0.0, 0.0, 0.0, 1.6635894209433932E9, 0.0, 2022-09-19 17:10:20.943
31.0, -15354.66496403992, -27480.173406621627, -34502.666831334456, -16975.74758240552, -13196.827554324575, 187500.0, -47221.97171711585, -10970.616158320447, 0.604, -0.678, 0.47000000000000003, 192.0, 0.0, 0.0, 0.0, 0.0, 0.0, 0.0, 0.0, 0.0, 0.0, 1.6635894209474292E9, 0.0, 2022-09-19 17:10:20.947
32.0, -15357.548339074654, -27476.2842030864, -34513.86505530656, -16977.088687072835, -13197.341644447048, 187500.0, -47223.20106306089, -10960.31200412655, 0.604, -0.678, 0.47000000000000003, 192.0, 0.0, 0.0, 0.0, 0.0, 0.0, 0.0, 0.0, 0.0, 0.0, 1.663589420951462E9, 0.0, 2022-09-19 17:10:20.951
33.0, -15351.155740160435, -27469.042237882884, -34520.771744343256, -16986.230550555058, -13196.402871179924, 187500.0, -47222.28464153822, -10960.446114593282, 0.604, -0.678, 0.47000000000000003, 192.0, 0.0, 0.0, 0.0, 0.0, 0.0, 0.0, 0.0, 0.0, 0.0, 1.6635894209545212E9, 0.0, 2022-09-19 17:10:20.954
34.0, -15364.499731600254, -27475.39013330819, -34514.13327624003, -16990.320919790378, -13200.806164837619, 187500.0, -47223.134007827524, -10972.717222299245, 0.604, -0.678, 0.47000000000000003, 192.0, 0.0, 0.0, 0.0, 0.0, 0.0, 0.0, 0.0, 0.0, 0.0, 1.6635894209584458E9, 0.0, 2022-09-19 17:10:20.958
35.0, -15391.992377280281, -27491.52809280492, -34512.702764594884, -16981.156704563702, -13203.018987538695, 187500.0, -47230.77830443124, -10967.062230952053, 0.6, -0.676, 0.47200000000000003, 192.0, 18.0, 192.0, 234.0, 224.0, 14.0, 192.0, 0.0, 0.0, 0.0, 1.663589420963526E9, 0.0, 2022-09-19 17:10:20.963
36.0, -15404.464650686343, -27492.042182927395, -34502.510369123265, -16970.87490211426, -13192.603074622522, 187500.0, -47220.36239151507, -10951.863044722444, 0.6, -0.676, 0.47200000000000003, 192.0, 0.0, 0.0, 0.0, 0.0, 0.0, 0.0, 0.0, 0.0, 0.0, 1.6635894209675229E9, 0.0, 2022-09-19 17:10:20.967
37.0, -15407.772708865728, -27484.420238068134, -34502.95740401237, -16979.279158029458, -13186.56810361959, 187500.0, -47215.512062968264, -10966.16816117384, 0.6, -0.676, 0.47200000000000003, 192.0, 0.0, 0.0, 0.0, 0.0, 0.0, 0.0, 0.0, 0.0, 0.0, 1.6635894209715436E9, 0.0, 2022-09-19 17:10:20.971
38.0, -15404.2858367307, -27482.07330490033, -34513.909758795475, -16983.660099942696, -13181.091926228039, 187500.0, -47226.66558345146, -10962.45777159426, 0.6, -0.676, 0.47200000000000003, 192.0, 0.0, 0.0, 0.0, 0.0, 0.0, 0.0, 0.0, 0.0, 0.0, 1.6635894209755428E9, 0.0, 2022-09-19 17:10:20.975
39.0, -15413.651217657474, -27487.482427058512, -34496.38599114251, -16971.88073061475, -13174.542865102634, 187500.0, -47216.40613274648, -10958.367402358937, 0.6, -0.676, 0.47200000000000003, 192.0, 0.0, 0.0, 0.0, 0.0, 0.0, 0.0, 0.0, 0.0, 0.0, 1.6635894209794812E9, 0.0, 2022-09-19 17:10:20.979
40.0, -15441.859119160072, -27497.361898107756, -34489.993392228294, -16960.324878731357, -13170.363088889491, 187500.0, -47211.6452111775, -10958.143884914385, 0.6, -0.676, 0.47200000000000003, 192.0, 0.0, 0.0, 0.0, 0.0, 0.0, 0.0, 0.0, 0.0, 0.0, 1.6635894209825168E9, 0.0, 2022-09-19 17:10:20.982
41.0, -15459.628756002041, -27497.20543589657, -34499.26936617725, -16962.671811899163, -13173.872312768974, 187500.0, -47218.730714169826, -10963.463600094748, 0.6, -0.676, 0.47200000000000003, 192.0, 0.0, 0.0, 0.0, 0.0, 0.0, 0.0, 0.0, 0.0, 0.0, 1.6635894209865377E9, 0.0, 2022-09-19 17:10:20.986
42.0, -15468.234177617334, -27495.4396480846, -34510.288776193716, -16975.16643704968, -13192.334853689057, 187500.0, -47230.331269542134, -10982.037899737108, 0.6, -0.676, 0.47200000000000003, 192.0, 0.0, 0.0, 0.0, 0.0, 0.0, 0.0, 0.0, 0.0, 0.0, 1.6635894209914715E9, 0.0, 2022-09-19 17:10:20.991
43.0, -15463.070924648158, -27485.29195610189, -34509.864093049066, -16972.75244864851, -13191.977225777773, 187500.0, -47228.654888707984, -10966.637547807402, 0.6, -0.676, 0.47200000000000003, 192.0, 0.0, 0.0, 0.0, 0.0, 0.0, 0.0, 0.0, 0.0, 0.0, 1.6635894209955423E9, 0.0, 2022-09-19 17:10:20.995
44.0, -15473.486837564331, -27490.00817418196, -34505.32668892464, -16968.863245113283, -13187.864504797997, 187500.0, -47227.760818929775, -10963.798876261579, 0.6, -0.676, 0.47200000000000003, 192.0, 0.0, 0.0, 0.0, 0.0, 0.0, 0.0, 0.0, 0.0, 0.0, 1.6635894209995189E9, 0.0, 2022-09-19 17:10:20.999
45.0, -15499.571323343675, -27499.53001731992, -34500.901043522485, -16970.181998036147, -13187.75274607572, 187500.0, -47225.25742355078, -10978.551027602081, 0.602, -0.676, 0.47000000000000003, 192.0, 18.0, 208.0, 234.0, 224.0, 14.0, 176.0, 0.0, 0.0, 0.0, 1.6635894210035079E9, 0.0, 2022-09-19 17:10:21.003
46.0, -15512.110651983101, -27498.97122370854, -34507.58421511462, -16976.954576606106, -13182.120106472983, 187500.0, -47227.55965322968, -10982.104954970475, 0.602, -0.676, 0.47000000000000003, 192.0, 0.0, 0.0, 0.0, 0.0, 0.0, 0.0, 0.0, 0.0, 0.0, 1.6635894210065413E9, 0.0, 2022-09-19 17:10:21.006
47.0, -15513.518811883785, -27495.171427151137, -34507.271290692246, -16969.913777102684, -13169.17844643336, 187500.0, -47223.22341480535, -10970.817324020545, 0.602, -0.676, 0.47000000000000003, 192.0, 0.0, 0.0, 0.0, 0.0, 0.0, 0.0, 0.0, 0.0, 0.0, 1.6635894210105286E9, 0.0, 2022-09-19 17:10:21.010
48.0, -15509.74136707084, -27493.562101550353, -34503.31503192366, -16971.232530025547, -13168.284376655147, 187500.0, -47220.58590895962, -10965.810533262556, 0.602, -0.676, 0.47000000000000003, 192.0, 0.0, 0.0, 0.0, 0.0, 0.0, 0.0, 0.0, 0.0, 0.0, 1.663589421014551E9, 0.0, 2022-09-19 17:10:21.014
49.0, -15522.191288732445, -27502.748668521486, -34500.23049118883, -16970.047887569417, -13166.719754543275, 187500.0, -47225.88327239553, -10975.533542100615, 0.602, -0.676, 0.47000000000000003, 192.0, 0.0, 0.0, 0.0, 0.0, 0.0, 0.0, 0.0, 0.0, 0.0, 1.6635894210196552E9, 0.0, 2022-09-19 17:10:21.019
50.0, -15550.622707679595, -27513.790430282406, -34497.615337087555, -16967.34332649032, -13162.919957985874, 187500.0, -47223.22341480535, -10987.044690495097, 0.602, -0.676, 0.47000000000000003, 192.0, 0.0, 0.0, 0.0, 0.0, 0.0, 0.0, 0.0, 0.0, 0.0, 1.663589421023628E9, 0.0, 2022-09-19 17:10:21.023
51.0, -15568.861731155126, -27515.086831460816, -34494.06140971916, -16966.628070667753, -13159.83541725104, 187500.0, -47217.63547869152, -10989.436327151816, 0.602, -0.676, 0.47000000000000003, 192.0, 0.0, 0.0, 0.0, 0.0, 0.0, 0.0, 0.0, 0.0, 0.0, 1.6635894210276148E9, 0.0, 2022-09-19 17:10:21.027
52.0, -15573.309728301732, -27509.454191858076, -34500.52106386674, -16976.127562061258, -13167.792638277131, 187500.0, -47218.88717638102, -11010.22344949525, 0.602, -0.676, 0.47000000000000003, 192.0, 0.0, 0.0, 0.0, 0.0, 0.0, 0.0, 0.0, 0.0, 0.0, 1.663589421030583E9, 0.0, 2022-09-19 17:10:21.030
53.0, -15570.068725355713, -27503.933310977616, -34505.12552322454, -16976.060506827893, -13166.026850465161, 187500.0, -47227.87257765205, -10989.659844596368, 0.602, -0.676, 0.47000000000000003, 192.0, 0.0, 0.0, 0.0, 0.0, 0.0, 0.0, 0.0, 0.0, 0.0, 1.6635894210346537E9, 0.0, 2022-09-19 17:10:21.034
54.0, -15590.744088976871, -27515.667976816654, -34498.35294465458, -16980.106172574302, -13171.927711001363, 187500.0, -47223.80456016118, -11002.087414513519, 0.602, -0.676, 0.47000000000000003, 192.0, 0.0, 0.0, 0.0, 0.0, 0.0, 0.0, 0.0, 0.0, 0.0, 1.663589421038607E9, 0.0, 2022-09-19 17:10:21.038
55.0, -15625.433996371508, -27525.927427521638, -34493.010877729765, -16975.635823683242, -13175.101658714017, 187500.0, -47220.67531593744, -11008.032978538631, 0.606, -0.678, 0.466, 192.0, 18.0, 240.0, 234.0, 208.0, 14.0, 144.0, 0.0, 0.0, 0.0, 1.663589421042611E9, 0.0, 2022-09-19 17:10:21.042
56.0, -15647.04813325979, -27521.59118909731, -34495.4919213643, -16974.54058820493, -13170.519551100679, 187500.0, -47219.15539731448, -11006.446004682304, 0.606, -0.678, 0.466, 192.0, 0.0, 0.0, 0.0, 0.0, 0.0, 0.0, 0.0, 0.0, 0.0, 1.6635894210466049E9, 0.0, 2022-09-19 17:10:21.046
57.0, -15651.898461806592, -27509.92357849164, -34486.998258471285, -16973.73592540454, -13161.422391107368, 187500.0, -47209.16416754296, -11005.686045370823, 0.606, -0.678, 0.466, 192.0, 0.0, 0.0, 0.0, 0.0, 0.0, 0.0, 0.0, 0.0, 0.0, 1.6635894210516543E9, 0.0, 2022-09-19 17:10:21.051
58.0, -15654.111284507668, -27500.178217909124, -34483.75725552526, -16970.31610850288, -13150.134760157438, 187500.0, -47207.2419175198, -11004.188478492319, 0.606, -0.678, 0.466, 192.0, 0.0, 0.0, 0.0, 0.0, 0.0, 0.0, 0.0, 0.0, 0.0, 1.6635894210556667E9, 0.0, 2022-09-19 17:10:21.055
59.0, -15681.603930187695, -27511.667014559152, -34481.85735724656, -16962.22477701006, -13147.094922911516, 187500.0, -47209.47709196533, -10999.718129601257, 0.606, -0.678, 0.466, 192.0, 0.0, 0.0, 0.0, 0.0, 0.0, 0.0, 0.0, 0.0, 0.0, 1.6635894210585897E9, 0.0, 2022-09-19 17:10:21.058
60.0, -15717.836107949748, -27522.261741430968, -34487.11001719356, -16959.877843842252, -13155.543882315622, 187500.0, -47215.13208331253, -11000.388681934915, 0.606, -0.678, 0.466, 192.0, 0.0, 0.0, 0.0, 0.0, 0.0, 0.0, 0.0, 0.0, 0.0, 1.663589421062648E9, 0.0, 2022-09-19 17:10:21.062
61.0, -15738.10914017071, -27519.26660767396, -34491.51331085125, -16962.82827411035, -13150.246518879714, 187500.0, -47214.260365278766, -10996.745347588701, 0.606, -0.678, 0.466, 192.0, 0.0, 0.0, 0.0, 0.0, 0.0, 0.0, 0.0, 0.0, 0.0, 1.663589421066642E9, 0.0, 2022-09-19 17:10:21.066
62.0, -15747.45216935303, -27513.49985760449, -34493.413209129954, -16963.40941946619, -13143.451588565302, 187500.0, -47212.06989432215, -10985.144792216397, 0.606, -0.678, 0.466, 192.0, 0.0, 0.0, 0.0, 0.0, 0.0, 0.0, 0.0, 0.0, 0.0, 1.663589421070685E9, 0.0, 2022-09-19 17:10:21.070
63.0, -15751.699000799537, -27508.761287779962, -34503.44914239039, -16973.154780048702, -13144.859748465986, 187500.0, -47219.55772871467, -10999.60637087898, 0.606, -0.678, 0.466, 192.0, 0.0, 0.0, 0.0, 0.0, 0.0, 0.0, 0.0, 0.0, 0.0, 1.663589421074664E9, 0.0, 2022-09-19 17:10:21.074
64.0, -15772.955509776535, -27515.57856983883, -34497.70474406538, -16975.904044616706, -13158.002574205706, 187500.0, -47218.99893510329, -11018.381836221437, 0.606, -0.678, 0.466, 192.0, 0.0, 0.0, 0.0, 0.0, 0.0, 0.0, 0.0, 0.0, 0.0, 1.6635894210796204E9, 0.0, 2022-09-19 17:10:21.079
65.0, -15807.243085770975, -27524.519267620955, -34496.698915564884, -16976.731059161553, -13165.08807719804, 187500.0, -47212.807501889176, -11015.476109442248, 0.606, -0.668, 0.47400000000000003, 192.0, 18.0, 240.0, 235.0, 32.0, 14.0, 208.0, 0.0, 0.0, 0.0, 1.663589421083737E9, 0.0, 2022-09-19 17:10:21.083
66.0, -15827.203193569565, -27522.574665853343, -34507.11482848106, -16988.577483722864, -13169.51372260019, 187500.0, -47222.10582758258, -11030.51883346067, 0.606, -0.668, 0.47400000000000003, 192.0, 0.0, 0.0, 0.0, 0.0, 0.0, 0.0, 0.0, 0.0, 0.0, 1.663589421086706E9, 0.0, 2022-09-19 17:10:21.086
67.0, -15834.691027962093, -27517.567875095356, -34512.300433194694, -16982.944844120128, -13168.351431888514, 187500.0, -47228.56548173016, -11018.694760643812, 0.606, -0.668, 0.47400000000000003, 192.0, 0.0, 0.0, 0.0, 0.0, 0.0, 0.0, 0.0, 0.0, 0.0, 1.663589421090641E9, 0.0, 2022-09-19 17:10:21.090
68.0, -15827.069083102833, -27505.766154022953, -34516.435505918926, -16980.55320746341, -13164.283414397647, 187500.0, -47229.95128988639, -11003.517926158658, 0.606, -0.668, 0.47400000000000003, 192.0, 0.0, 0.0, 0.0, 0.0, 0.0, 0.0, 0.0, 0.0, 0.0, 1.6635894210946825E9, 0.0, 2022-09-19 17:10:21.094
69.0, -15842.670600732637, -27509.521247091445, -34507.606566859075, -16982.900140631216, -13174.878141269463, 187500.0, -47220.60826070407, -11007.541240160614, 0.606, -0.668, 0.47400000000000003, 192.0, 0.0, 0.0, 0.0, 0.0, 0.0, 0.0, 0.0, 0.0, 0.0, 1.6635894210987628E9, 0.0, 2022-09-19 17:10:21.098
70.0, -15872.309013880375, -27522.418203642155, -34513.708593095376, -16993.383108780756, -13185.428164652369, 187500.0, -47227.69376369641, -11018.873574599455, 0.606, -0.668, 0.47400000000000003, 192.0, 0.0, 0.0, 0.0, 0.0, 0.0, 0.0, 0.0, 0.0, 0.0, 1.6635894211027277E9, 0.0, 2022-09-19 17:10:21.102
71.0, -15886.61413033177, -27520.898285019197, -34511.02638376074, -16992.26552155799, -13184.377632662969, 187500.0, -47221.50233048229, -11012.36921696296, 0.606, -0.668, 0.47400000000000003, 192.0, 0.0, 0.0, 0.0, 0.0, 0.0, 0.0, 0.0, 0.0, 0.0, 1.663589421107663E9, 0.0, 2022-09-19 17:10:21.107
72.0, -15885.965929742568, -27507.844866257296, -34510.065258749164, -16982.16253306419, -13172.039469723639, 187500.0, -47218.14956881399, -10988.609312606968, 0.606, -0.668, 0.47400000000000003, 192.0, 0.0, 0.0, 0.0, 0.0, 0.0, 0.0, 0.0, 0.0, 0.0, 1.663589421111752E9, 0.0, 2022-09-19 17:10:21.111
73.0, -15880.310938395374, -27499.887645231207, -34509.081781993125, -16983.12365807577, -13162.629385307955, 187500.0, -47218.462493236366, -10981.300292170083, 0.606, -0.668, 0.47400000000000003, 192.0, 0.0, 0.0, 0.0, 0.0, 0.0, 0.0, 0.0, 0.0, 0.0, 1.6635894211147285E9, 0.0, 2022-09-19 17:10:21.114
74.0, -15894.347833913307, -27506.816686012353, -34507.02542150324, -16982.430753997654, -13169.670184811377, 187500.0, -47215.86969087955, -10988.542257373603, 0.606, -0.668, 0.47400000000000003, 192.0, 0.0, 0.0, 0.0, 0.0, 0.0, 0.0, 0.0, 0.0, 0.0, 1.663589421118745E9, 0.0, 2022-09-19 17:10:21.118
75.0, -15918.510069669495, -27514.036299471416, -34501.97392725634, -16980.17322780767, -13176.554522103612, 187500.0, -47210.66173442146, -11007.809461094077, 0.604, -0.672, 0.47600000000000003, 192.0, 18.0, 224.0, 235.0, 0.0, 14.0, 224.0, 0.0, 0.0, 0.0, 1.6635894211226895E9, 0.0, 2022-09-19 17:10:21.122
76.0, -15934.759787888503, -27517.523171606445, -34502.13038946753, -16981.067297585883, -13178.387365148947, 187500.0, -47215.19913854589, -11012.07864428504, 0.604, -0.672, 0.47600000000000003, 192.0, 0.0, 0.0, 0.0, 0.0, 0.0, 0.0, 0.0, 0.0, 0.0, 1.6635894211267784E9, 0.0, 2022-09-19 17:10:21.126
77.0, -15932.301095998419, -27511.130572692226, -34509.17118897095, -16988.97981512306, -13171.950062745818, 187500.0, -47219.96006011487, -10997.929990044831, 0.604, -0.672, 0.47600000000000003, 192.0, 0.0, 0.0, 0.0, 0.0, 0.0, 0.0, 0.0, 0.0, 0.0, 1.6635894211307921E9, 0.0, 2022-09-19 17:10:21.130
78.0, -15926.109662784298, -27504.313290633356, -34512.7474680838, -16995.50652450401, -13172.911187757396, 187500.0, -47223.64809795, -10996.141850488408, 0.604, -0.672, 0.47600000000000003, 192.0, 0.0, 0.0, 0.0, 0.0, 0.0, 0.0, 0.0, 0.0, 0.0, 1.6635894211367807E9, 0.0, 2022-09-19 17:10:21.136
79.0, -15940.638296680248, -27512.471677359543, -34505.12552322454, -16992.44433551363, -13175.325176158569, 187500.0, -47222.55286247169, -10997.304141200084, 0.604, -0.672, 0.47600000000000003, 192.0, 0.0, 0.0, 0.0, 0.0, 0.0, 0.0, 0.0, 0.0, 0.0, 1.6635894211397772E9, 0.0, 2022-09-19 17:10:21.139
80.0, -15966.454561526129, -27526.329758921835, -34497.03419173172, -16990.74560293503, -13169.200798177815, 187500.0, -47218.64130719201, -10998.444080167304, 0.604, -0.672, 0.47600000000000003, 192.0, 0.0, 0.0, 0.0, 0.0, 0.0, 0.0, 0.0, 0.0, 0.0, 1.6635894211437633E9, 0.0, 2022-09-19 17:10:21.143
81.0, -15976.82577095339, -27524.58632285432, -34499.26936617725, -16990.902065146216, -13163.076420197061, 187500.0, -47216.33907751311, -10998.868763311955, 0.604, -0.672, 0.47600000000000003, 192.0, 0.0, 0.0, 0.0, 0.0, 0.0, 0.0, 0.0, 0.0, 0.0, 1.6635894211468015E9, 0.0, 2022-09-19 17:10:21.146
82.0, -15973.316547073908, -27515.60092158329, -34510.40053491599, -16993.204294825115, -13158.963699217284, 187500.0, -47217.43431299142, -10996.588885377514, 0.604, -0.672, 0.47600000000000003, 192.0, 0.0, 0.0, 0.0, 0.0, 0.0, 0.0, 0.0, 0.0, 0.0, 1.6635894211508093E9, 0.0, 2022-09-19 17:10:21.150
83.0, -15962.051267868434, -27510.504723847476, -34510.95932852737, -16998.03227162746, -13154.135722414938, 187500.0, -47215.35560075708, -11008.278847727639, 0.604, -0.672, 0.47600000000000003, 192.0, 0.0, 0.0, 0.0, 0.0, 0.0, 0.0, 0.0, 0.0, 0.0, 1.6635894211548069E9, 0.0, 2022-09-19 17:10:21.154
84.0, -15969.919081916702, -27519.6465873297, -34508.29947093719, -16987.415193011188, -13154.135722414938, 187500.0, -47220.2953362817, -10998.041748767107, 0.604, -0.672, 0.47600000000000003, 192.0, 0.0, 0.0, 0.0, 0.0, 0.0, 0.0, 0.0, 0.0, 0.0, 1.663589421158848E9, 0.0, 2022-09-19 17:10:21.158
85.0, -15985.207675124131, -27526.30740717738, -34513.68624135092, -16985.336480776845, -13155.32036487107, 187500.0, -47230.17480733094, -11002.802670336088, 0.608, -0.674, 0.47400000000000003, 192.0, 19.0, 0.0, 234.0, 240.0, 14.0, 208.0, 0.0, 0.0, 0.0, 1.6635894211638389E9, 0.0, 2022-09-19 17:10:21.163
86.0, -15982.59252102286, -27520.20538094108, -34513.30626169518, -16976.284024272445, -13146.133797899938, 187500.0, -47230.554786986686, -10994.51017314317, 0.608, -0.674, 0.47400000000000003, 192.0, 0.0, 0.0, 0.0, 0.0, 0.0, 0.0, 0.0, 0.0, 0.0, 1.6635894211668277E9, 0.0, 2022-09-19 17:10:21.166
87.0, -15966.789837692957, -27504.134476677715, -34512.68041285043, -16972.55128294841, -13140.41175131938, 187500.0, -47226.978507873835, -10982.909617770865, 0.608, -0.674, 0.47400000000000003, 192.0, 0.0, 0.0, 0.0, 0.0, 0.0, 0.0, 0.0, 0.0, 0.0, 1.6635894211707673E9, 0.0, 2022-09-19 17:10:21.170
88.0, -15950.428360751674, -27498.278319630426, -34513.127447739535, -16980.866131885785, -13146.044390922118, 187500.0, -47227.06791485166, -10985.480068383225, 0.608, -0.674, 0.47400000000000003, 192.0, 0.0, 0.0, 0.0, 0.0, 0.0, 0.0, 0.0, 0.0, 0.0, 1.6635894211749449E9, 0.0, 2022-09-19 17:10:21.174
89.0, -15956.262166054508, -27506.168485423146, -34508.61239535957, -16983.324823775867, -13153.599280548011, 187500.0, -47230.21951081986, -10987.849353295489, 0.608, -0.674, 0.47400000000000003, 192.0, 0.0, 0.0, 0.0, 0.0, 0.0, 0.0, 0.0, 0.0, 0.0, 1.6635894211788032E9, 0.0, 2022-09-19 17:10:21.178
90.0, -15970.58963425036, -27514.013947726962, -34510.02055526025, -16987.973986622572, -13158.114332927982, 187500.0, -47231.56061548718, -11001.483917413225, 0.608, -0.674, 0.47400000000000003, 192.0, 0.0, 0.0, 0.0, 0.0, 0.0, 0.0, 0.0, 0.0, 0.0, 1.6635894211828213E9, 0.0, 2022-09-19 17:10:21.182
91.0, -15969.784971449968, -27510.549427336387, -34510.10996223807, -16990.142105834737, -13156.214434649282, 187500.0, -47230.15245558649, -10998.533487145125, 0.608, -0.674, 0.47400000000000003, 192.0, 0.0, 0.0, 0.0, 0.0, 0.0, 0.0, 0.0, 0.0, 0.0, 1.6635894211868494E9, 0.0, 2022-09-19 17:10:21.186
92.0, -15961.961860890611, -27506.48140984552, -34501.86216853406, -16988.242207556035, -13150.246518879714, 187500.0, -47219.982411859324, -10991.447984152794, 0.608, -0.674, 0.47400000000000003, 192.0, 0.0, 0.0, 0.0, 0.0, 0.0, 0.0, 0.0, 0.0, 0.0, 1.6635894211908593E9, 0.0, 2022-09-19 17:10:21.190
93.0, -15957.066828854899, -27504.000366210985, -34509.081781993125, -16997.920512905184, -13159.924824228863, 187500.0, -47225.21272006187, -11008.502365172191, 0.608, -0.674, 0.47400000000000003, 192.0, 0.0, 0.0, 0.0, 0.0, 0.0, 0.0, 0.0, 0.0, 0.0, 1.6635894211949427E9, 0.0, 2022-09-19 17:10:21.194
94.0, -15968.913253416213, -27513.008119226473, -34505.88548253602, -17002.94965540763, -13174.051126724617, 187500.0, -47226.44206600691, -11046.254461557206, 0.608, -0.674, 0.47400000000000003, 192.0, 0.0, 0.0, 0.0, 0.0, 0.0, 0.0, 0.0, 0.0, 0.0, 1.6635894211978867E9, 0.0, 2022-09-19 17:10:21.197
95.0, -15983.531294289984, -27515.98090123903, -34490.32866839512, -16978.11686731778, -13166.898568498918, 187500.0, -47210.05823732117, -11009.50819367268, 0.598, -0.672, 0.47600000000000003, 192.0, 18.0, 176.0, 235.0, 0.0, 14.0, 224.0, 0.0, 0.0, 0.0, 1.6635894212029667E9, 0.0, 2022-09-19 17:10:21.202
96.0, -15982.9725006786, -27508.247197657493, -34500.49871212229, -16978.094515573324, -13165.959795231796, 187500.0, -47209.47709196533, -10994.465469654258, 0.598, -0.672, 0.47600000000000003, 192.0, 0.0, 0.0, 0.0, 0.0, 0.0, 0.0, 0.0, 0.0, 0.0, 1.6635894212068803E9, 0.0, 2022-09-19 17:10:21.206
97.0, -15963.660593469214, -27494.433819584112, -34497.81650278765, -16973.3559457488, -13161.489446340735, 187500.0, -47206.370199486046, -10981.724975314733, 0.598, -0.672, 0.47600000000000003, 192.0, 0.0, 0.0, 0.0, 0.0, 0.0, 0.0, 0.0, 0.0, 0.0, 1.6635894212108774E9, 0.0, 2022-09-19 17:10:21.210
98.0, -15941.934697858656, -27487.616537525242, -34499.82815978863, -16972.104248059302, -13161.422391107368, 187500.0, -47207.420731475446, -10976.695832812291, 0.598, -0.672, 0.47600000000000003, 192.0, 0.0, 0.0, 0.0, 0.0, 0.0, 0.0, 0.0, 0.0, 0.0, 1.66358942121487E9, 0.0, 2022-09-19 17:10:21.214
99.0, -15943.275802525975, -27498.703002775077, -34512.03221226123, -16977.26750102848, -13170.899530756418, 187500.0, -47219.96006011487, -10986.016510250152, 0.598, -0.672, 0.47600000000000003, 192.0, 0.0, 0.0, 0.0, 0.0, 0.0, 0.0, 0.0, 0.0, 0.0, 1.6635894212189271E9, 0.0, 2022-09-19 17:10:21.218
100.0, -15944.77336940448, -27505.25206390048, -34523.74452635581, -16987.437544755645, -13181.807182050608, 187500.0, -47230.93476664243, -11003.853202325488, 0.598, -0.672, 0.47600000000000003, 192.0, 0.0, 0.0, 0.0, 0.0, 0.0, 0.0, 0.0, 0.0, 0.0, 1.6635894212229283E9, 0.0, 2022-09-19 17:10:21.222
101.0, -15931.697598898125, -27503.463924344054, -34531.83585784863, -16994.433640770156, -13185.763440819197, 187500.0, -47234.91337715547, -11007.36242620497, 0.598, -0.672, 0.47600000000000003, 192.0, 0.0, 0.0, 0.0, 0.0, 0.0, 0.0, 0.0, 0.0, 0.0, 1.6635894212259185E9, 0.0, 2022-09-19 17:10:21.225
102.0, -15898.169982215166, -27487.795351480887, -34521.397593188, -16986.87875114426, -13162.69644054132, 187500.0, -47218.596603703096, -10999.248742967695, 0.598, -0.672, 0.47600000000000003, 192.0, 0.0, 0.0, 0.0, 0.0, 0.0, 0.0, 0.0, 0.0, 0.0, 1.663589421230893E9, 0.0, 2022-09-19 17:10:21.230
103.0, -15871.57140631335, -27481.134531633204, -34516.569616385656, -16983.83891389834, -13150.090056668527, 187500.0, -47216.96492635786, -10989.212809707262, 0.598, -0.672, 0.47600000000000003, 192.0, 0.0, 0.0, 0.0, 0.0, 0.0, 0.0, 0.0, 0.0, 0.0, 1.6635894212348833E9, 0.0, 2022-09-19 17:10:21.234
104.0, -15868.933900467624, -27491.10340966027, -34522.96221529987, -16985.112963332293, -13162.741144030231, 187500.0, -47233.281699810235, -10988.542257373603, 0.598, -0.672, 0.47600000000000003, 192.0, 0.0, 0.0, 0.0, 0.0, 0.0, 0.0, 0.0, 0.0, 0.0, 1.6635894212389464E9, 0.0, 2022-09-19 17:10:21.238
105.0, -15866.05052543289, -27496.356069607267, -34521.464648421366, -16984.59887320982, -13167.055030710106, 187500.0, -47233.10288585459, -10991.783260319622, 0.6, -0.68, 0.47200000000000003, 192.0, 18.0, 192.0, 234.0, 192.0, 14.0, 192.0, 0.0, 0.0, 0.0, 1.6635894212430017E9, 0.0, 2022-09-19 17:10:21.243
106.0, -15847.319763579342, -27490.946947449083, -34518.60362513109, -16983.280120286956, -13159.477789339757, 187500.0, -47223.290470038715, -10989.011644007165, 0.6, -0.68, 0.47200000000000003, 192.0, 0.0, 0.0, 0.0, 0.0, 0.0, 0.0, 0.0, 0.0, 0.0, 1.66358942124693E9, 0.0, 2022-09-19 17:10:21.246
107.0, -15821.950533622568, -27484.017906667937, -34524.884465323026, -16989.873884901273, -13163.098771941517, 187500.0, -47224.6986299394, -10994.867801054455, 0.6, -0.68, 0.47200000000000003, 192.0, 0.0, 0.0, 0.0, 0.0, 0.0, 0.0, 0.0, 0.0, 0.0, 1.6635894212509449E9, 0.0, 2022-09-19 17:10:21.250
108.0, -15797.922408333114, -27483.01207816745, -34529.8018491032, -16994.45599251461, -13171.100696456517, 187500.0, -47232.67820270994, -10977.947530501788, 0.6, -0.68, 0.47200000000000003, 192.0, 0.0, 0.0, 0.0, 0.0, 0.0, 0.0, 0.0, 0.0, 0.0, 1.6635894212539515E9, 0.0, 2022-09-19 17:10:21.253
109.0, -15800.69402464557, -27500.088810931305, -34526.15851475698, -16998.07697511637, -13181.762478561697, 187500.0, -47237.21560683437, -10986.910580028365, 0.6, -0.68, 0.47200000000000003, 192.0, 0.0, 0.0, 0.0, 0.0, 0.0, 0.0, 0.0, 0.0, 0.0, 1.6635894212579536E9, 0.0, 2022-09-19 17:10:21.257
110.0, -15804.493821202974, -27508.046031957394, -34517.64250011951, -16987.54930347792, -13179.08026922706, 187500.0, -47228.185502074426, -10988.676367840335, 0.6, -0.68, 0.47200000000000003, 192.0, 0.0, 0.0, 0.0, 0.0, 0.0, 0.0, 0.0, 0.0, 0.0, 1.6635894212630303E9, 0.0, 2022-09-19 17:10:21.263
111.0, -15794.949626320556, -27508.426011613134, -34515.56378788516, -16986.185847066146, -13175.079306969561, 187500.0, -47224.51981598375, -10988.139925973408, 0.6, -0.68, 0.47200000000000003, 192.0, 0.0, 0.0, 0.0, 0.0, 0.0, 0.0, 0.0, 0.0, 0.0, 1.6635894212669747E9, 0.0, 2022-09-19 17:10:21.266
112.0, -15773.067268498811, -27502.234578399013, -34522.425773432944, -16997.65229197172, -13175.816914536586, 187500.0, -47229.05722010818, -10983.826039293534, 0.6, -0.68, 0.47200000000000003, 192.0, 0.0, 0.0, 0.0, 0.0, 0.0, 0.0, 0.0, 0.0, 0.0, 1.6635894212709796E9, 0.0, 2022-09-19 17:10:21.270
113.0, -15748.078018197779, -27495.730220762518, -34521.88933156602, -17002.569675751885, -13175.481638369756, 187500.0, -47228.20785381888, -10987.60348410648, 0.6, -0.68, 0.47200000000000003, 192.0, 0.0, 0.0, 0.0, 0.0, 0.0, 0.0, 0.0, 0.0, 0.0, 1.6635894212749865E9, 0.0, 2022-09-19 17:10:21.274
114.0, -15746.379285619174, -27503.799200510886, -34511.13814248302, -16987.83987615584, -13174.207588935804, 187500.0, -47221.09999908209, -10987.93876027331, 0.6, -0.68, 0.47200000000000003, 192.0, 0.0, 0.0, 0.0, 0.0, 0.0, 0.0, 0.0, 0.0, 0.0, 1.6635894212780373E9, 0.0, 2022-09-19 17:10:21.278
115.0, -15751.028448465879, -27513.63396807122, -34506.62309010304, -16981.581387708353, -13167.502065599212, 187500.0, -47221.27881303774, -10989.056347496075, 0.6, -0.68, 0.47200000000000003, 192.0, 0.0, 0.0, 0.0, 0.0, 0.0, 0.0, 0.0, 0.0, 0.0, 1.6635894212820108E9, 0.0, 2022-09-19 17:10:21.282
116.0, -15738.31030587081, -27502.34633712129, -34508.522988381745, -16986.811695910896, -13161.198873662815, 187500.0, -47217.479016480334, -11002.400338935893, 0.608, -0.678, 0.47400000000000003, 192.0, 19.0, 0.0, 234.0, 208.0, 14.0, 208.0, 0.0, 0.0, 0.0, 1.6635894212860315E9, 0.0, 2022-09-19 17:10:21.286
117.0, -15715.265657337388, -27487.99651718098, -34513.26155820627, -16978.295681273423, -13163.12112368597, 187500.0, -47221.23410954882, -10972.851332765977, 0.608, -0.678, 0.47400000000000003, 192.0, 0.0, 0.0, 0.0, 0.0, 0.0, 0.0, 0.0, 0.0, 0.0, 1.6635894212920337E9, 0.0, 2022-09-19 17:10:21.292
118.0, -15690.00818610289, -27482.542691533887, -34524.86211357857, -16979.100344073813, -13172.218283679282, 187500.0, -47229.48190325283, -10964.894111739888, 0.608, -0.678, 0.47400000000000003, 192.0, 0.0, 0.0, 0.0, 0.0, 0.0, 0.0, 0.0, 0.0, 0.0, 1.6635894212960176E9, 0.0, 2022-09-19 17:10:21.296
119.0, -15684.420249989063, -27489.04704917038, -34519.229473975836, -16976.485189972544, -13178.901455271418, 187500.0, -47226.93380438493, -10975.064155467053, 0.608, -0.678, 0.47400000000000003, 192.0, 0.0, 0.0, 0.0, 0.0, 0.0, 0.0, 0.0, 0.0, 0.0, 1.6635894213000276E9, 0.0, 2022-09-19 17:10:21.300
120.0, -15678.184113286034, -27489.650546270677, -34522.090497266116, -16980.910835374696, -13185.964606519296, 187500.0, -47232.14176084301, -10986.754117817178, 0.608, -0.678, 0.47400000000000003, 192.0, 0.0, 0.0, 0.0, 0.0, 0.0, 0.0, 0.0, 0.0, 0.0, 1.6635894213040245E9, 0.0, 2022-09-19 17:10:21.304
121.0, -15658.425171187542, -27481.469807800033, -34524.884465323026, -16979.30150977391, -13188.80327806512, 187500.0, -47233.05818236568, -10982.149658459384, 0.608, -0.678, 0.47400000000000003, 192.0, 0.0, 0.0, 0.0, 0.0, 0.0, 0.0, 0.0, 0.0, 0.0, 1.6635894213070464E9, 0.0, 2022-09-19 17:10:21.307
122.0, -15623.198821925978, -27465.711827959043, -34528.88542758053, -16981.11200107479, -13181.85188553952, 187500.0, -47234.13106609954, -10974.013623477653, 0.608, -0.678, 0.47400000000000003, 192.0, 0.0, 0.0, 0.0, 0.0, 0.0, 0.0, 0.0, 0.0, 0.0, 1.6635894213100405E9, 0.0, 2022-09-19 17:10:21.310
123.0, -15599.796545481271, -27466.538842503887, -34525.21974148986, -16975.524064960966, -13182.500086128723, 187500.0, -47236.2991853117, -10960.60257680447, 0.608, -0.678, 0.47400000000000003, 192.0, 0.0, 0.0, 0.0, 0.0, 0.0, 0.0, 0.0, 0.0, 0.0, 1.6635894213141596E9, 0.0, 2022-09-19 17:10:21.314
124.0, -15606.971455451425, -27487.81770322534, -34531.36647121507, -16987.638710455743, -13194.838249068052, 187500.0, -47245.03871739373, -10981.277940425629, 0.608, -0.678, 0.47400000000000003, 192.0, 0.0, 0.0, 0.0, 0.0, 0.0, 0.0, 0.0, 0.0, 0.0, 1.6635894213190386E9, 0.0, 2022-09-19 17:10:21.319
125.0, -15607.910228718547, -27494.5902817953, -34533.82516310515, -16983.190713309137, -13184.444687896335, 187500.0, -47244.63638599353, -10970.325585642528, 0.608, -0.678, 0.47400000000000003, 192.0, 0.0, 0.0, 0.0, 0.0, 0.0, 0.0, 0.0, 0.0, 0.0, 1.6635894213231263E9, 0.0, 2022-09-19 17:10:21.323
126.0, -15592.867504700125, -27487.616537525242, -34538.69784339641, -16984.129486576257, -13174.095830213528, 187500.0, -47245.10577262709, -10969.766792031145, 0.604, -0.672, 0.47600000000000003, 192.0, 18.0, 224.0, 235.0, 0.0, 14.0, 224.0, 0.0, 0.0, 0.0, 1.6635894213271089E9, 0.0, 2022-09-19 17:10:21.327
127.0, -15562.536187474274, -27475.25602284146, -34532.3499479711, -16981.201408052613, -13168.507894099701, 187500.0, -47233.46051376588, -10953.561777301047, 0.604, -0.672, 0.47600000000000003, 192.0, 0.0, 0.0, 0.0, 0.0, 0.0, 0.0, 0.0, 0.0, 0.0, 1.6635894213301127E9, 0.0, 2022-09-19 17:10:21.330
128.0, -15535.445873194441, -27474.07138038533, -34525.77853510124, -16978.31803301788, -13167.926748743863, 187500.0, -47227.55965322968, -10941.983573673198, 0.604, -0.672, 0.47600000000000003, 192.0, 0.0, 0.0, 0.0, 0.0, 0.0, 0.0, 0.0, 0.0, 0.0, 1.6635894213341873E9, 0.0, 2022-09-19 17:10:21.334
129.0, -15540.162091274511, -27489.114104403747, -34524.97387230085, -16983.347175520325, -13180.734298316753, 187500.0, -47231.58296723163, -10959.149713414874, 0.604, -0.672, 0.47600000000000003, 192.0, 0.0, 0.0, 0.0, 0.0, 0.0, 0.0, 0.0, 0.0, 0.0, 1.663589421338076E9, 0.0, 2022-09-19 17:10:21.338
130.0, -15547.135835544568, -27496.289014373902, -34526.38203220154, -16982.520160975477, -13179.08026922706, 187500.0, -47234.98043238884, -10961.049611693576, 0.604, -0.672, 0.47600000000000003, 192.0, 0.0, 0.0, 0.0, 0.0, 0.0, 0.0, 0.0, 0.0, 0.0, 1.6635894213421853E9, 0.0, 2022-09-19 17:10:21.342
131.0, -15536.943440072948, -27489.315270103845, -34524.5491891562, -16982.497809231023, -13171.74889704572, 187500.0, -47233.72873469934, -10954.969937201731, 0.604, -0.672, 0.47600000000000003, 192.0, 0.0, 0.0, 0.0, 0.0, 0.0, 0.0, 0.0, 0.0, 0.0, 1.6635894213460968E9, 0.0, 2022-09-19 17:10:21.346
132.0, -15515.888096796049, -27481.939194433595, -34517.77661058624, -16979.994413852026, -13170.676013311866, 187500.0, -47226.352659029086, -10951.930099955809, 0.604, -0.672, 0.47600000000000003, 192.0, 0.0, 0.0, 0.0, 0.0, 0.0, 0.0, 0.0, 0.0, 0.0, 1.6635894213511496E9, 0.0, 2022-09-19 17:10:21.351
133.0, -15506.388605402542, -27490.410505582156, -34525.64442463451, -16978.765067906985, -13176.331004659058, 187500.0, -47233.19229283241, -10948.152655142863, 0.604, -0.672, 0.47600000000000003, 192.0, 0.0, 0.0, 0.0, 0.0, 0.0, 0.0, 0.0, 0.0, 0.0, 1.6635894213551283E9, 0.0, 2022-09-19 17:10:21.355
134.0, -15519.39732067553, -27509.990633725007, -34537.37909047354, -16985.738812177042, -13189.451478654324, 187500.0, -47249.26319709578, -10955.372268601926, 0.604, -0.672, 0.47600000000000003, 192.0, 0.0, 0.0, 0.0, 0.0, 0.0, 0.0, 0.0, 0.0, 0.0, 1.663589421358127E9, 0.0, 2022-09-19 17:10:21.358
135.0, -15524.873498067082, -27511.845828514797, -34530.80767760368, -16987.415193011188, -13185.22699895227, 187500.0, -47239.16020860198, -10965.11762918444, 0.604, -0.672, 0.47600000000000003, 192.0, 0.0, 0.0, 0.0, 0.0, 0.0, 0.0, 0.0, 0.0, 0.0, 1.6635894213622088E9, 0.0, 2022-09-19 17:10:21.362
136.0, -15517.005684018814, -27502.97218596604, -34531.79115435972, -16992.82431516937, -13169.670184811377, 187500.0, -47234.958080644385, -10969.766792031145, 0.61, -0.676, 0.47600000000000003, 192.0, 19.0, 16.0, 234.0, 224.0, 14.0, 224.0, 0.0, 0.0, 0.0, 1.663589421366124E9, 0.0, 2022-09-19 17:10:21.366
137.0, -15498.341977398632, -27495.551406806877, -34538.18375327394, -16993.293701802933, -13162.27175739667, 187500.0, -47238.1990835904, -10966.79401001859, 0.61, -0.676, 0.47600000000000003, 192.0, 0.0, 0.0, 0.0, 0.0, 0.0, 0.0, 0.0, 0.0, 0.0, 1.6635894213701503E9, 0.0, 2022-09-19 17:10:21.370
138.0, -15480.415878345477, -27492.35510734977, -34525.77853510124, -16981.26846328598, -13160.640080051433, 187500.0, -47224.117484583556, -10932.30526832405, 0.61, -0.676, 0.47600000000000003, 192.0, 0.0, 0.0, 0.0, 0.0, 0.0, 0.0, 0.0, 0.0, 0.0, 1.6635894213742225E9, 0.0, 2022-09-19 17:10:21.374
139.0, -15484.528599325253, -27497.764229507953, -34520.70468910989, -16973.73592540454, -13165.311594642591, 187500.0, -47222.3964002605, -10929.243079333673, 0.61, -0.676, 0.47600000000000003, 192.0, 0.0, 0.0, 0.0, 0.0, 0.0, 0.0, 0.0, 0.0, 0.0, 1.663589421379182E9, 0.0, 2022-09-19 17:10:21.379
140.0, -15490.138887183535, -27500.044107442394, -34519.16241874247, -16973.288890515436, -13168.574949333066, 187500.0, -47224.02807760573, -10935.92625092581, 0.61, -0.676, 0.47600000000000003, 192.0, 0.0, 0.0, 0.0, 0.0, 0.0, 0.0, 0.0, 0.0, 0.0, 1.6635894213841844E9, 0.0, 2022-09-19 17:10:21.384
141.0, -15486.987291215337, -27503.978014466527, -34523.43160193344, -16984.04007959844, -13170.005460978206, 187500.0, -47229.213682319365, -10943.659954507346, 0.61, -0.676, 0.47600000000000003, 192.0, 0.0, 0.0, 0.0, 0.0, 0.0, 0.0, 0.0, 0.0, 0.0, 1.6635894213871717E9, 0.0, 2022-09-19 17:10:21.387
142.0, -15464.434381059931, -27495.35024110678, -34523.36454670007, -16977.781591150953, -13161.042411451628, 187500.0, -47227.09026659611, -10932.551137513059, 0.61, -0.676, 0.47600000000000003, 192.0, 0.0, 0.0, 0.0, 0.0, 0.0, 0.0, 0.0, 0.0, 0.0, 1.66358942139122E9, 0.0, 2022-09-19 17:10:21.391
