%OpenBCI Raw EEG Data
%Number of channels = 8
%Sample Rate = 250 Hz
%Board = OpenBCI_GUI$BoardCytonSerial
Sample Index, EXG Channel 0, EXG Channel 1, EXG Channel 2, EXG Channel 3, EXG Channel 4, EXG Channel 5, EXG Channel 6, EXG Channel 7, Accel Channel 0, Accel Channel 1, Accel Channel 2, Other, Other, Other, Other, Other, Other, Other, Analog Channel 0, Analog Channel 1, Analog Channel 2, Timestamp, Other, Timestamp (Formatted)
226.0, -43943.976634022794, -36692.06490422069, -47202.12336803954, -42640.75817355611, -59223.24916401496, 187500.0, -39037.14287723814, -42305.52671021542, 0.0, 0.0, 0.0, 192.0, 0.0, 0.0, 0.0, 0.0, 0.0, 0.0, 0.0, 0.0, 0.0, 1.6635917322893555E9, 0.0, 2022-09-19 17:48:52.289
227.0, -43935.661785085416, -36674.76465401228, -47193.09326327959, -42590.891431676326, -59174.81293378031, 187500.0, -39272.43969111916, -42242.65125306264, 0.0, 0.0, 0.0, 192.0, 0.0, 0.0, 0.0, 0.0, 0.0, 0.0, 0.0, 0.0, 0.0, 1.6635917322893963E9, 0.0, 2022-09-19 17:48:52.289
228.0, -43900.2119183793, -36641.1476303515, -47155.85525701705, -42568.60674245438, -59142.51466304239, 187500.0, -39244.27649310547, -42229.95546221203, 0.0, 0.0, 0.0, 192.0, 0.0, 0.0, 0.0, 0.0, 0.0, 0.0, 0.0, 0.0, 0.0, 1.6635917322894156E9, 0.0, 2022-09-19 17:48:52.289
1.0, -42896.35037140255, -35598.99754512281, -46077.69651147086, -41700.06265641006, -58818.81669984063, 187500.0, -38791.89953707451, -41651.33585349749, 0.762, -0.654, 0.196, 192.0, 23.0, 208.0, 235.0, 144.0, 6.0, 32.0, 0.0, 0.0, 0.0, 1.6635917324098165E9, 0.0, 2022-09-19 17:48:52.409
2.0, -42899.524319115204, -35620.499923288815, -46098.39422683647, -41750.97993027925, -58868.41522078696, 187500.0, -38607.34118310704, -41716.6476507959, 0.762, -0.654, 0.196, 192.0, 0.0, 0.0, 0.0, 0.0, 0.0, 0.0, 0.0, 0.0, 0.0, 1.663591732413875E9, 0.0, 2022-09-19 17:48:52.413
3.0, -42906.20749070734, -35610.26282432828, -46133.86644528704, -41722.12382818745, -58873.8466946896, 187500.0, -38775.18043222195, -41659.00250184566, 0.762, -0.654, 0.196, 192.0, 0.0, 0.0, 0.0, 0.0, 0.0, 0.0, 0.0, 0.0, 0.0, 1.6635917324169648E9, 0.0, 2022-09-19 17:48:52.416
4.0, -42873.90921996942, -35569.47089069735, -46105.97146820682, -41655.985016344195, -58814.54751664967, 187500.0, -38969.12651886064, -41584.124157920385, 0.762, -0.654, 0.196, 192.0, 0.0, 0.0, 0.0, 0.0, 0.0, 0.0, 0.0, 0.0, 0.0, 1.66359173241999E9, 0.0, 2022-09-19 17:48:52.419
5.0, -42863.5156587977, -35572.197803520896, -46072.95794164633, -41654.28628376559, -58802.05289149915, 187500.0, -38906.251061707866, -41591.61199231291, 0.762, -0.654, 0.196, 192.0, 0.0, 0.0, 0.0, 0.0, 0.0, 0.0, 0.0, 0.0, 0.0, 1.6635917324229565E9, 0.0, 2022-09-19 17:48:52.422
6.0, -42883.87809799649, -35600.89744340151, -46067.325302043595, -41696.55343253058, -58834.35116223707, 187500.0, -38747.91130398647, -41646.66433890633, 0.762, -0.654, 0.196, 192.0, 0.0, 0.0, 0.0, 0.0, 0.0, 0.0, 0.0, 0.0, 0.0, 1.6635917324269292E9, 0.0, 2022-09-19 17:48:52.426
7.0, -42870.06471992311, -35577.20459427888, -46064.464278753316, -41704.711819256765, -58854.91476713595, 187500.0, -38554.61341793698, -41667.47381299422, 0.762, -0.654, 0.196, 192.0, 0.0, 0.0, 0.0, 0.0, 0.0, 0.0, 0.0, 0.0, 0.0, 1.6635917324309556E9, 0.0, 2022-09-19 17:48:52.430
8.0, -42899.524319115204, -35589.587460707124, -46130.871311530034, -41702.14136864441, -58882.675633749444, 187500.0, -38768.56431586317, -41645.8820278504, 0.776, -0.662, 0.182, 192.0, 24.0, 64.0, 235.0, 80.0, 5.0, 176.0, 0.0, 0.0, 0.0, 1.66359173243497E9, 0.0, 2022-09-19 17:48:52.434
9.0, -42900.373685404506, -35587.82167289516, -46131.51951211924, -41677.509746254655, -58859.206302071376, 187500.0, -38977.86605094267, -41611.08036173348, 0.776, -0.662, 0.182, 192.0, 0.0, 0.0, 0.0, 0.0, 0.0, 0.0, 0.0, 0.0, 0.0, 1.663591732439957E9, 0.0, 2022-09-19 17:48:52.439
10.0, -42872.9704467023, -35571.54960293169, -46091.509889544235, -41666.602094960464, -58833.90412734797, 187500.0, -38898.85263429316, -41605.24655643065, 0.776, -0.662, 0.182, 192.0, 0.0, 0.0, 0.0, 0.0, 0.0, 0.0, 0.0, 0.0, 0.0, 1.663591732443926E9, 0.0, 2022-09-19 17:48:52.443
11.0, -42877.619609549, -35569.15796627497, -46087.55363077565, -41693.98298191822, -58851.584357212116, 187500.0, -38731.08044041162, -41646.70904239524, 0.776, -0.662, 0.182, 192.0, 0.0, 0.0, 0.0, 0.0, 0.0, 0.0, 0.0, 0.0, 0.0, 1.66359173244807E9, 0.0, 2022-09-19 17:48:52.448
12.0, -42914.4776361558, -35613.235606340844, -46111.425293853914, -41755.78555533714, -58903.7533287708, 187500.0, -38578.73095020425, -41719.73219153073, 0.776, -0.662, 0.182, 192.0, 0.0, 0.0, 0.0, 0.0, 0.0, 0.0, 0.0, 0.0, 0.0, 1.663591732450966E9, 0.0, 2022-09-19 17:48:52.450
13.0, -42960.209305311364, -35633.59804553963, -46157.0452042872, -41747.38129942195, -58906.34613112762, 187500.0, -38797.44276969943, -41688.417397548845, 0.776, -0.662, 0.182, 192.0, 0.0, 0.0, 0.0, 0.0, 0.0, 0.0, 0.0, 0.0, 0.0, 1.6635917324549556E9, 0.0, 2022-09-19 17:48:52.454
14.0, -42913.091827999575, -35595.555376476696, -46129.50785511826, -41681.89068816789, -58840.9896303403, 187500.0, -38967.539545004314, -41605.80535004203, 0.776, -0.662, 0.182, 192.0, 0.0, 0.0, 0.0, 0.0, 0.0, 0.0, 0.0, 0.0, 0.0, 1.6635917324589634E9, 0.0, 2022-09-19 17:48:52.458
15.0, -42880.90531598393, -35586.05588508319, -46105.34561936207, -41684.52819401362, -58833.322981992125, 187500.0, -38883.63109631909, -41618.47878914819, 0.776, -0.662, 0.182, 192.0, 0.0, 0.0, 0.0, 0.0, 0.0, 0.0, 0.0, 0.0, 0.0, 1.6635917324629483E9, 0.0, 2022-09-19 17:48:52.462
16.0, -42872.14343215745, -35583.21721353736, -46093.70036050086, -41711.3949908489, -58846.62226994304, 187500.0, -38703.81131217615, -41662.80229840306, 0.776, -0.662, 0.182, 192.0, 0.0, 0.0, 0.0, 0.0, 0.0, 0.0, 0.0, 0.0, 0.0, 1.6635917324679372E9, 0.0, 2022-09-19 17:48:52.467
17.0, -42906.810987807636, -35619.96348142189, -46108.02782869671, -41757.64075012693, -58886.63189251803, 187500.0, -38576.45107226981, -41706.92464195784, 0.776, -0.662, 0.182, 192.0, 0.0, 0.0, 0.0, 0.0, 0.0, 0.0, 0.0, 0.0, 0.0, 1.6635917324719837E9, 0.0, 2022-09-19 17:48:52.471
18.0, -42944.74189814829, -35642.29287413274, -46154.81002984167, -41756.34434894852, -58899.50649732429, 187500.0, -38806.91990934848, -41680.48252826721, 0.768, -0.654, 0.17200000000000001, 192.0, 24.0, 0.0, 235.0, 144.0, 5.0, 96.0, 0.0, 0.0, 0.0, 1.66359173247593E9, 0.0, 2022-09-19 17:48:52.475
19.0, -42891.81296727812, -35582.3007920147, -46119.53897709119, -41682.38242654591, -58825.566926666135, 187500.0, -38953.86027739767, -41593.981277225175, 0.768, -0.654, 0.17200000000000001, 192.0, 0.0, 0.0, 0.0, 0.0, 0.0, 0.0, 0.0, 0.0, 0.0, 1.6635917324789524E9, 0.0, 2022-09-19 17:48:52.478
20.0, -42865.907295454424, -35561.26780048225, -46083.70913072934, -41665.05982459305, -58796.80023155216, 187500.0, -38853.657407004524, -41592.506062091124, 0.768, -0.654, 0.17200000000000001, 192.0, 0.0, 0.0, 0.0, 0.0, 0.0, 0.0, 0.0, 0.0, 0.0, 1.663591732482968E9, 0.0, 2022-09-19 17:48:52.482
21.0, -42862.4651268083, -35566.69927438489, -46070.901581156446, -41697.42515056433, -58815.419234683424, 187500.0, -38693.10482658206, -41640.00351905865, 0.768, -0.654, 0.17200000000000001, 192.0, 0.0, 0.0, 0.0, 0.0, 0.0, 0.0, 0.0, 0.0, 0.0, 1.6635917324869788E9, 0.0, 2022-09-19 17:48:52.486
22.0, -42905.20166220685, -35618.08593488764, -46100.31647685963, -41765.06152928609, -58875.25485459028, 187500.0, -38576.07109261407, -41719.68748804182, 0.768, -0.654, 0.17200000000000001, 192.0, 0.0, 0.0, 0.0, 0.0, 0.0, 0.0, 0.0, 0.0, 0.0, 1.6635917324910104E9, 0.0, 2022-09-19 17:48:52.491
23.0, -42929.40860145195, -35641.5105630768, -46141.287224446205, -41753.66213961389, -58886.810706473676, 187500.0, -38813.334860007155, -41684.796414947086, 0.768, -0.654, 0.17200000000000001, 192.0, 0.0, 0.0, 0.0, 0.0, 0.0, 0.0, 0.0, 0.0, 0.0, 1.6635917324960105E9, 0.0, 2022-09-19 17:48:52.496
24.0, -42882.604048562534, -35585.78766414972, -46110.330058375606, -41688.976191160225, -58831.80306336917, 187500.0, -38962.51040250187, -41614.85780654643, 0.768, -0.654, 0.17200000000000001, 192.0, 0.0, 0.0, 0.0, 0.0, 0.0, 0.0, 0.0, 0.0, 0.0, 1.6635917324999952E9, 0.0, 2022-09-19 17:48:52.499
25.0, -42869.84120247856, -35572.555431432185, -46091.21931686632, -41685.91400216985, -58823.398807453974, 187500.0, -38871.6729130355, -41617.85294030344, 0.768, -0.654, 0.17200000000000001, 192.0, 0.0, 0.0, 0.0, 0.0, 0.0, 0.0, 0.0, 0.0, 0.0, 1.6635917325040295E9, 0.0, 2022-09-19 17:48:52.504
26.0, -42874.49036532526, -35574.05299831069, -46082.83741269558, -41703.102493655984, -58833.680609903415, 187500.0, -38687.785111401696, -41643.35628072695, 0.768, -0.654, 0.17200000000000001, 192.0, 0.0, 0.0, 0.0, 0.0, 0.0, 0.0, 0.0, 0.0, 0.0, 1.6635917325069647E9, 0.0, 2022-09-19 17:48:52.506
27.0, -42904.73227557329, -35613.861455185586, -46113.12402643252, -41760.300607717116, -58883.79322097221, 187500.0, -38554.70282491479, -41712.758447260676, 0.768, -0.654, 0.17200000000000001, 192.0, 0.0, 0.0, 0.0, 0.0, 0.0, 0.0, 0.0, 0.0, 0.0, 1.6635917325111804E9, 0.0, 2022-09-19 17:48:52.511
28.0, -42926.54757816167, -35629.932359448954, -46149.110335005564, -41743.2015232088, -58881.04395640421, 187500.0, -38804.729438391856, -41667.943199627785, 0.768, -0.654, 0.168, 192.0, 24.0, 0.0, 235.0, 144.0, 5.0, 64.0, 0.0, 0.0, 0.0, 1.6635917325150535E9, 0.0, 2022-09-19 17:48:52.515
29.0, -42927.709868873346, -35622.39982156752, -46129.17257895143, -41710.858548981974, -58838.93326985041, 187500.0, -38977.50842303138, -41632.89566432186, 0.768, -0.654, 0.168, 192.0, 0.0, 0.0, 0.0, 0.0, 0.0, 0.0, 0.0, 0.0, 0.0, 1.6635917325190284E9, 0.0, 2022-09-19 17:48:52.519
30.0, -42903.81585405062, -35603.736114947336, -46096.67314251341, -41712.42317109385, -58827.15390052246, 187500.0, -38893.734084812895, -41650.21826627472, 0.768, -0.654, 0.168, 192.0, 0.0, 0.0, 0.0, 0.0, 0.0, 0.0, 0.0, 0.0, 0.0, 1.6635917325230904E9, 0.0, 2022-09-19 17:48:52.523
31.0, -42880.19006016136, -35588.067542084165, -46079.26113358273, -41716.96057521827, -58826.57275516663, 187500.0, -38700.503253996765, -41659.71775766823, 0.768, -0.654, 0.168, 192.0, 0.0, 0.0, 0.0, 0.0, 0.0, 0.0, 0.0, 0.0, 0.0, 1.6635917325280848E9, 0.0, 2022-09-19 17:48:52.528
32.0, -42907.36978141902, -35611.492170273326, -46099.24359312577, -41746.1519534769, -58856.27822354773, 187500.0, -38557.809717394084, -41688.551508015575, 0.768, -0.654, 0.168, 192.0, 0.0, 0.0, 0.0, 0.0, 0.0, 0.0, 0.0, 0.0, 0.0, 1.663591732532075E9, 0.0, 2022-09-19 17:48:52.532
33.0, -42905.961621518334, -35607.24533882682, -46138.26973894474, -41713.00431644968, -58842.44249372989, 187500.0, -38791.27368822976, -41630.61578638742, 0.768, -0.654, 0.168, 192.0, 0.0, 0.0, 0.0, 0.0, 0.0, 0.0, 0.0, 0.0, 0.0, 1.6635917325350773E9, 0.0, 2022-09-19 17:48:52.535
34.0, -42895.59041209107, -35601.545643990714, -46125.55159634967, -41699.10153139848, -58823.398807453974, 187500.0, -38972.725149717946, -41625.229015973695, 0.768, -0.654, 0.168, 192.0, 0.0, 0.0, 0.0, 0.0, 0.0, 0.0, 0.0, 0.0, 0.0, 1.6635917325391052E9, 0.0, 2022-09-19 17:48:52.539
35.0, -42883.76633927421, -35593.52136773126, -46085.13964237447, -41699.14623488739, -58819.487252174295, 187500.0, -38890.67189582252, -41640.04822254756, 0.768, -0.654, 0.168, 192.0, 0.0, 0.0, 0.0, 0.0, 0.0, 0.0, 0.0, 0.0, 0.0, 1.6635917325441356E9, 0.0, 2022-09-19 17:48:52.544
36.0, -42856.7654319722, -35569.046207552696, -46053.73544141477, -41688.149176615385, -58813.184060237894, 187500.0, -38699.25155630727, -41635.04143178957, 0.768, -0.654, 0.168, 192.0, 0.0, 0.0, 0.0, 0.0, 0.0, 0.0, 0.0, 0.0, 0.0, 1.6635917325471077E9, 0.0, 2022-09-19 17:48:52.547
37.0, -42891.23182192229, -35608.63114698305, -46085.31845633012, -41741.01105225218, -58866.76119169727, 187500.0, -38595.8076829681, -41699.50386279868, 0.768, -0.654, 0.168, 192.0, 0.0, 0.0, 0.0, 0.0, 0.0, 0.0, 0.0, 0.0, 0.0, 1.6635917325510862E9, 0.0, 2022-09-19 17:48:52.551
38.0, -42915.90814780095, -35624.18796112394, -46122.42235212593, -41719.3969153639, -58861.55323523918, 187500.0, -38855.40084307204, -41649.79358313007, 0.774, -0.652, 0.166, 192.0, 24.0, 48.0, 235.0, 160.0, 5.0, 48.0, 0.0, 0.0, 0.0, 1.6635917325551393E9, 0.0, 2022-09-19 17:48:52.555
39.0, -42888.16963293191, -35589.72157117386, -46097.321343102616, -41671.54183048509, -58816.73798760629, 187500.0, -38985.53269929084, -41599.09982670544, 0.774, -0.652, 0.166, 192.0, 0.0, 0.0, 0.0, 0.0, 0.0, 0.0, 0.0, 0.0, 0.0, 1.6635917325591345E9, 0.0, 2022-09-19 17:48:52.559
40.0, -42891.94707774485, -35584.82653913814, -46086.145470874966, -41689.892612682896, -58829.769054623735, 187500.0, -38907.770980330824, -41630.43697243178, 0.774, -0.652, 0.166, 192.0, 0.0, 0.0, 0.0, 0.0, 0.0, 0.0, 0.0, 0.0, 0.0, 1.6635917325630844E9, 0.0, 2022-09-19 17:48:52.563
41.0, -42889.331923643585, -35584.69242867141, -46077.607104493036, -41713.808979250076, -58847.91867112144, 187500.0, -38729.649928766485, -41662.10939432495, 0.774, -0.652, 0.166, 192.0, 0.0, 0.0, 0.0, 0.0, 0.0, 0.0, 0.0, 0.0, 0.0, 1.6635917325680902E9, 0.0, 2022-09-19 17:48:52.568
42.0, -42869.72944375628, -35594.504844487295, -46095.68966575738, -41738.08297372854, -58879.65814824798, 187500.0, -38623.90382574843, -41691.077255139026, 0.774, -0.652, 0.166, 192.0, 0.0, 0.0, 0.0, 0.0, 0.0, 0.0, 0.0, 0.0, 0.0, 1.6635917325721593E9, 0.0, 2022-09-19 17:48:52.572
43.0, -42901.848900538556, -35608.02764988275, -46126.535073105704, -41713.47370308325, -58871.11978186605, 187500.0, -38900.17138721602, -41648.94421684077, 0.774, -0.652, 0.166, 192.0, 0.0, 0.0, 0.0, 0.0, 0.0, 0.0, 0.0, 0.0, 0.0, 1.6635917325751503E9, 0.0, 2022-09-19 17:48:52.575
44.0, -42885.44272010836, -35587.19582405041, -46094.01328492323, -41671.11714734044, -58823.890545831986, 187500.0, -39026.52579862187, -41607.571137854, 0.774, -0.652, 0.166, 192.0, 0.0, 0.0, 0.0, 0.0, 0.0, 0.0, 0.0, 0.0, 0.0, 1.6635917325792053E9, 0.0, 2022-09-19 17:48:52.579
45.0, -42874.13273741397, -35579.77504489125, -46071.63918872347, -41675.1851648313, -58815.17336549442, 187500.0, -38926.05470729527, -41614.299012935044, 0.774, -0.652, 0.166, 192.0, 0.0, 0.0, 0.0, 0.0, 0.0, 0.0, 0.0, 0.0, 0.0, 1.6635917325832193E9, 0.0, 2022-09-19 17:48:52.583
46.0, -42860.945208185345, -35581.45142572539, -46059.65865369543, -41694.80999646306, -58823.06353128714, 187500.0, -38729.33700434411, -41639.422373702815, 0.774, -0.652, 0.166, 192.0, 0.0, 0.0, 0.0, 0.0, 0.0, 0.0, 0.0, 0.0, 0.0, 1.6635917325871296E9, 0.0, 2022-09-19 17:48:52.587
47.0, -42894.137548701474, -35622.7574494788, -46086.54780227516, -41734.26082542668, -58864.5930724851, 187500.0, -38633.69388981985, -41675.81101367605, 0.774, -0.652, 0.166, 192.0, 0.0, 0.0, 0.0, 0.0, 0.0, 0.0, 0.0, 0.0, 0.0, 1.6635917325911348E9, 0.0, 2022-09-19 17:48:52.591
48.0, -42922.70307811536, -35624.74675473532, -46125.10456146057, -41703.72834250073, -58855.58531946961, 187500.0, -38894.73991331338, -41621.76449558312, 0.768, -0.644, 0.166, 192.0, 24.0, 0.0, 235.0, 224.0, 5.0, 48.0, 0.0, 0.0, 0.0, 1.663591732595143E9, 0.0, 2022-09-19 17:48:52.595
49.0, -42889.935420743874, -35590.05684734069, -46100.31647685963, -41669.329007784014, -58811.21710672583, 187500.0, -39004.28581288884, -41594.20479466973, 0.768, -0.644, 0.166, 192.0, 0.0, 0.0, 0.0, 0.0, 0.0, 0.0, 0.0, 0.0, 0.0, 1.6635917326001832E9, 0.0, 2022-09-19 17:48:52.600
50.0, -42864.87911520948, -35574.432977966426, -46078.724691715805, -41677.59915323248, -58814.18988873839, 187500.0, -38897.779750559304, -41611.594451855955, 0.768, -0.644, 0.166, 192.0, 0.0, 0.0, 0.0, 0.0, 0.0, 0.0, 0.0, 0.0, 0.0, 1.6635917326031668E9, 0.0, 2022-09-19 17:48:52.603
51.0, -42857.59244651705, -35563.83825109461, -46063.32433978609, -41704.980040190225, -58836.9886680828, 187500.0, -38690.17674805841, -41654.308635510046, 0.768, -0.644, 0.166, 192.0, 0.0, 0.0, 0.0, 0.0, 0.0, 0.0, 0.0, 0.0, 0.0, 1.663591732607142E9, 0.0, 2022-09-19 17:48:52.607
52.0, -42869.93060945638, -35573.56125993267, -46080.44577603886, -41722.16853167636, -58858.22282531534, 187500.0, -38592.23140385526, -41664.97041761523, 0.768, -0.644, 0.166, 192.0, 0.0, 0.0, 0.0, 0.0, 0.0, 0.0, 0.0, 0.0, 0.0, 1.6635917326112711E9, 0.0, 2022-09-19 17:48:52.611
53.0, -42894.80810103513, -35583.55248970419, -46118.30963114615, -41695.748769730184, -58850.39971475598, 187500.0, -38875.07037819271, -41616.57889086949, 0.768, -0.644, 0.166, 192.0, 0.0, 0.0, 0.0, 0.0, 0.0, 0.0, 0.0, 0.0, 0.0, 1.663591732615318E9, 0.0, 2022-09-19 17:48:52.615
54.0, -42879.43010084988, -35571.52725118724, -46097.96954369182, -41668.837269405994, -58819.44254868538, 187500.0, -38970.80289969479, -41594.56242258101, 0.768, -0.644, 0.166, 192.0, 0.0, 0.0, 0.0, 0.0, 0.0, 0.0, 0.0, 0.0, 0.0, 1.6635917326192093E9, 0.0, 2022-09-19 17:48:52.619
55.0, -42875.94322871485, -35577.00342857879, -46085.20669760784, -41680.97426664523, -58828.51735693424, 187500.0, -38857.41250007302, -41614.61193735742, 0.768, -0.644, 0.166, 192.0, 0.0, 0.0, 0.0, 0.0, 0.0, 0.0, 0.0, 0.0, 0.0, 1.663591732623212E9, 0.0, 2022-09-19 17:48:52.623
56.0, -42874.423310091894, -35587.7993211507, -46076.69068297037, -41709.36098210347, -58855.02652585823, 187500.0, -38665.969808813315, -41658.95779835675, 0.768, -0.644, 0.166, 192.0, 0.0, 0.0, 0.0, 0.0, 0.0, 0.0, 0.0, 0.0, 0.0, 1.6635917326292608E9, 0.0, 2022-09-19 17:48:52.629
57.0, -42920.51260715874, -35637.15197290802, -46113.883985744, -41761.77582285116, -58909.18480267344, 187500.0, -38602.73672374925, -41709.78566524812, 0.768, -0.644, 0.166, 192.0, 0.0, 0.0, 0.0, 0.0, 0.0, 0.0, 0.0, 0.0, 0.0, 1.663591732632372E9, 0.0, 2022-09-19 17:48:52.632
58.0, -42926.39111595048, -35623.07037390117, -46138.60501511157, -41716.91587172936, -58887.995348929806, 187500.0, -38872.63403804708, -41643.9821295717, 0.77, -0.656, 0.168, 192.0, 24.0, 16.0, 235.0, 128.0, 5.0, 64.0, 0.0, 0.0, 0.0, 1.6635917326352687E9, 0.0, 2022-09-19 17:48:52.635
59.0, -42893.71286555682, -35583.77600714874, -46101.83639548259, -41678.51557475515, -58844.722371664335, 187500.0, -38965.61729498116, -41607.07939947598, 0.77, -0.656, 0.168, 192.0, 0.0, 0.0, 0.0, 0.0, 0.0, 0.0, 0.0, 0.0, 0.0, 1.6635917326392832E9, 0.0, 2022-09-19 17:48:52.639
60.0, -42897.26679292522, -35592.15791131949, -46086.03371215269, -41698.09570289799, -58859.98861312731, 187500.0, -38861.771090241804, -41638.1259725244, 0.77, -0.656, 0.168, 192.0, 0.0, 0.0, 0.0, 0.0, 0.0, 0.0, 0.0, 0.0, 0.0, 1.66359173264323E9, 0.0, 2022-09-19 17:48:52.643
61.0, -42888.706074798836, -35597.2541090553, -46075.5283922587, -41724.2472439107, -58882.07213664915, 187500.0, -38659.93483781038, -41681.39894978988, 0.77, -0.656, 0.168, 192.0, 0.0, 0.0, 0.0, 0.0, 0.0, 0.0, 0.0, 0.0, 0.0, 1.6635917326472304E9, 0.0, 2022-09-19 17:48:52.647
62.0, -42916.15401698995, -35622.66804250098, -46108.54191881918, -41756.27729371516, -58917.4549481219, 187500.0, -38596.27706960167, -41703.70599075627, 0.77, -0.656, 0.168, 192.0, 0.0, 0.0, 0.0, 0.0, 0.0, 0.0, 0.0, 0.0, 0.0, 1.6635917326512852E9, 0.0, 2022-09-19 17:48:52.651
63.0, -42925.8323223391, -35617.48243778735, -46138.85088430058, -41714.77010426165, -58891.72809025385, 187500.0, -38870.667084535016, -41629.341736953465, 0.77, -0.656, 0.168, 192.0, 0.0, 0.0, 0.0, 0.0, 0.0, 0.0, 0.0, 0.0, 0.0, 1.6635917326563263E9, 0.0, 2022-09-19 17:48:52.656
64.0, -42894.83045277959, -35583.35132400409, -46109.95007871987, -41677.10741485446, -58848.768037410744, 187500.0, -38952.98855936391, -41597.51285284911, 0.77, -0.656, 0.168, 192.0, 0.0, 0.0, 0.0, 0.0, 0.0, 0.0, 0.0, 0.0, 0.0, 1.6635917326592536E9, 0.0, 2022-09-19 17:48:52.659
65.0, -42878.35721711603, -35577.361056490074, -46082.18921210637, -41688.95383941577, -58845.415275742445, 187500.0, -38842.21331384341, -41625.69840260725, 0.77, -0.656, 0.168, 192.0, 0.0, 0.0, 0.0, 0.0, 0.0, 0.0, 0.0, 0.0, 0.0, 1.6635917326632557E9, 0.0, 2022-09-19 17:48:52.663
66.0, -42888.21433642082, -35598.3046410447, -46078.858802182534, -41730.17045619136, -58875.32190982365, 187500.0, -38639.48299163378, -41683.92469691333, 0.77, -0.656, 0.168, 192.0, 0.0, 0.0, 0.0, 0.0, 0.0, 0.0, 0.0, 0.0, 0.0, 1.66359173266736E9, 0.0, 2022-09-19 17:48:52.667
67.0, -42902.65356333894, -35626.378432080564, -46113.86163399954, -41764.346273463525, -58914.16924168697, 187500.0, -38588.431607297854, -41714.97126996175, 0.77, -0.656, 0.168, 192.0, 0.0, 0.0, 0.0, 0.0, 0.0, 0.0, 0.0, 0.0, 0.0, 1.663591732671317E9, 0.0, 2022-09-19 17:48:52.671
68.0, -42912.01894426572, -35619.11411513259, -46137.375669166526, -41710.63503153742, -58882.474468049346, 187500.0, -38875.24919214835, -41632.44862943276, 0.766, -0.656, 0.17200000000000001, 192.0, 23.0, 240.0, 235.0, 128.0, 5.0, 96.0, 0.0, 0.0, 0.0, 1.6635917326753185E9, 0.0, 2022-09-19 17:48:52.675
69.0, -42885.621534064005, -35585.675905427444, -46098.729503003306, -41670.40189151787, -58835.44639771538, 187500.0, -38952.13919307461, -41596.19409992625, 0.766, -0.656, 0.17200000000000001, 192.0, 0.0, 0.0, 0.0, 0.0, 0.0, 0.0, 0.0, 0.0, 0.0, 1.6635917326793487E9, 0.0, 2022-09-19 17:48:52.679
70.0, -42873.305722869125, -35566.96749531836, -46080.02109289421, -41679.02966487761, -58835.24523201528, 187500.0, -38825.40480201302, -41616.02009725811, 0.766, -0.656, 0.17200000000000001, 192.0, 0.0, 0.0, 0.0, 0.0, 0.0, 0.0, 0.0, 0.0, 0.0, 1.663591732684353E9, 0.0, 2022-09-19 17:48:52.684
71.0, -42865.840240221056, -35573.00246632129, -46062.47497349679, -41704.19772913429, -58849.684458933414, 187500.0, -38613.68907853235, -41650.173562785814, 0.766, -0.656, 0.17200000000000001, 192.0, 0.0, 0.0, 0.0, 0.0, 0.0, 0.0, 0.0, 0.0, 0.0, 1.6635917326873288E9, 0.0, 2022-09-19 17:48:52.687
72.0, -42905.961621518334, -35615.69429823093, -46108.47486358582, -41740.96634876327, -58898.27715137925, 187500.0, -38583.29070607313, -41680.99661838968, 0.766, -0.656, 0.17200000000000001, 192.0, 0.0, 0.0, 0.0, 0.0, 0.0, 0.0, 0.0, 0.0, 0.0, 1.663591732690342E9, 0.0, 2022-09-19 17:48:52.690
73.0, -42923.68655487139, -35620.27640584426, -46139.32027093414, -41703.68363901182, -58879.680499992435, 187500.0, -38885.15101494206, -41624.804332829044, 0.766, -0.656, 0.17200000000000001, 192.0, 0.0, 0.0, 0.0, 0.0, 0.0, 0.0, 0.0, 0.0, 0.0, 1.663591732696384E9, 0.0, 2022-09-19 17:48:52.696
74.0, -42889.6224963215, -35578.5456989462, -46098.79655823667, -41668.501993239166, -58833.92647909242, 187500.0, -38959.11293734467, -41599.43510287227, 0.766, -0.656, 0.17200000000000001, 192.0, 0.0, 0.0, 0.0, 0.0, 0.0, 0.0, 0.0, 0.0, 0.0, 1.6635917326993637E9, 0.0, 2022-09-19 17:48:52.699
75.0, -42880.25711539473, -35574.52238494425, -46086.21252610833, -41683.12003411294, -58834.708790148354, 187500.0, -38834.74783119534, -41620.55750138253, 0.766, -0.656, 0.17200000000000001, 192.0, 0.0, 0.0, 0.0, 0.0, 0.0, 0.0, 0.0, 0.0, 0.0, 1.6635917327033346E9, 0.0, 2022-09-19 17:48:52.703
76.0, -42894.852804524045, -35607.066524871174, -46092.02397966671, -41726.41536312287, -58868.3928690425, 187500.0, -38631.52577060769, -41671.430071762814, 0.766, -0.656, 0.17200000000000001, 192.0, 0.0, 0.0, 0.0, 0.0, 0.0, 0.0, 0.0, 0.0, 0.0, 1.663591732707416E9, 0.0, 2022-09-19 17:48:52.707
77.0, -42915.05878151164, -35619.09176338813, -46118.443741612886, -41736.60775859449, -58890.4987443088, 187500.0, -38591.67261024387, -41670.40189151787, 0.766, -0.656, 0.17200000000000001, 192.0, 0.0, 0.0, 0.0, 0.0, 0.0, 0.0, 0.0, 0.0, 0.0, 1.663591732711413E9, 0.0, 2022-09-19 17:48:52.711
78.0, -42909.29203144217, -35597.634088711035, -46122.71292480385, -41684.72935971372, -58849.52799672222, 187500.0, -38872.83520374718, -41592.2154894132, 0.766, -0.656, 0.17200000000000001, 192.0, 0.0, 0.0, 0.0, 0.0, 0.0, 0.0, 0.0, 0.0, 0.0, 1.6635917327154305E9, 0.0, 2022-09-19 17:48:52.715
79.0, -42880.27946713918, -35578.903326857486, -46086.79367146417, -41661.371786757925, -58810.30068520316, 187500.0, -38938.23640802341, -41575.83166072746, 0.772, -0.658, 0.17400000000000002, 192.0, 24.0, 32.0, 235.0, 112.0, 5.0, 112.0, 0.0, 0.0, 0.0, 1.6635917327183568E9, 0.0, 2022-09-19 17:48:52.718
80.0, -42876.41261534842, -35579.551527446696, -46083.21739235132, -41686.49514752569, -58818.66023762945, 187500.0, -38814.74301990784, -41612.935556523276, 0.772, -0.658, 0.17400000000000002, 192.0, 0.0, 0.0, 0.0, 0.0, 0.0, 0.0, 0.0, 0.0, 0.0, 1.6635917327234075E9, 0.0, 2022-09-19 17:48:52.723
81.0, -42880.90531598393, -35588.983963606835, -46076.60127599255, -41725.744810789205, -58844.61061294206, 187500.0, -38609.28578487466, -41666.535039727096, 0.772, -0.658, 0.17400000000000002, 192.0, 0.0, 0.0, 0.0, 0.0, 0.0, 0.0, 0.0, 0.0, 0.0, 1.6635917327274003E9, 0.0, 2022-09-19 17:48:52.727
82.0, -42910.297859942664, -35614.88963543053, -46110.17359616442, -41750.845819812515, -58882.116840138064, 187500.0, -38599.31690684759, -41679.7896241891, 0.772, -0.658, 0.17400000000000002, 192.0, 0.0, 0.0, 0.0, 0.0, 0.0, 0.0, 0.0, 0.0, 0.0, 1.6635917327314436E9, 0.0, 2022-09-19 17:48:52.731
83.0, -42915.14818848946, -35604.89840565901, -46135.16284646546, -41707.41638033585, -58862.894339906496, 187500.0, -38889.71077081094, -41616.02009725811, 0.772, -0.658, 0.17400000000000002, 192.0, 0.0, 0.0, 0.0, 0.0, 0.0, 0.0, 0.0, 0.0, 0.0, 1.663591732735489E9, 0.0, 2022-09-19 17:48:52.735
84.0, -42889.01899922121, -35575.617620422556, -46102.842223983076, -41679.94608640028, -58829.38907496799, 187500.0, -38941.43270748052, -41596.93170749327, 0.772, -0.658, 0.17400000000000002, 192.0, 0.0, 0.0, 0.0, 0.0, 0.0, 0.0, 0.0, 0.0, 0.0, 1.6635917327394767E9, 0.0, 2022-09-19 17:48:52.739
85.0, -42890.225993421795, -35579.03743732422, -46088.8276802096, -41705.15885414587, -58844.34239200859, 187500.0, -38825.89654039103, -41636.695460879266, 0.772, -0.658, 0.17400000000000002, 192.0, 0.0, 0.0, 0.0, 0.0, 0.0, 0.0, 0.0, 0.0, 0.0, 1.663591732743434E9, 0.0, 2022-09-19 17:48:52.743
86.0, -42888.974295732296, -35598.19288232242, -46079.05996788263, -41745.36964242097, -58878.60761625858, 187500.0, -38607.028258684666, -41689.87026093844, 0.772, -0.658, 0.17400000000000002, 192.0, 0.0, 0.0, 0.0, 0.0, 0.0, 0.0, 0.0, 0.0, 0.0, 1.663591732746446E9, 0.0, 2022-09-19 17:48:52.746
87.0, -42910.6778395984, -35624.81380996869, -46110.75474152026, -41760.702939117306, -58905.76498577178, 187500.0, -38603.384924338454, -41691.278420839124, 0.772, -0.658, 0.17400000000000002, 192.0, 0.0, 0.0, 0.0, 0.0, 0.0, 0.0, 0.0, 0.0, 0.0, 1.6635917327514312E9, 0.0, 2022-09-19 17:48:52.751
88.0, -42916.48929315678, -35620.41051631099, -46126.89270101699, -41705.04709542359, -58862.26849106175, 187500.0, -38890.3813231446, -41607.459379131724, 0.772, -0.658, 0.17400000000000002, 192.0, 0.0, 0.0, 0.0, 0.0, 0.0, 0.0, 0.0, 0.0, 0.0, 1.6635917327555685E9, 0.0, 2022-09-19 17:48:52.755
89.0, -42897.713827814325, -35599.77985617875, -46093.70036050086, -41677.375635787925, -58821.14128126398, 187500.0, -38932.871989354135, -41588.035713200064, 0.772, -0.658, 0.17400000000000002, 192.0, 24.0, 32.0, 235.0, 112.0, 5.0, 112.0, 0.0, 0.0, 0.0, 1.663591732759484E9, 0.0, 2022-09-19 17:48:52.759
90.0, -42870.08707166756, -35584.71478041587, -46074.0755288691, -41684.30467656907, -58819.21903124083, 187500.0, -38807.67986865996, -41606.5206058646, 0.772, -0.658, 0.17400000000000002, 192.0, 0.0, 0.0, 0.0, 0.0, 0.0, 0.0, 0.0, 0.0, 0.0, 1.6635917327634885E9, 0.0, 2022-09-19 17:48:52.763
91.0, -42870.73527225677, -35589.02866709574, -46069.73929044477, -41724.694278799805, -58844.45415073087, 187500.0, -38586.48700553024, -41658.04137683408, 0.772, -0.658, 0.17400000000000002, 192.0, 0.0, 0.0, 0.0, 0.0, 0.0, 0.0, 0.0, 0.0, 0.0, 1.6635917327675095E9, 0.0, 2022-09-19 17:48:52.767
92.0, -42915.50581640075, -35612.56505400718, -46114.12985493301, -41750.62230236796, -58877.60178775809, 187500.0, -38619.43347685736, -41668.993731617185, 0.772, -0.658, 0.17400000000000002, 192.0, 0.0, 0.0, 0.0, 0.0, 0.0, 0.0, 0.0, 0.0, 0.0, 1.6635917327705724E9, 0.0, 2022-09-19 17:48:52.770
93.0, -42930.705002630355, -35618.08593488764, -46134.022907498234, -41711.707915271276, -58856.5911479701, 187500.0, -38918.76803860284, -41612.287355934066, 0.772, -0.658, 0.17400000000000002, 192.0, 0.0, 0.0, 0.0, 0.0, 0.0, 0.0, 0.0, 0.0, 0.0, 1.6635917327745626E9, 0.0, 2022-09-19 17:48:52.774
94.0, -42915.7293338453, -35608.698202216416, -46103.959811205845, -41693.44654005129, -58821.27539173072, 187500.0, -38938.72814640142, -41603.10078896294, 0.772, -0.658, 0.17400000000000002, 192.0, 0.0, 0.0, 0.0, 0.0, 0.0, 0.0, 0.0, 0.0, 0.0, 1.663591732778518E9, 0.0, 2022-09-19 17:48:52.778
95.0, -42895.478653368795, -35602.84204516912, -46090.57111627712, -41705.85175822399, -58821.230688241805, 187500.0, -38806.3611157371, -41624.111428750926, 0.772, -0.658, 0.17400000000000002, 192.0, 0.0, 0.0, 0.0, 0.0, 0.0, 0.0, 0.0, 0.0, 0.0, 1.6635917327836025E9, 0.0, 2022-09-19 17:48:52.783
96.0, -42886.672066053405, -35602.953803891396, -46085.296104585665, -41733.45616262629, -58838.419179727935, 187500.0, -38590.42091255438, -41659.67305417932, 0.772, -0.658, 0.17400000000000002, 192.0, 0.0, 0.0, 0.0, 0.0, 0.0, 0.0, 0.0, 0.0, 0.0, 1.6635917327875955E9, 0.0, 2022-09-19 17:48:52.787
97.0, -42897.40090339195, -35605.14427484802, -46114.84511075558, -41732.42798238134, -58851.159674067465, 187500.0, -38609.062267430105, -41646.86550460643, 0.772, -0.658, 0.17400000000000002, 192.0, 0.0, 0.0, 0.0, 0.0, 0.0, 0.0, 0.0, 0.0, 0.0, 1.663591732791606E9, 0.0, 2022-09-19 17:48:52.791
98.0, -42904.10642672854, -35591.17443456345, -46130.26781442974, -41687.88095568192, -58820.336618463596, 187500.0, -38898.78557905979, -41583.31949511999, 0.772, -0.658, 0.17400000000000002, 192.0, 0.0, 0.0, 0.0, 0.0, 0.0, 0.0, 0.0, 0.0, 0.0, 1.663591732795565E9, 0.0, 2022-09-19 17:48:52.795
99.0, -42880.950019472846, -35570.00733256427, -46095.82377622411, -41669.15019382837, -58792.44164138337, 187500.0, -38922.23255899341, -41570.08726240245, 0.77, -0.652, 0.17400000000000002, 192.0, 24.0, 16.0, 235.0, 160.0, 5.0, 112.0, 0.0, 0.0, 0.0, 1.6635917327996075E9, 0.0, 2022-09-19 17:48:52.799
100.0, -42877.97723746028, -35571.706065142884, -46075.863668425525, -41688.99854290469, -58803.43869965538, 187500.0, -38798.58270866665, -41601.15618719532, 0.77, -0.652, 0.17400000000000002, 192.0, 0.0, 0.0, 0.0, 0.0, 0.0, 0.0, 0.0, 0.0, 0.0, 1.663591732802501E9, 0.0, 2022-09-19 17:48:52.802
101.0, -42890.00247597724, -35593.0519810977, -46078.54587776016, -41734.88667427143, -58835.625211671024, 187500.0, -38584.11772061798, -41660.99180710218, 0.77, -0.652, 0.17400000000000002, 192.0, 0.0, 0.0, 0.0, 0.0, 0.0, 0.0, 0.0, 0.0, 0.0, 1.66359173280665E9, 0.0, 2022-09-19 17:48:52.806
102.0, -42914.05295301115, -35618.30945233219, -46121.41652362544, -41755.87496231496, -58866.85059867509, 187500.0, -38622.473314103285, -41661.8858768804, 0.77, -0.652, 0.17400000000000002, 192.0, 0.0, 0.0, 0.0, 0.0, 0.0, 0.0, 0.0, 0.0, 0.0, 1.6635917328116217E9, 0.0, 2022-09-19 17:48:52.811
103.0, -42922.21133973734, -35610.70985921739, -46127.16092195045, -41715.77593276214, -58839.40265648397, 187500.0, -38916.33169845721, -41601.603222084435, 0.77, -0.652, 0.17400000000000002, 192.0, 0.0, 0.0, 0.0, 0.0, 0.0, 0.0, 0.0, 0.0, 0.0, 1.66359173281562E9, 0.0, 2022-09-19 17:48:52.815
104.0, -42899.30080167065, -35587.642858939515, -46091.442834310874, -41691.61369700595, -58810.09951950306, 187500.0, -38911.2355007214, -41585.24174514315, 0.77, -0.652, 0.17400000000000002, 192.0, 0.0, 0.0, 0.0, 0.0, 0.0, 0.0, 0.0, 0.0, 0.0, 1.6635917328195856E9, 0.0, 2022-09-19 17:48:52.819
105.0, -42895.99274349127, -35586.257050783286, -46075.3272265586, -41702.49899655569, -58815.843917828075, 187500.0, -38780.32133344666, -41608.018172743105, 0.77, -0.652, 0.17400000000000002, 192.0, 0.0, 0.0, 0.0, 0.0, 0.0, 0.0, 0.0, 0.0, 0.0, 1.6635917328236673E9, 0.0, 2022-09-19 17:48:52.823
106.0, -42889.57779283259, -35600.025725367756, -46070.81217417862, -41737.993566750716, -58840.54259545119, 187500.0, -38591.27027884368, -41654.82272563252, 0.77, -0.652, 0.17400000000000002, 192.0, 0.0, 0.0, 0.0, 0.0, 0.0, 0.0, 0.0, 0.0, 0.0, 1.66359173282659E9, 0.0, 2022-09-19 17:48:52.826
107.0, -42922.30074671516, -35632.90514146151, -46120.29893640267, -41761.37349145097, -58878.78643021422, 187500.0, -38651.73174759528, -41668.81491766154, 0.77, -0.652, 0.17400000000000002, 192.0, 0.0, 0.0, 0.0, 0.0, 0.0, 0.0, 0.0, 0.0, 0.0, 1.6635917328305848E9, 0.0, 2022-09-19 17:48:52.830
108.0, -42935.51062768825, -35631.6087402831, -46134.26877668724, -41724.20254042179, -58854.4900839913, 187500.0, -38947.2441610389, -41614.746047824156, 0.77, -0.652, 0.17400000000000002, 192.0, 0.0, 0.0, 0.0, 0.0, 0.0, 0.0, 0.0, 0.0, 0.0, 1.6635917328346097E9, 0.0, 2022-09-19 17:48:52.834
109.0, -42895.59041209107, -35595.48832124333, -46088.31359008713, -41689.266763838146, -58810.63596136999, 187500.0, -38943.2431987814, -41587.18634691076, 0.768, -0.66, 0.17200000000000001, 192.0, 24.0, 0.0, 235.0, 96.0, 5.0, 96.0, 0.0, 0.0, 0.0, 1.6635917328396163E9, 0.0, 2022-09-19 17:48:52.839
110.0, -42883.05108345164, -35587.75461766179, -46068.68875845537, -41700.17441513234, -58812.289990459685, 187500.0, -38803.76831338028, -41610.16394021081, 0.768, -0.66, 0.17200000000000001, 192.0, 0.0, 0.0, 0.0, 0.0, 0.0, 0.0, 0.0, 0.0, 0.0, 1.6635917328436134E9, 0.0, 2022-09-19 17:48:52.843
111.0, -42890.42715912189, -35598.03642011123, -46072.53325850168, -41736.16072370538, -58839.5367669507, 187500.0, -38589.37038056498, -41655.91796111083, 0.768, -0.66, 0.17200000000000001, 192.0, 0.0, 0.0, 0.0, 0.0, 0.0, 0.0, 0.0, 0.0, 0.0, 1.6635917328476052E9, 0.0, 2022-09-19 17:48:52.847
112.0, -42912.42127566592, -35621.483400044846, -46117.259099156756, -41751.42696516836, -58871.566816755156, 187500.0, -38651.26236096172, -41659.49424022368, 0.768, -0.66, 0.17200000000000001, 192.0, 0.0, 0.0, 0.0, 0.0, 0.0, 0.0, 0.0, 0.0, 0.0, 1.663591732851636E9, 0.0, 2022-09-19 17:48:52.851
113.0, -42922.25604322625, -35614.53200751925, -46129.28433767371, -41713.07137168305, -58841.54842395168, 187500.0, -38938.92931210152, -41601.62557382889, 0.768, -0.66, 0.17200000000000001, 192.0, 0.0, 0.0, 0.0, 0.0, 0.0, 0.0, 0.0, 0.0, 0.0, 1.6635917328546336E9, 0.0, 2022-09-19 17:48:52.854
114.0, -42909.806121564645, -35598.46110325588, -46093.342732589575, -41698.408627320365, -58816.29095271719, 187500.0, -38938.90696035707, -41596.57407958199, 0.768, -0.66, 0.17200000000000001, 192.0, 0.0, 0.0, 0.0, 0.0, 0.0, 0.0, 0.0, 0.0, 0.0, 1.6635917328587618E9, 0.0, 2022-09-19 17:48:52.858
115.0, -42886.76147303122, -35599.33282128964, -46075.90837191443, -41715.753581017685, -58823.42115919843, 187500.0, -38793.330048719654, -41626.279547963095, 0.768, -0.66, 0.17200000000000001, 192.0, 0.0, 0.0, 0.0, 0.0, 0.0, 0.0, 0.0, 0.0, 0.0, 1.6635917328626282E9, 0.0, 2022-09-19 17:48:52.862
116.0, -42896.730351058286, -35617.370679065076, -46080.334017316585, -41753.371566935966, -58849.058610088665, 187500.0, -38579.46855777127, -41676.258048565156, 0.768, -0.66, 0.17200000000000001, 192.0, 0.0, 0.0, 0.0, 0.0, 0.0, 0.0, 0.0, 0.0, 0.0, 1.663591732867592E9, 0.0, 2022-09-19 17:48:52.867
117.0, -42939.17631377892, -35644.550400322725, -46129.57491035163, -41766.022654297674, -58876.05951739068, 187500.0, -38657.163221497925, -41673.26291480815, 0.768, -0.66, 0.17200000000000001, 192.0, 0.0, 0.0, 0.0, 0.0, 0.0, 0.0, 0.0, 0.0, 0.0, 1.6635917328716147E9, 0.0, 2022-09-19 17:48:52.871
118.0, -42954.77783140872, -35637.062565930195, -46135.7886953102, -41724.80603752209, -58848.09748507709, 187500.0, -38940.784506891316, -41613.15907396783, 0.768, -0.66, 0.17200000000000001, 192.0, 0.0, 0.0, 0.0, 0.0, 0.0, 0.0, 0.0, 0.0, 0.0, 1.6635917328756964E9, 0.0, 2022-09-19 17:48:52.875
119.0, -42906.43100815189, -35607.44650452692, -46093.25332561175, -41710.232700137225, -58823.01882779823, 187500.0, -38927.216998006945, -41607.593489598454, 0.76, -0.656, 0.17200000000000001, 192.0, 23.0, 192.0, 235.0, 128.0, 5.0, 96.0, 0.0, 0.0, 0.0, 1.6635917328796484E9, 0.0, 2022-09-19 17:48:52.879
120.0, -42881.46410959531, -35590.21330955187, -46072.01916837921, -41721.408572364875, -58829.81375811264, 187500.0, -38781.08129275814, -41629.49819916466, 0.76, -0.656, 0.17200000000000001, 192.0, 0.0, 0.0, 0.0, 0.0, 0.0, 0.0, 0.0, 0.0, 0.0, 1.6635917328826408E9, 0.0, 2022-09-19 17:48:52.882
121.0, -42901.78184530519, -35620.8575512001, -46085.161994118935, -41772.92934333436, -58876.32773832414, 187500.0, -38574.57352573556, -41694.921755185336, 0.76, -0.656, 0.17200000000000001, 192.0, 0.0, 0.0, 0.0, 0.0, 0.0, 0.0, 0.0, 0.0, 0.0, 1.6635917328866656E9, 0.0, 2022-09-19 17:48:52.886
122.0, -42940.428011468415, -35650.697130047934, -46136.14632322149, -41788.396750497435, -58916.06913996567, 187500.0, -38678.08445430809, -41694.25120285168, 0.76, -0.656, 0.17200000000000001, 192.0, 0.0, 0.0, 0.0, 0.0, 0.0, 0.0, 0.0, 0.0, 0.0, 1.6635917328907645E9, 0.0, 2022-09-19 17:48:52.890
123.0, -42938.23754051179, -35633.799211239726, -46135.74399182129, -41731.93624400333, -58881.44628780441, 187500.0, -38959.60467572268, -41622.61386187242, 0.76, -0.656, 0.17200000000000001, 192.0, 0.0, 0.0, 0.0, 0.0, 0.0, 0.0, 0.0, 0.0, 0.0, 1.6635917328947504E9, 0.0, 2022-09-19 17:48:52.894
124.0, -42907.012153507734, -35605.52425450376, -46101.97050594932, -41707.88576696942, -58854.80300841368, 187500.0, -38937.94583534549, -41611.28152743358, 0.76, -0.656, 0.17200000000000001, 192.0, 0.0, 0.0, 0.0, 0.0, 0.0, 0.0, 0.0, 0.0, 0.0, 1.663591732899733E9, 0.0, 2022-09-19 17:48:52.899
125.0, -42893.19877543435, -35604.13844634753, -46087.26305809773, -41725.14131368892, -58868.54933125369, 187500.0, -38792.48068243035, -41640.00351905865, 0.76, -0.656, 0.17200000000000001, 192.0, 0.0, 0.0, 0.0, 0.0, 0.0, 0.0, 0.0, 0.0, 0.0, 1.663591732903772E9, 0.0, 2022-09-19 17:48:52.903
126.0, -42897.423255136404, -35621.95278667841, -46092.69453200037, -41762.42402344037, -58902.99336945932, 187500.0, -38600.36743883698, -41688.37269405994, 0.76, -0.656, 0.17200000000000001, 192.0, 0.0, 0.0, 0.0, 0.0, 0.0, 0.0, 0.0, 0.0, 0.0, 1.6635917329078023E9, 0.0, 2022-09-19 17:48:52.907
127.0, -42932.5825491646, -35644.416289855995, -46138.426201155926, -41772.996398567724, -58931.93887852894, 187500.0, -38718.608167005565, -41686.49514752569, 0.76, -0.656, 0.17200000000000001, 192.0, 0.0, 0.0, 0.0, 0.0, 0.0, 0.0, 0.0, 0.0, 0.0, 1.6635917329106932E9, 0.0, 2022-09-19 17:48:52.910
128.0, -42929.49800842977, -35634.62622578457, -46140.8401895571, -41729.83518002453, -58895.03614843323, 187500.0, -38989.645420270615, -41626.681879363285, 0.76, -0.656, 0.17200000000000001, 192.0, 0.0, 0.0, 0.0, 0.0, 0.0, 0.0, 0.0, 0.0, 0.0, 1.6635917329147909E9, 0.0, 2022-09-19 17:48:52.914
129.0, -42907.97327851931, -35617.25892034279, -46110.21829965333, -41717.45231359629, -58869.666918476454, 187500.0, -38959.80584142278, -41615.12602747989, 0.768, -0.662, 0.168, 192.0, 24.0, 0.0, 235.0, 80.0, 5.0, 64.0, 0.0, 0.0, 0.0, 1.663591732918762E9, 0.0, 2022-09-19 17:48:52.918
130.0, -42898.25026968125, -35617.147161620516, -46097.231936124794, -41729.74577304671, -58873.89139817851, 187500.0, -38810.85381637261, -41631.778077099094, 0.768, -0.662, 0.168, 192.0, 0.0, 0.0, 0.0, 0.0, 0.0, 0.0, 0.0, 0.0, 0.0, 1.6635917329238667E9, 0.0, 2022-09-19 17:48:52.923
131.0, -42903.41352265043, -35635.29677811823, -46106.70907577385, -41772.527011934166, -58909.94476198492, 187500.0, -38608.10114241852, -41685.422263791836, 0.768, -0.662, 0.168, 192.0, 0.0, 0.0, 0.0, 0.0, 0.0, 0.0, 0.0, 0.0, 0.0, 1.6635917329277608E9, 0.0, 2022-09-19 17:48:52.927
132.0, -42937.276415500215, -35656.218010928395, -46148.93152104992, -41774.44926195732, -58927.44617789343, 187500.0, -38724.28551009721, -41664.38927225939, 0.768, -0.662, 0.168, 192.0, 0.0, 0.0, 0.0, 0.0, 0.0, 0.0, 0.0, 0.0, 0.0, 1.6635917329318154E9, 0.0, 2022-09-19 17:48:52.931
133.0, -42926.4805229283, -35634.73798450684, -46136.70511683287, -41723.15200843239, -58880.50751453728, 187500.0, -38987.43259756954, -41598.652791816334, 0.768, -0.662, 0.168, 192.0, 0.0, 0.0, 0.0, 0.0, 0.0, 0.0, 0.0, 0.0, 0.0, 1.6635917329358408E9, 0.0, 2022-09-19 17:48:52.935
134.0, -42887.67789455389, -35619.71761223288, -46103.401017594464, -41716.55824381808, -58860.88268290552, 187500.0, -38948.18293430602, -41607.101751220434, 0.768, -0.662, 0.168, 192.0, 0.0, 0.0, 0.0, 0.0, 0.0, 0.0, 0.0, 0.0, 0.0, 1.663591732938759E9, 0.0, 2022-09-19 17:48:52.938
135.0, -42879.09482468305, -35625.909045447, -46094.862651212534, -41745.9060842879, -58873.243197589305, 187500.0, -38797.24160399933, -41651.96170234224, 0.768, -0.662, 0.168, 192.0, 0.0, 0.0, 0.0, 0.0, 0.0, 0.0, 0.0, 0.0, 0.0, 1.6635917329428272E9, 0.0, 2022-09-19 17:48:52.942
136.0, -42883.386359618475, -35633.62039728408, -46098.59539253657, -41781.26654401619, -58891.45986932038, 187500.0, -38587.78340670865, -41697.89453719789, 0.768, -0.662, 0.168, 192.0, 0.0, 0.0, 0.0, 0.0, 0.0, 0.0, 0.0, 0.0, 0.0, 1.663591732946884E9, 0.0, 2022-09-19 17:48:52.946
137.0, -42911.30368844315, -35649.937170736455, -46136.14632322149, -41770.09067178854, -58900.512325824784, 187500.0, -38710.919166912936, -41671.094795595985, 0.768, -0.662, 0.168, 192.0, 0.0, 0.0, 0.0, 0.0, 0.0, 0.0, 0.0, 0.0, 0.0, 1.6635917329508858E9, 0.0, 2022-09-19 17:48:52.950
138.0, -42881.084129939576, -35622.466876800885, -46111.73821827629, -41688.48445278221, -58833.12181629203, 187500.0, -38957.16833557705, -41574.93759094925, 0.768, -0.662, 0.168, 192.0, 0.0, 0.0, 0.0, 0.0, 0.0, 0.0, 0.0, 0.0, 0.0, 1.6635917329557898E9, 0.0, 2022-09-19 17:48:52.955
139.0, -42860.47582155178, -35602.21619632438, -46081.36219756153, -41682.38242654591, -58813.38522593799, 187500.0, -38928.535750929805, -41582.38072185287, 0.768, -0.654, 0.166, 192.0, 24.0, 0.0, 235.0, 144.0, 5.0, 48.0, 0.0, 0.0, 0.0, 1.6635917329598916E9, 0.0, 2022-09-19 17:48:52.959
140.0, -42872.59046704656, -35581.58553619213, -46073.270866068706, -41706.052923924086, -58830.21608951284, 187500.0, -38768.56431586317, -41618.501140892644, 0.768, -0.654, 0.166, 192.0, 0.0, 0.0, 0.0, 0.0, 0.0, 0.0, 0.0, 0.0, 0.0, 1.6635917329628048E9, 0.0, 2022-09-19 17:48:52.962
141.0, -42884.66040905243, -35617.88476918754, -46083.41855805142, -41755.249113470214, -58870.248063832296, 187500.0, -38568.27033379917, -41680.39312128939, 0.768, -0.654, 0.166, 192.0, 0.0, 0.0, 0.0, 0.0, 0.0, 0.0, 0.0, 0.0, 0.0, 1.663591732966805E9, 0.0, 2022-09-19 17:48:52.966
142.0, -42913.8294355666, -35643.76808926679, -46122.623517826025, -41756.27729371516, -58888.66590126347, 187500.0, -38728.35352758808, -41657.4825832227, 0.768, -0.654, 0.166, 192.0, 0.0, 0.0, 0.0, 0.0, 0.0, 0.0, 0.0, 0.0, 0.0, 1.6635917329708917E9, 0.0, 2022-09-19 17:48:52.970
143.0, -42906.76628431872, -35619.13646687704, -46112.341715376584, -41704.39889483439, -58843.91770886394, 187500.0, -38976.39083580862, -41587.968657966696, 0.768, -0.654, 0.166, 192.0, 0.0, 0.0, 0.0, 0.0, 0.0, 0.0, 0.0, 0.0, 0.0, 1.6635917329748268E9, 0.0, 2022-09-19 17:48:52.974
144.0, -42878.37956886048, -35595.33185903214, -46077.16006960393, -41687.031589392616, -58818.146147506974, 187500.0, -38922.23255899341, -41586.068759687994, 0.768, -0.654, 0.166, 192.0, 0.0, 0.0, 0.0, 0.0, 0.0, 0.0, 0.0, 0.0, 0.0, 1.6635917329789355E9, 0.0, 2022-09-19 17:48:52.978
145.0, -42858.59827501754, -35585.117111816064, -46061.670310696405, -41695.32408658553, -58818.861403329545, 187500.0, -38753.52159184475, -41608.800483799045, 0.768, -0.654, 0.166, 192.0, 0.0, 0.0, 0.0, 0.0, 0.0, 0.0, 0.0, 0.0, 0.0, 1.6635917329838724E9, 0.0, 2022-09-19 17:48:52.983
146.0, -42874.24449613625, -35604.8537021701, -46080.49047952777, -41740.78753480763, -58859.78744742721, 187500.0, -38558.659083683386, -41666.02094960463, 0.768, -0.654, 0.166, 192.0, 0.0, 0.0, 0.0, 0.0, 0.0, 0.0, 0.0, 0.0, 0.0, 1.6635917329878163E9, 0.0, 2022-09-19 17:48:52.987
147.0, -42915.30465070065, -35636.39201359654, -46141.13076223502, -41761.01586353968, -58892.97978794334, 187500.0, -38724.0396409082, -41671.564182229544, 0.768, -0.654, 0.166, 192.0, 0.0, 0.0, 0.0, 0.0, 0.0, 0.0, 0.0, 0.0, 0.0, 1.6635917329909728E9, 0.0, 2022-09-19 17:48:52.990
148.0, -42914.94702278936, -35622.77980122326, -46130.33486966311, -41715.21713915076, -58849.88562463351, 187500.0, -38961.57162923475, -41616.66829784731, 0.768, -0.654, 0.166, 192.0, 0.0, 0.0, 0.0, 0.0, 0.0, 0.0, 0.0, 0.0, 0.0, 1.663591732994814E9, 0.0, 2022-09-19 17:48:52.994
149.0, -42876.658484537424, -35591.73322817484, -46087.21835460882, -41689.62439174943, -58815.79921433917, 187500.0, -38888.43672137699, -41595.858823759416, 0.768, -0.656, 0.17200000000000001, 192.0, 24.0, 0.0, 235.0, 128.0, 5.0, 96.0, 0.0, 0.0, 0.0, 1.6635917329989605E9, 0.0, 2022-09-19 17:48:52.998
150.0, -42855.49138253825, -35585.072408327156, -46070.052214867144, -41697.31339184206, -58818.235554484796, 187500.0, -38720.79863796218, -41608.48755937667, 0.768, -0.656, 0.17200000000000001, 192.0, 0.0, 0.0, 0.0, 0.0, 0.0, 0.0, 0.0, 0.0, 0.0, 1.6635917330030046E9, 0.0, 2022-09-19 17:48:53.003
151.0, -42883.162842173915, -35613.07914412965, -46075.729557958795, -41738.26178768418, -58854.6912496914, 187500.0, -38530.18296124732, -41660.2318477907, 0.768, -0.656, 0.17200000000000001, 192.0, 0.0, 0.0, 0.0, 0.0, 0.0, 0.0, 0.0, 0.0, 0.0, 1.6635917330069032E9, 0.0, 2022-09-19 17:48:53.006
152.0, -42915.68463035639, -35639.230685142364, -46112.81110201015, -41739.111153973485, -58872.84086618911, 187500.0, -38703.87836740952, -41644.09388829397, 0.768, -0.656, 0.17200000000000001, 192.0, 0.0, 0.0, 0.0, 0.0, 0.0, 0.0, 0.0, 0.0, 0.0, 1.6635917330110223E9, 0.0, 2022-09-19 17:48:53.011
153.0, -42905.13460697349, -35620.87990294456, -46104.29508737267, -41689.11030162696, -58832.294801747186, 187500.0, -38949.88166688463, -41582.60423929742, 0.768, -0.656, 0.17200000000000001, 192.0, 0.0, 0.0, 0.0, 0.0, 0.0, 0.0, 0.0, 0.0, 0.0, 1.6635917330159743E9, 0.0, 2022-09-19 17:48:53.015
154.0, -42878.31251362712, -35600.495112001314, -46069.6722352114, -41677.73326369921, -58814.391054438485, 187500.0, -38889.15197719955, -41582.06779743049, 0.768, -0.656, 0.17200000000000001, 192.0, 0.0, 0.0, 0.0, 0.0, 0.0, 0.0, 0.0, 0.0, 0.0, 1.66359173301896E9, 0.0, 2022-09-19 17:48:53.018
155.0, -42875.473842081294, -35602.97615563586, -46058.00462460573, -41697.46985405324, -58825.701037132865, 187500.0, -38726.87831245403, -41611.34858266695, 0.768, -0.656, 0.17200000000000001, 192.0, 0.0, 0.0, 0.0, 0.0, 0.0, 0.0, 0.0, 0.0, 0.0, 1.6635917330230055E9, 0.0, 2022-09-19 17:48:53.023
156.0, -42886.22503116429, -35622.13160063405, -46074.29904631365, -41737.59123535052, -58864.95070039639, 187500.0, -38547.617321922466, -41652.87812386491, 0.768, -0.656, 0.17200000000000001, 192.0, 0.0, 0.0, 0.0, 0.0, 0.0, 0.0, 0.0, 0.0, 0.0, 1.6635917330270314E9, 0.0, 2022-09-19 17:48:53.027
157.0, -42910.6778395984, -35632.36869959458, -46113.2357851548, -41730.59513933601, -58873.4443632894, 187500.0, -38723.90553044147, -41625.72075435171, 0.768, -0.656, 0.17200000000000001, 192.0, 0.0, 0.0, 0.0, 0.0, 0.0, 0.0, 0.0, 0.0, 0.0, 1.6635917330309677E9, 0.0, 2022-09-19 17:48:53.030
158.0, -42900.843072038064, -35608.832312683146, -46101.27760187121, -41684.371731802436, -58826.751569122265, 187500.0, -38949.12170757314, -41573.82000372648, 0.768, -0.656, 0.17200000000000001, 192.0, 0.0, 0.0, 0.0, 0.0, 0.0, 0.0, 0.0, 0.0, 0.0, 1.663591733034972E9, 0.0, 2022-09-19 17:48:53.034
159.0, -42890.225993421795, -35598.99754512281, -46069.985159633776, -41678.76144394415, -58810.72536834781, 187500.0, -38887.69911380996, -41583.900640475826, 0.768, -0.664, 0.166, 192.0, 24.0, 0.0, 235.0, 64.0, 5.0, 48.0, 0.0, 0.0, 0.0, 1.6635917330389128E9, 0.0, 2022-09-19 17:48:53.038
160.0, -42867.80719373312, -35623.025670412266, -46061.42444150739, -41707.3940285914, -58829.8361098571, 187500.0, -38721.80446646267, -41624.67022236231, 0.768, -0.664, 0.166, 192.0, 0.0, 0.0, 0.0, 0.0, 0.0, 0.0, 0.0, 0.0, 0.0, 1.6635917330440664E9, 0.0, 2022-09-19 17:48:53.044
161.0, -42869.97531294529, -35644.08101368917, -46080.37872080549, -41755.383223936944, -58873.46671503386, 187500.0, -38544.84570561, -41678.44851952178, 0.768, -0.664, 0.166, 192.0, 0.0, 0.0, 0.0, 0.0, 0.0, 0.0, 0.0, 0.0, 0.0, 1.663591733046975E9, 0.0, 2022-09-19 17:48:53.046
162.0, -42906.11808372952, -35623.919740190475, -46120.58950908059, -41741.72630807475, -58878.94289242541, 187500.0, -38734.23203637982, -41641.165809770326, 0.768, -0.664, 0.166, 192.0, 0.0, 0.0, 0.0, 0.0, 0.0, 0.0, 0.0, 0.0, 0.0, 1.6635917330509489E9, 0.0, 2022-09-19 17:48:53.050
163.0, -42900.843072038064, -35599.64574571201, -46106.485558329296, -41690.49610978319, -58830.70782789086, 187500.0, -38949.74755641789, -41580.056140429515, 0.768, -0.664, 0.166, 192.0, 0.0, 0.0, 0.0, 0.0, 0.0, 0.0, 0.0, 0.0, 0.0, 1.6635917330549543E9, 0.0, 2022-09-19 17:48:53.054
164.0, -42892.34940914505, -35598.61756546707, -46078.32236031561, -41684.12586261343, -58811.77590033721, 187500.0, -38889.107273710644, -41591.70139929073, 0.768, -0.664, 0.166, 192.0, 0.0, 0.0, 0.0, 0.0, 0.0, 0.0, 0.0, 0.0, 0.0, 1.66359173305897E9, 0.0, 2022-09-19 17:48:53.058
165.0, -42872.59046704656, -35596.56120497718, -46061.89382814096, -41706.11997915745, -58824.717560376834, 187500.0, -38721.04450715119, -41624.580815384485, 0.768, -0.664, 0.166, 192.0, 0.0, 0.0, 0.0, 0.0, 0.0, 0.0, 0.0, 0.0, 0.0, 1.663591733062971E9, 0.0, 2022-09-19 17:48:53.062
166.0, -42871.02584493469, -35585.899422872, -46069.64988346695, -41739.33467141804, -58856.83701715911, 187500.0, -38549.18194403433, -41660.947103613275, 0.768, -0.664, 0.166, 192.0, 0.0, 0.0, 0.0, 0.0, 0.0, 0.0, 0.0, 0.0, 0.0, 1.6635917330670176E9, 0.0, 2022-09-19 17:48:53.067
167.0, -42892.952906245344, -35594.68365844293, -46107.7819595077, -41722.97319447675, -58861.48618000581, 187500.0, -38735.461382324866, -41624.49140840667, 0.768, -0.664, 0.166, 192.0, 0.0, 0.0, 0.0, 0.0, 0.0, 0.0, 0.0, 0.0, 0.0, 1.663591733071955E9, 0.0, 2022-09-19 17:48:53.071
168.0, -42882.51464158471, -35580.78087339173, -46087.17365111991, -41680.326066056026, -58818.95081030737, 187500.0, -38938.70579465697, -41574.78112873806, 0.768, -0.664, 0.166, 192.0, 0.0, 0.0, 0.0, 0.0, 0.0, 0.0, 0.0, 0.0, 0.0, 1.6635917330750723E9, 0.0, 2022-09-19 17:48:53.075
169.0, -42861.638112263456, -35569.962629075366, -46056.64116819396, -41676.97330438773, -58798.34250191957, 187500.0, -38875.204488659445, -41582.24661138614, 0.764, -0.66, 0.168, 192.0, 23.0, 224.0, 235.0, 96.0, 5.0, 64.0, 0.0, 0.0, 0.0, 1.6635917330781405E9, 0.0, 2022-09-19 17:48:53.078
170.0, -42856.98894941675, -35575.058826811175, -46038.58095867407, -41700.867319210454, -58808.04315901318, 187500.0, -38715.36716405954, -41616.60124261394, 0.764, -0.66, 0.168, 192.0, 0.0, 0.0, 0.0, 0.0, 0.0, 0.0, 0.0, 0.0, 0.0, 1.6635917330830224E9, 0.0, 2022-09-19 17:48:53.083
171.0, -42883.162842173915, -35607.31239406019, -46056.417650749405, -41747.51540988868, -58850.62323220054, 187500.0, -38549.494868456706, -41669.619580461935, 0.764, -0.66, 0.168, 192.0, 0.0, 0.0, 0.0, 0.0, 0.0, 0.0, 0.0, 0.0, 0.0, 1.6635917330870707E9, 0.0, 2022-09-19 17:48:53.087
172.0, -42907.88387154149, -35615.403725553006, -46097.097825658064, -41730.72924980274, -58854.80300841368, 187500.0, -38754.48271685633, -41630.50402766514, 0.764, -0.66, 0.168, 192.0, 0.0, 0.0, 0.0, 0.0, 0.0, 0.0, 0.0, 0.0, 0.0, 1.6635917330911071E9, 0.0, 2022-09-19 17:48:53.091
173.0, -42887.47672885379, -35588.827501395645, -46082.61389525102, -41680.8401561785, -58809.138394491485, 187500.0, -38964.544411247305, -41573.4623758152, 0.764, -0.66, 0.168, 192.0, 0.0, 0.0, 0.0, 0.0, 0.0, 0.0, 0.0, 0.0, 0.0, 1.6635917330951064E9, 0.0, 2022-09-19 17:48:53.095
174.0, -42874.62447579199, -35581.38437049203, -46056.03767109367, -41684.48349052471, -58796.911990274435, 187500.0, -38902.92065178402, -41585.4652625877, 0.764, -0.66, 0.168, 192.0, 0.0, 0.0, 0.0, 0.0, 0.0, 0.0, 0.0, 0.0, 0.0, 1.663591733100109E9, 0.0, 2022-09-19 17:48:53.100
175.0, -42882.71580728481, -35598.79637942271, -46048.035746578666, -41722.10147644299, -58817.810871340145, 187500.0, -38740.22230389385, -41636.87427483491, 0.764, -0.66, 0.168, 192.0, 0.0, 0.0, 0.0, 0.0, 0.0, 0.0, 0.0, 0.0, 0.0, 1.663591733103152E9, 0.0, 2022-09-19 17:48:53.103
176.0, -42881.8217375066, -35607.69237371592, -46057.49053448326, -41748.70005234481, -58848.09748507709, 187500.0, -38566.03515935363, -41671.00538861816, 0.764, -0.66, 0.168, 192.0, 0.0, 0.0, 0.0, 0.0, 0.0, 0.0, 0.0, 0.0, 0.0, 1.663591733106182E9, 0.0, 2022-09-19 17:48:53.106
177.0, -42891.5223946002, -35599.51163524528, -46094.61678202353, -41718.43579035232, -58843.962412352856, 187500.0, -38774.28636244373, -41616.355373424936, 0.764, -0.66, 0.168, 192.0, 0.0, 0.0, 0.0, 0.0, 0.0, 0.0, 0.0, 0.0, 0.0, 1.6635917331110291E9, 0.0, 2022-09-19 17:48:53.111
178.0, -42873.21631589131, -35569.98498081982, -46076.757738203734, -41668.18906881679, -58795.503830373746, 187500.0, -38968.00893163788, -41560.18543960875, 0.764, -0.66, 0.168, 192.0, 0.0, 0.0, 0.0, 0.0, 0.0, 0.0, 0.0, 0.0, 0.0, 1.663591733115085E9, 0.0, 2022-09-19 17:48:53.115
179.0, -42857.301873839126, -35567.25806799628, -46047.20873203382, -41672.2347345632, -58790.27352217121, 187500.0, -38897.04214299228, -41577.686855517255, 0.768, -0.654, 0.17, 192.0, 24.0, 0.0, 235.0, 144.0, 5.0, 80.0, 0.0, 0.0, 0.0, 1.6635917331191392E9, 0.0, 2022-09-19 17:48:53.119
180.0, -42856.05017614963, -35578.99273383531, -46040.25733950822, -41701.001429677184, -58813.78755733819, 187500.0, -38724.889007197504, -41619.082286248486, 0.768, -0.654, 0.17, 192.0, 0.0, 0.0, 0.0, 0.0, 0.0, 0.0, 0.0, 0.0, 0.0, 1.66359173312312E9, 0.0, 2022-09-19 17:48:53.123
181.0, -42883.40871136293, -35604.33961204763, -46065.06777585361, -41737.72534581725, -58850.06443858915, 187500.0, -38565.27520004215, -41660.455365235255, 0.768, -0.654, 0.17, 192.0, 0.0, 0.0, 0.0, 0.0, 0.0, 0.0, 0.0, 0.0, 0.0, 1.6635917331270792E9, 0.0, 2022-09-19 17:48:53.127
182.0, -42905.98397326279, -35609.68167897245, -46103.26690712773, -41710.38916234841, -58838.59799368358, 187500.0, -38784.12113000407, -41606.98999249816, 0.768, -0.654, 0.17, 192.0, 0.0, 0.0, 0.0, 0.0, 0.0, 0.0, 0.0, 0.0, 0.0, 1.663591733131116E9, 0.0, 2022-09-19 17:48:53.131
183.0, -42879.29599038315, -35582.01021933678, -46079.32818881609, -41662.556429214055, -58787.97129249231, 187500.0, -38970.065292127765, -41556.497401773624, 0.768, -0.654, 0.17, 192.0, 0.0, 0.0, 0.0, 0.0, 0.0, 0.0, 0.0, 0.0, 0.0, 1.6635917331341496E9, 0.0, 2022-09-19 17:48:53.134
184.0, -42862.554533786126, -35570.96845757586, -46050.11445881301, -41660.34360651298, -58775.05198419714, 187500.0, -38883.452282363454, -41569.148489135325, 0.768, -0.654, 0.17, 192.0, 0.0, 0.0, 0.0, 0.0, 0.0, 0.0, 0.0, 0.0, 0.0, 1.6635917331391387E9, 0.0, 2022-09-19 17:48:53.139
185.0, -42841.00745213121, -35566.78868136271, -46033.082429538066, -41672.838231663496, -58781.22106566681, 187500.0, -38707.45464652236, -41590.18148066777, 0.768, -0.654, 0.17, 192.0, 0.0, 0.0, 0.0, 0.0, 0.0, 0.0, 0.0, 0.0, 0.0, 1.663591733143073E9, 0.0, 2022-09-19 17:48:53.143
186.0, -42860.72169074079, -35589.6992194294, -46053.60133094804, -41710.76914200415, -58820.49308067478, 187500.0, -38569.47732799975, -41634.08030677799, 0.768, -0.654, 0.17, 192.0, 0.0, 0.0, 0.0, 0.0, 0.0, 0.0, 0.0, 0.0, 0.0, 1.6635917331471555E9, 0.0, 2022-09-19 17:48:53.147
187.0, -42892.93055450089, -35603.89257715852, -46094.16974713442, -41696.39697031939, -58819.86723183003, 187500.0, -38801.19786276792, -41595.031809214575, 0.768, -0.654, 0.17, 192.0, 0.0, 0.0, 0.0, 0.0, 0.0, 0.0, 0.0, 0.0, 0.0, 1.6635917331511617E9, 0.0, 2022-09-19 17:48:53.151
188.0, -42882.64875205145, -35585.273574027255, -46074.74608120276, -41656.14147855538, -58776.19192316436, 187500.0, -38979.34126607672, -41545.90267490181, 0.768, -0.654, 0.17, 192.0, 0.0, 0.0, 0.0, 0.0, 0.0, 0.0, 0.0, 0.0, 0.0, 1.663591733155178E9, 0.0, 2022-09-19 17:48:53.155
189.0, -42863.940341942354, -35574.075350055144, -46042.984252331764, -41652.60990293144, -58763.429077080385, 187500.0, -38904.149997729066, -41557.6596924853, 0.768, -0.654, 0.17, 192.0, 0.0, 0.0, 0.0, 0.0, 0.0, 0.0, 0.0, 0.0, 0.0, 1.663591733159174E9, 0.0, 2022-09-19 17:48:53.159
190.0, -42847.780030701164, -35574.85766111108, -46025.81811259009, -41677.643856721385, -58781.8245627671, 187500.0, -38724.21845486385, -41600.396227883844, 0.774, -0.654, 0.168, 192.0, 24.0, 48.0, 235.0, 144.0, 5.0, 64.0, 0.0, 0.0, 0.0, 1.663591733162134E9, 0.0, 2022-09-19 17:48:53.162
191.0, -42872.14343215745, -35600.40570502349, -46048.25926402322, -41719.12869443044, -58826.10336853306, 187500.0, -38586.621115996975, -41644.2279987607, 0.774, -0.654, 0.168, 192.0, 0.0, 0.0, 0.0, 0.0, 0.0, 0.0, 0.0, 0.0, 0.0, 1.6635917331661987E9, 0.0, 2022-09-19 17:48:53.166
192.0, -42891.96942948931, -35601.59034747963, -46084.98318016329, -41687.83625219301, -58817.74381610678, 187500.0, -38828.0646596032, -41585.33115212097, 0.774, -0.654, 0.168, 192.0, 0.0, 0.0, 0.0, 0.0, 0.0, 0.0, 0.0, 0.0, 0.0, 1.663591733171148E9, 0.0, 2022-09-19 17:48:53.171
193.0, -42870.60116179004, -35577.450463467896, -46060.329206029084, -41640.00351905865, -58770.58163530608, 187500.0, -38992.19351913852, -41536.447886997215, 0.774, -0.654, 0.168, 192.0, 0.0, 0.0, 0.0, 0.0, 0.0, 0.0, 0.0, 0.0, 0.0, 1.6635917331752863E9, 0.0, 2022-09-19 17:48:53.175
194.0, -42865.10263265403, -35582.054922825686, -46039.58678717456, -41653.79454538757, -58771.945091717855, 187500.0, -38908.50858789785, -41564.65578849981, 0.774, -0.654, 0.168, 192.0, 0.0, 0.0, 0.0, 0.0, 0.0, 0.0, 0.0, 0.0, 0.0, 1.6635917331791792E9, 0.0, 2022-09-19 17:48:53.179
195.0, -42859.44764130684, -35582.9489926039, -46026.68983062385, -41682.87416492393, -58792.73221406129, 187500.0, -38716.10477162657, -41608.599318098946, 0.774, -0.654, 0.168, 192.0, 0.0, 0.0, 0.0, 0.0, 0.0, 0.0, 0.0, 0.0, 0.0, 1.6635917331832006E9, 0.0, 2022-09-19 17:48:53.183
196.0, -42873.48453682477, -35592.18026306394, -46049.421554734894, -41713.96544146126, -58824.27052548773, 187500.0, -38579.759130449194, -41641.56814117052, 0.774, -0.654, 0.168, 192.0, 0.0, 0.0, 0.0, 0.0, 0.0, 0.0, 0.0, 0.0, 0.0, 1.6635917331871765E9, 0.0, 2022-09-19 17:48:53.187
197.0, -42884.503946841236, -35591.28619328573, -46078.05413938214, -41676.034531120604, -58806.56794387913, 187500.0, -38849.87996219158, -41574.5129078046, 0.774, -0.654, 0.168, 192.0, 0.0, 0.0, 0.0, 0.0, 0.0, 0.0, 0.0, 0.0, 0.0, 1.6635917331901813E9, 0.0, 2022-09-19 17:48:53.190
198.0, -42857.503039539224, -35561.71483537136, -46048.50513321223, -41629.45349567574, -58756.65649851043, 187500.0, -39008.800865268815, -41524.08737231343, 0.774, -0.654, 0.168, 192.0, 0.0, 0.0, 0.0, 0.0, 0.0, 0.0, 0.0, 0.0, 0.0, 1.6635917331962142E9, 0.0, 2022-09-19 17:48:53.196
199.0, -42835.82184741758, -35549.0413962652, -46022.666516621895, -41632.71685036622, -58754.264861853706, 187500.0, -38917.069306024234, -41546.729689446656, 0.774, -0.654, 0.168, 192.0, 0.0, 0.0, 0.0, 0.0, 0.0, 0.0, 0.0, 0.0, 0.0, 1.6635917332002022E9, 0.0, 2022-09-19 17:48:53.200
200.0, -42839.398126530425, -35556.86450682455, -46009.523690882175, -41660.2318477907, -58776.571902820106, 187500.0, -38730.85692296707, -41590.94143997925, 0.772, -0.654, 0.164, 192.0, 24.0, 32.0, 235.0, 144.0, 5.0, 32.0, 0.0, 0.0, 0.0, 1.6635917332031703E9, 0.0, 2022-09-19 17:48:53.203
201.0, -42875.94322871485, -35588.64868744, -46034.87056909449, -41700.666153510356, -58819.889583574484, 187500.0, -38606.15654065091, -41632.26981547711, 0.772, -0.654, 0.164, 192.0, 0.0, 0.0, 0.0, 0.0, 0.0, 0.0, 0.0, 0.0, 0.0, 1.6635917332092316E9, 0.0, 2022-09-19 17:48:53.209
202.0, -42895.65746732443, -35600.0033736233, -46074.00847363573, -41682.02479863463, -58823.532917920704, 187500.0, -38862.26282861982, -41589.4662248452, 0.772, -0.654, 0.164, 192.0, 0.0, 0.0, 0.0, 0.0, 0.0, 0.0, 0.0, 0.0, 0.0, 1.6635917332122307E9, 0.0, 2022-09-19 17:48:53.212
203.0, -42866.64490302145, -35586.56997520566, -46055.3224152711, -41656.92378961132, -58796.33084491859, 187500.0, -39004.889309989136, -41560.69952973122, 0.772, -0.654, 0.164, 192.0, 0.0, 0.0, 0.0, 0.0, 0.0, 0.0, 0.0, 0.0, 0.0, 1.6635917332152517E9, 0.0, 2022-09-19 17:48:53.215
204.0, -42844.60608298851, -35559.9937510483, -46035.74228712825, -41648.653644162856, -58787.54660934766, 187500.0, -38896.863329036634, -41564.99106466664, 0.772, -0.654, 0.164, 192.0, 0.0, 0.0, 0.0, 0.0, 0.0, 0.0, 0.0, 0.0, 0.0, 1.663591733218228E9, 0.0, 2022-09-19 17:48:53.218
205.0, -42827.12701882446, -35543.45346015137, -46049.846237879545, -41653.951007598764, -58792.553400105644, 187500.0, -38694.87061439403, -41586.29227713255, 0.772, -0.654, 0.164, 192.0, 0.0, 0.0, 0.0, 0.0, 0.0, 0.0, 0.0, 0.0, 0.0, 1.6635917332223303E9, 0.0, 2022-09-19 17:48:53.222
206.0, -42849.99285340224, -35565.22405925084, -46038.82682786308, -41686.96453415925, -58826.17042376643, 187500.0, -38577.0545693701, -41619.59637637095, 0.772, -0.654, 0.164, 192.0, 0.0, 0.0, 0.0, 0.0, 0.0, 0.0, 0.0, 0.0, 0.0, 1.6635917332272208E9, 0.0, 2022-09-19 17:48:53.227
207.0, -42881.15118517294, -35571.214326764864, -46050.38267974647, -41657.97432160072, -58815.06160677214, 187500.0, -38841.94509290995, -41564.94636117773, 0.772, -0.654, 0.164, 192.0, 0.0, 0.0, 0.0, 0.0, 0.0, 0.0, 0.0, 0.0, 0.0, 1.663591733231286E9, 0.0, 2022-09-19 17:48:53.231
208.0, -42843.66730972139, -35537.91022752646, -46028.880301580466, -41614.120198979406, -58771.16278066192, 187500.0, -38970.44527178351, -41523.26035776858, 0.772, -0.654, 0.164, 192.0, 0.0, 0.0, 0.0, 0.0, 0.0, 0.0, 0.0, 0.0, 0.0, 1.6635917332353067E9, 0.0, 2022-09-19 17:48:53.235
209.0, -42819.32626000956, -35532.65756757946, -46005.187452457845, -41624.26789096212, -58768.949957960845, 187500.0, -38877.149090427054, -41544.628625467856, 0.772, -0.654, 0.164, 192.0, 0.0, 0.0, 0.0, 0.0, 0.0, 0.0, 0.0, 0.0, 0.0, 1.663591733239354E9, 0.0, 2022-09-19 17:48:53.239
210.0, -42824.444809489825, -35550.47190791034, -46001.18649020034, -41658.26489427863, -58790.050004726654, 187500.0, -38685.885213122994, -41590.80732951252, 0.772, -0.652, 0.166, 192.0, 24.0, 32.0, 235.0, 160.0, 5.0, 48.0, 0.0, 0.0, 0.0, 1.6635917332432876E9, 0.0, 2022-09-19 17:48:53.243
211.0, -42850.95397841382, -35578.702161157395, -46031.808380104114, -41693.91592668485, -58833.8370721146, 187500.0, -38572.31599954558, -41623.552635139546, 0.772, -0.652, 0.166, 192.0, 0.0, 0.0, 0.0, 0.0, 0.0, 0.0, 0.0, 0.0, 0.0, 1.66359173324632E9, 0.0, 2022-09-19 17:48:53.246
212.0, -42864.00739717572, -35574.90236459999, -46063.95018863084, -41654.84507737697, -58816.760339350745, 187500.0, -38834.524313750786, -41561.14656462033, 0.772, -0.652, 0.166, 192.0, 0.0, 0.0, 0.0, 0.0, 0.0, 0.0, 0.0, 0.0, 0.0, 1.6635917332503371E9, 0.0, 2022-09-19 17:48:53.250
213.0, -42847.53416151216, -35552.57297188914, -46073.002645135246, -41620.15516998234, -58778.53885633217, 187500.0, -38970.60173399469, -41526.61311943688, 0.772, -0.652, 0.166, 192.0, 0.0, 0.0, 0.0, 0.0, 0.0, 0.0, 0.0, 0.0, 0.0, 1.663591733255351E9, 0.0, 2022-09-19 17:48:53.255
214.0, -42839.62164397498, -35547.81205032016, -46096.1814041354, -41633.677975377796, -58780.058774955134, 187500.0, -38882.804081774244, -41550.86476217089, 0.772, -0.652, 0.166, 192.0, 0.0, 0.0, 0.0, 0.0, 0.0, 0.0, 0.0, 0.0, 0.0, 1.663591733259341E9, 0.0, 2022-09-19 17:48:53.259
215.0, -42841.74505969823, -35560.55254465968, -45998.57133609907, -41664.07634783701, -58798.70012983085, 187500.0, -38681.88425086549, -41596.75289353763, 0.772, -0.652, 0.166, 192.0, 0.0, 0.0, 0.0, 0.0, 0.0, 0.0, 0.0, 0.0, 0.0, 1.6635917332633443E9, 0.0, 2022-09-19 17:48:53.263
216.0, -42858.64297850645, -35579.86445186907, -46001.611173344994, -41691.568993517045, -58832.25009825827, 187500.0, -38590.35385732101, -41622.41269617232, 0.772, -0.652, 0.166, 192.0, 0.0, 0.0, 0.0, 0.0, 0.0, 0.0, 0.0, 0.0, 0.0, 1.6635917332672975E9, 0.0, 2022-09-19 17:48:53.267
217.0, -42868.209525133316, -35571.41549246496, -46051.679080924885, -41650.08415580799, -58812.33469394859, 187500.0, -38875.763282270826, -41554.77631745057, 0.772, -0.652, 0.166, 192.0, 0.0, 0.0, 0.0, 0.0, 0.0, 0.0, 0.0, 0.0, 0.0, 1.6635917332704127E9, 0.0, 2022-09-19 17:48:53.270
218.0, -42839.17460908587, -35544.28047469622, -46028.43326669136, -41609.0240012436, -58767.050059682144, 187500.0, -39010.70076354752, -41513.82792160844, 0.772, -0.652, 0.166, 192.0, 0.0, 0.0, 0.0, 0.0, 0.0, 0.0, 0.0, 0.0, 0.0, 1.6635917332743623E9, 0.0, 2022-09-19 17:48:53.274
219.0, -42826.970556613276, -35534.512762369246, -46018.68790610885, -41614.67899259079, -58767.49709457125, 187500.0, -38918.835093836205, -41536.06790734147, 0.772, -0.652, 0.166, 192.0, 0.0, 0.0, 0.0, 0.0, 0.0, 0.0, 0.0, 0.0, 0.0, 1.663591733280362E9, 0.0, 2022-09-19 17:48:53.280
220.0, -42825.85296939051, -35544.68280609641, -46021.14659799893, -41646.418469717326, -58788.68654831488, 187500.0, -38717.691745482894, -41582.76070150861, 0.774, -0.658, 0.166, 192.0, 24.0, 48.0, 235.0, 112.0, 5.0, 48.0, 0.0, 0.0, 0.0, 1.6635917332843812E9, 0.0, 2022-09-19 17:48:53.284
221.0, -42854.19498135984, -35575.30469600018, -46014.552833384616, -41680.527231756125, -58826.37158946653, 187500.0, -38624.46261935981, -41615.28248969108, 0.774, -0.658, 0.166, 192.0, 0.0, 0.0, 0.0, 0.0, 0.0, 0.0, 0.0, 0.0, 0.0, 1.6635917332873356E9, 0.0, 2022-09-19 17:48:53.287
222.0, -42885.66623755291, -35579.03743732422, -46042.24664476474, -41645.4796964502, -58813.09465326007, 187500.0, -38911.347259443675, -41555.245704084125, 0.774, -0.658, 0.166, 192.0, 0.0, 0.0, 0.0, 0.0, 0.0, 0.0, 0.0, 0.0, 0.0, 1.663591733292374E9, 0.0, 2022-09-19 17:48:53.292
223.0, -42855.64784474944, -35543.92284678493, -46008.316696681584, -41591.99197196865, -58760.121018900994, 187500.0, -39001.71536227648, -41504.86487208186, 0.774, -0.658, 0.166, 192.0, 0.0, 0.0, 0.0, 0.0, 0.0, 0.0, 0.0, 0.0, 0.0, 1.663591733297397E9, 0.0, 2022-09-19 17:48:53.297
224.0, -42812.59838492851, -35527.00257623227, -45982.65689404689, -41588.84037600045, -58749.70510598482, 187500.0, -38879.49602359486, -41514.78904662002, 0.774, -0.658, 0.166, 192.0, 0.0, 0.0, 0.0, 0.0, 0.0, 0.0, 0.0, 0.0, 0.0, 1.6635917333003817E9, 0.0, 2022-09-19 17:48:53.300
225.0, -42817.582823942044, -35545.353358430075, -45980.10879517899, -41632.225111988206, -58777.28715864267, 187500.0, -38675.69281765137, -41571.875401958874, 0.774, -0.658, 0.166, 192.0, 0.0, 0.0, 0.0, 0.0, 0.0, 0.0, 0.0, 0.0, 0.0, 1.663591733303368E9, 0.0, 2022-09-19 17:48:53.303
226.0, -42856.69837673884, -35581.764350147765, -46014.08344675106, -41676.258048565156, -58819.26373472974, 187500.0, -38585.10119737401, -41611.23682394467, 0.774, -0.658, 0.166, 192.0, 0.0, 0.0, 0.0, 0.0, 0.0, 0.0, 0.0, 0.0, 0.0, 1.663591733306378E9, 0.0, 2022-09-19 17:48:53.306
227.0, -42885.10744394153, -35592.51553923077, -46051.99200534725, -41648.94421684077, -58810.79242358118, 187500.0, -38862.93338095348, -41559.87251518638, 0.774, -0.658, 0.166, 192.0, 0.0, 0.0, 0.0, 0.0, 0.0, 0.0, 0.0, 0.0, 0.0, 1.6635917333105254E9, 0.0, 2022-09-19 17:48:53.310
228.0, -42853.99381565974, -35565.358169717576, -46018.665554364394, -41607.01234424262, -58768.34646086055, 187500.0, -38954.8437541537, -41518.85706411089, 0.774, -0.658, 0.166, 192.0, 0.0, 0.0, 0.0, 0.0, 0.0, 0.0, 0.0, 0.0, 0.0, 1.663591733315424E9, 0.0, 2022-09-19 17:48:53.315
229.0, -42839.48753350825, -35546.00155901928, -45995.77736804216, -41608.509911121124, -58765.619548037, 187500.0, -38845.566075511706, -41529.384735749336, 0.774, -0.658, 0.166, 192.0, 0.0, 0.0, 0.0, 0.0, 0.0, 0.0, 0.0, 0.0, 0.0, 1.6635917333194396E9, 0.0, 2022-09-19 17:48:53.319
230.0, -42844.024937632676, -35558.339721958604, -46008.78608331515, -41652.16286804234, -58797.09080423007, 187500.0, -38642.38871841296, -41586.85107074393, 0.776, -0.654, 0.162, 192.0, 24.0, 64.0, 235.0, 144.0, 5.0, 16.0, 0.0, 0.0, 0.0, 1.663591733323436E9, 0.0, 2022-09-19 17:48:53.323
231.0, -42864.47678380928, -35596.04711485471, -46097.656619269444, -41693.044208651096, -58839.44735997288, 187500.0, -38586.956392163804, -41620.84807406045, 0.776, -0.654, 0.162, 192.0, 0.0, 0.0, 0.0, 0.0, 0.0, 0.0, 0.0, 0.0, 0.0, 1.66359173332641E9, 0.0, 2022-09-19 17:48:53.326
232.0, -42869.17065014489, -35570.76729187576, -46080.199906849855, -41650.50883895264, -58814.54751664967, 187500.0, -38865.43677633248, -41552.31762556048, 0.776, -0.654, 0.162, 192.0, 0.0, 0.0, 0.0, 0.0, 0.0, 0.0, 0.0, 0.0, 0.0, 1.6635917333305447E9, 0.0, 2022-09-19 17:48:53.330
233.0, -42843.28733006565, -35535.36212865855, -45996.023237231166, -41613.4719983902, -58770.425173094896, 187500.0, -38945.880704627125, -41520.913424600774, 0.776, -0.654, 0.162, 192.0, 0.0, 0.0, 0.0, 0.0, 0.0, 0.0, 0.0, 0.0, 0.0, 1.6635917333345006E9, 0.0, 2022-09-19 17:48:53.334
234.0, -42848.89761792393, -35538.46902113784, -46010.2612984492, -41628.4253154308, -58776.86247549802, 187500.0, -38842.95092141043, -41542.371099277865, 0.776, -0.654, 0.162, 192.0, 0.0, 0.0, 0.0, 0.0, 0.0, 0.0, 0.0, 0.0, 0.0, 1.6635917333384635E9, 0.0, 2022-09-19 17:48:53.338
235.0, -42850.77516445818, -35548.12497474253, -46077.27182832621, -41661.10356582446, -58807.70788284635, 187500.0, -38649.60833187203, -41586.627553299375, 0.776, -0.654, 0.162, 192.0, 0.0, 0.0, 0.0, 0.0, 0.0, 0.0, 0.0, 0.0, 0.0, 1.6635917333434453E9, 0.0, 2022-09-19 17:48:53.343
236.0, -42856.5642662721, -35574.365922733065, -46110.84414849808, -41689.333819071515, -58843.85065363058, 187500.0, -38602.15557839341, -41615.081323990984, 0.776, -0.654, 0.162, 192.0, 0.0, 0.0, 0.0, 0.0, 0.0, 0.0, 0.0, 0.0, 0.0, 1.6635917333475304E9, 0.0, 2022-09-19 17:48:53.347
237.0, -42870.444699578846, -35574.500033199794, -46090.50406104375, -41648.05014706256, -58816.53682190619, 187500.0, -38886.246250420365, -41555.22335233967, 0.776, -0.654, 0.162, 192.0, 0.0, 0.0, 0.0, 0.0, 0.0, 0.0, 0.0, 0.0, 0.0, 1.6635917333515224E9, 0.0, 2022-09-19 17:48:53.351
238.0, -42842.10268760952, -35542.89466653999, -45969.89404796292, -41609.89571927735, -58771.76627776221, 187500.0, -38934.59307367719, -41522.522750201555, 0.776, -0.654, 0.162, 192.0, 0.0, 0.0, 0.0, 0.0, 0.0, 0.0, 0.0, 0.0, 0.0, 1.6635917333544593E9, 0.0, 2022-09-19 17:48:53.354
239.0, -42830.09980083702, -35536.14443971449, -45972.330388108545, -41622.59151012797, -58773.912045229925, 187500.0, -38818.699278676424, -41548.249608069615, 0.776, -0.654, 0.162, 192.0, 0.0, 0.0, 0.0, 0.0, 0.0, 0.0, 0.0, 0.0, 0.0, 1.6635917333584604E9, 0.0, 2022-09-19 17:48:53.358
240.0, -42836.29123405114, -35551.34362594409, -45987.90955399389, -41667.160888571845, -58803.885734544485, 187500.0, -38612.8620639875, -41602.87727151839, 0.766, -0.656, 0.16, 192.0, 23.0, 240.0, 235.0, 128.0, 5.0, 0.0, 0.0, 0.0, 0.0, 1.6635917333644876E9, 0.0, 2022-09-19 17:48:53.364
241.0, -42871.89756296844, -35581.004390836286, -46033.46240919381, -41701.001429677184, -58847.02460134323, 187500.0, -38590.935002676844, -41631.10752476544, 0.766, -0.656, 0.16, 192.0, 0.0, 0.0, 0.0, 0.0, 0.0, 0.0, 0.0, 0.0, 0.0, 1.6635917333685117E9, 0.0, 2022-09-19 17:48:53.368
242.0, -42880.05594969463, -35574.41062622197, -46061.670310696405, -41655.33681575499, -58821.431853941904, 187500.0, -38885.687456808984, -41564.76754722209, 0.766, -0.656, 0.16, 192.0, 0.0, 0.0, 0.0, 0.0, 0.0, 0.0, 0.0, 0.0, 0.0, 1.6635917333725889E9, 0.0, 2022-09-19 17:48:53.372
243.0, -42848.562341757104, -35546.44859390838, -46051.90259836944, -41624.178483984295, -58784.886751757476, 187500.0, -38948.65232093958, -41540.001814365605, 0.766, -0.656, 0.16, 192.0, 0.0, 0.0, 0.0, 0.0, 0.0, 0.0, 0.0, 0.0, 0.0, 1.663591733375536E9, 0.0, 2022-09-19 17:48:53.375
244.0, -42844.69548996633, -35549.30961719866, -46033.73063012727, -41637.18719925728, -58788.19480993686, 187500.0, -38827.662328203005, -41567.31564608999, 0.766, -0.656, 0.16, 192.0, 0.0, 0.0, 0.0, 0.0, 0.0, 0.0, 0.0, 0.0, 0.0, 1.6635917333796167E9, 0.0, 2022-09-19 17:48:53.379
245.0, -42840.5604172421, -35554.96460854585, -46010.23894670474, -41666.98207461621, -58804.46687990033, 187500.0, -38613.01852619869, -41610.02982974408, 0.766, -0.656, 0.16, 192.0, 0.0, 0.0, 0.0, 0.0, 0.0, 0.0, 0.0, 0.0, 0.0, 1.6635917333825324E9, 0.0, 2022-09-19 17:48:53.382
246.0, -42870.28823736766, -35581.0490943252, -46048.661595423415, -41692.95480167327, -58843.87300537503, 187500.0, -38588.006924153204, -41627.64300437486, 0.766, -0.656, 0.16, 192.0, 0.0, 0.0, 0.0, 0.0, 0.0, 0.0, 0.0, 0.0, 0.0, 1.6635917333865345E9, 0.0, 2022-09-19 17:48:53.386
247.0, -42889.01899922121, -35585.13946356052, -46049.846237879545, -41649.257141263144, -58815.59804863907, 187500.0, -38877.1267386826, -41557.39147155183, 0.766, -0.656, 0.16, 192.0, 0.0, 0.0, 0.0, 0.0, 0.0, 0.0, 0.0, 0.0, 0.0, 1.6635917333905575E9, 0.0, 2022-09-19 17:48:53.390
248.0, -42859.35823432902, -35558.27266672524, -46017.30209795262, -41618.41173391482, -58772.3250713736, 187500.0, -38927.909902085055, -41534.57034046297, 0.766, -0.656, 0.16, 192.0, 0.0, 0.0, 0.0, 0.0, 0.0, 0.0, 0.0, 0.0, 0.0, 1.6635917333945394E9, 0.0, 2022-09-19 17:48:53.394
249.0, -42844.516676010695, -35550.874239310535, -45998.97366749927, -41629.766420098116, -58772.369774862505, 187500.0, -38804.21534826939, -41560.900695431315, 0.766, -0.656, 0.16, 192.0, 0.0, 0.0, 0.0, 0.0, 0.0, 0.0, 0.0, 0.0, 0.0, 1.6635917333995533E9, 0.0, 2022-09-19 17:48:53.399
250.0, -42837.8111526741, -35553.06471026716, -45991.9552197403, -41657.728452411706, -58795.30266467365, 187500.0, -38592.74549397773, -41603.681934318774, 0.768, -0.658, 0.164, 192.0, 24.0, 0.0, 235.0, 112.0, 5.0, 32.0, 0.0, 0.0, 0.0, 1.6635917334035792E9, 0.0, 2022-09-19 17:48:53.403
251.0, -42857.32422558359, -35571.95193433189, -46028.656784135914, -41679.56610674454, -58828.24913600077, 187500.0, -38580.34027580503, -41615.28248969108, 0.768, -0.658, 0.164, 192.0, 0.0, 0.0, 0.0, 0.0, 0.0, 0.0, 0.0, 0.0, 0.0, 1.66359173340763E9, 0.0, 2022-09-19 17:48:53.407
252.0, -42880.39122586146, -35571.9966378208, -46051.00852859122, -41635.846094589964, -58799.79536530917, 187500.0, -38871.06941593521, -41552.451736027215, 0.768, -0.658, 0.164, 192.0, 0.0, 0.0, 0.0, 0.0, 0.0, 0.0, 0.0, 0.0, 0.0, 1.6635917334105537E9, 0.0, 2022-09-19 17:48:53.410
253.0, -42852.697414481336, -35550.42720442143, -46020.431342176365, -41607.86171053192, -58764.30079511414, 187500.0, -38914.74472460088, -41532.312814272984, 0.768, -0.658, 0.164, 192.0, 0.0, 0.0, 0.0, 0.0, 0.0, 0.0, 0.0, 0.0, 0.0, 1.66359173341457E9, 0.0, 2022-09-19 17:48:53.414
254.0, -42824.91419612339, -35533.104602468564, -46000.11360646649, -41623.28441420608, -58769.151123660944, 187500.0, -38793.73238011985, -41559.73840471964, 0.768, -0.658, 0.164, 192.0, 0.0, 0.0, 0.0, 0.0, 0.0, 0.0, 0.0, 0.0, 0.0, 1.663591733418598E9, 0.0, 2022-09-19 17:48:53.418
255.0, -42836.604158473514, -35555.36693994605, -46001.67822857836, -41670.245429306684, -58804.73510083379, 187500.0, -38597.19349112434, -41622.81502757252, 0.768, -0.658, 0.164, 192.0, 0.0, 0.0, 0.0, 0.0, 0.0, 0.0, 0.0, 0.0, 0.0, 1.663591733422634E9, 0.0, 2022-09-19 17:48:53.422
0.0, -42878.49132758276, -35592.02380085275, -46046.31466225561, -41701.51551979966, -58849.483293233316, 187500.0, -38598.53459579165, -41645.18912377228, 0.768, -0.658, 0.164, 192.0, 0.0, 0.0, 0.0, 0.0, 0.0, 0.0, 0.0, 0.0, 0.0, 1.6635917334266987E9, 0.0, 2022-09-19 17:48:53.426
1.0, -42895.99274349127, -35592.49318748632, -46065.0230723647, -41663.182278058805, -58832.11598779154, 187500.0, -38892.0800557232, -41579.54205030704, 0.768, -0.658, 0.164, 192.0, 0.0, 0.0, 0.0, 0.0, 0.0, 0.0, 0.0, 0.0, 0.0, 1.6635917334316206E9, 0.0, 2022-09-19 17:48:53.431
2.0, -42852.80917320361, -35554.07053876764, -46022.33124045506, -41622.211530472225, -58788.21716168132, 187500.0, -38922.21020724895, -41543.08635510044, 0.768, -0.658, 0.164, 192.0, 0.0, 0.0, 0.0, 0.0, 0.0, 0.0, 0.0, 0.0, 0.0, 1.6635917334346104E9, 0.0, 2022-09-19 17:48:53.434
3.0, -42834.74896368372, -35550.20368697688, -46011.49064439424, -41632.76155385513, -58794.16272570643, 187500.0, -38801.667249401486, -41569.52846879107, 0.768, -0.658, 0.164, 192.0, 0.0, 0.0, 0.0, 0.0, 0.0, 0.0, 0.0, 0.0, 0.0, 1.6635917334396052E9, 0.0, 2022-09-19 17:48:53.439
4.0, -42834.458391005806, -35560.88782082651, -46012.71999033928, -41664.18810655929, -58816.87209807302, 187500.0, -38592.99136316674, -41618.09880949245, 0.774, -0.658, 0.154, 192.0, 24.0, 48.0, 235.0, 112.0, 4.0, 208.0, 0.0, 0.0, 0.0, 1.663591733442619E9, 0.0, 2022-09-19 17:48:53.442
5.0, -42867.941304199856, -35586.90525137249, -46045.2194267773, -41681.510708512156, -58843.91770886394, 187500.0, -38602.334392349054, -41625.0278502736, 0.774, -0.658, 0.154, 192.0, 0.0, 0.0, 0.0, 0.0, 0.0, 0.0, 0.0, 0.0, 0.0, 1.6635917334466803E9, 0.0, 2022-09-19 17:48:53.446
6.0, -42883.162842173915, -35585.31827751616, -46057.825810650094, -41642.95394932675, -58816.51447016174, 187500.0, -38891.498910367365, -41565.34869257792, 0.774, -0.658, 0.154, 192.0, 0.0, 0.0, 0.0, 0.0, 0.0, 0.0, 0.0, 0.0, 0.0, 1.6635917334506507E9, 0.0, 2022-09-19 17:48:53.450
7.0, -42863.5156587977, -35569.605001164084, -46025.19226374534, -41625.005498529135, -58785.80317328015, 187500.0, -38921.5843584042, -41552.854067427405, 0.774, -0.658, 0.154, 192.0, 0.0, 0.0, 0.0, 0.0, 0.0, 0.0, 0.0, 0.0, 0.0, 1.66359173345463E9, 0.0, 2022-09-19 17:48:53.454
8.0, -42831.776181671165, -35552.75178584478, -45998.52663261016, -41623.1726554838, -58774.40378360794, 187500.0, -38780.45544391339, -41559.73840471964, 0.774, -0.658, 0.154, 192.0, 0.0, 0.0, 0.0, 0.0, 0.0, 0.0, 0.0, 0.0, 0.0, 1.663591733459687E9, 0.0, 2022-09-19 17:48:53.459
9.0, -42817.51576870868, -35547.230904964315, -45987.775443527156, -41650.15121104136, -58794.72151931781, 187500.0, -38559.709615672786, -41601.245594173146, 0.774, -0.658, 0.154, 192.0, 0.0, 0.0, 0.0, 0.0, 0.0, 0.0, 0.0, 0.0, 0.0, 1.6635917334626987E9, 0.0, 2022-09-19 17:48:53.462
10.0, -42861.25813260772, -35571.32608548714, -46037.128095284475, -41682.404778290365, -58837.8380343721, 187500.0, -38598.26637485819, -41620.602204871444, 0.774, -0.658, 0.154, 192.0, 0.0, 0.0, 0.0, 0.0, 0.0, 0.0, 0.0, 0.0, 0.0, 1.6635917334666677E9, 0.0, 2022-09-19 17:48:53.466
11.0, -42885.15214743044, -35575.841137867115, -46064.24076130876, -41652.4310889758, -58821.47655743081, 187500.0, -38903.45709365095, -41571.62953276987, 0.774, -0.658, 0.154, 192.0, 0.0, 0.0, 0.0, 0.0, 0.0, 0.0, 0.0, 0.0, 0.0, 1.6635917334706745E9, 0.0, 2022-09-19 17:48:53.470
12.0, -42857.88301919497, -35552.952951544874, -46033.79768536064, -41627.08421076348, -58792.37458615001, 187500.0, -38926.45703869546, -41554.306930817, 0.774, -0.658, 0.154, 192.0, 0.0, 0.0, 0.0, 0.0, 0.0, 0.0, 0.0, 0.0, 0.0, 1.663591733474739E9, 0.0, 2022-09-19 17:48:53.474
13.0, -42829.29513803663, -35541.21828570584, -46006.97559201427, -41624.156132239834, -58788.59714133706, 187500.0, -38781.81890032517, -41565.28163734456, 0.774, -0.658, 0.154, 192.0, 0.0, 0.0, 0.0, 0.0, 0.0, 0.0, 0.0, 0.0, 0.0, 1.6635917334787107E9, 0.0, 2022-09-19 17:48:53.478
14.0, -42831.46325724879, -35565.78285286223, -45996.31380990909, -41659.337778012494, -58820.7836533527, 187500.0, -38559.262580783674, -41617.85294030344, 0.784, -0.66, 0.158, 192.0, 24.0, 128.0, 235.0, 96.0, 4.0, 240.0, 0.0, 0.0, 0.0, 1.6635917334827287E9, 0.0, 2022-09-19 17:48:53.482
15.0, -42876.23380139277, -35593.36490552007, -46049.53331345717, -41687.81390044855, -58865.73301145232, 187500.0, -38615.410162855405, -41636.36018471244, 0.784, -0.66, 0.158, 192.0, 0.0, 0.0, 0.0, 0.0, 0.0, 0.0, 0.0, 0.0, 0.0, 1.6635917334867153E9, 0.0, 2022-09-19 17:48:53.486
16.0, -42881.8217375066, -35565.67109413995, -46062.229104307786, -41645.18912377228, -58833.658258158954, 187500.0, -38908.329773942205, -41570.08726240245, 0.784, -0.66, 0.158, 192.0, 0.0, 0.0, 0.0, 0.0, 0.0, 0.0, 0.0, 0.0, 0.0, 1.6635917334907053E9, 0.0, 2022-09-19 17:48:53.490
17.0, -42845.43309753336, -35532.12112571253, -46026.89099632395, -41615.90833853583, -58795.01209199573, 187500.0, -38919.84092233669, -41544.65097721231, 0.784, -0.66, 0.158, 192.0, 0.0, 0.0, 0.0, 0.0, 0.0, 0.0, 0.0, 0.0, 0.0, 1.6635917334937923E9, 0.0, 2022-09-19 17:48:53.493
18.0, -42842.683832965355, -35541.93354152841, -45996.58203084255, -41637.12014402392, -58807.99845552426, 187500.0, -38798.67211564447, -41576.479861316664, 0.784, -0.66, 0.158, 192.0, 0.0, 0.0, 0.0, 0.0, 0.0, 0.0, 0.0, 0.0, 0.0, 1.6635917334986987E9, 0.0, 2022-09-19 17:48:53.498
19.0, -42855.49138253825, -35576.42228322295, -45998.79485354362, -41685.35520855847, -58845.72820016482, 187500.0, -38591.426741054864, -41641.34462372597, 0.784, -0.66, 0.158, 192.0, 0.0, 0.0, 0.0, 0.0, 0.0, 0.0, 0.0, 0.0, 0.0, 1.6635917335028102E9, 0.0, 2022-09-19 17:48:53.502
20.0, -42859.134716884466, -35577.60692567908, -46038.670365651895, -41685.82459519203, -58862.00027012829, 187500.0, -38627.32364265009, -41627.5759491415, 0.784, -0.66, 0.158, 192.0, 0.0, 0.0, 0.0, 0.0, 0.0, 0.0, 0.0, 0.0, 0.0, 1.6635917335067935E9, 0.0, 2022-09-19 17:48:53.506
21.0, -42874.60212404754, -35548.79552707619, -46047.70047041184, -41634.01325154463, -58824.136415021, 187500.0, -38914.85648332316, -41554.061061627996, 0.784, -0.66, 0.158, 192.0, 0.0, 0.0, 0.0, 0.0, 0.0, 0.0, 0.0, 0.0, 0.0, 1.6635917335107558E9, 0.0, 2022-09-19 17:48:53.510
22.0, -42846.43892603385, -35535.74210831429, -46017.59267063054, -41620.37868742689, -58801.60585661005, 187500.0, -38923.685422383, -41552.04940462702, 0.784, -0.66, 0.158, 192.0, 0.0, 0.0, 0.0, 0.0, 0.0, 0.0, 0.0, 0.0, 0.0, 1.6635917335157905E9, 0.0, 2022-09-19 17:48:53.515
23.0, -42823.260167033695, -35530.46709662284, -46001.03002798915, -41637.030737046094, -58808.087862502085, 187500.0, -38783.74115034832, -41581.21843114119, 0.784, -0.66, 0.158, 192.0, 0.0, 0.0, 0.0, 0.0, 0.0, 0.0, 0.0, 0.0, 0.0, 1.6635917335188591E9, 0.0, 2022-09-19 17:48:53.518
24.0, -42832.29027179364, -35548.30378869818, -46000.65004833342, -41675.87806890942, -58831.40073196897, 187500.0, -38573.56769723508, -41629.94523405376, 0.772, -0.654, 0.162, 192.0, 24.0, 32.0, 235.0, 144.0, 5.0, 16.0, 0.0, 0.0, 0.0, 1.6635917335217948E9, 0.0, 2022-09-19 17:48:53.521
25.0, -42873.48453682477, -35575.617620422556, -46050.65090067994, -41690.04907489408, -58859.11689509355, 187500.0, -38652.469355162306, -41622.85973106143, 0.772, -0.654, 0.162, 192.0, 0.0, 0.0, 0.0, 0.0, 0.0, 0.0, 0.0, 0.0, 0.0, 1.6635917335278423E9, 0.0, 2022-09-19 17:48:53.527
26.0, -42873.90921996942, -35558.02679753623, -46055.63533969347, -41636.47194343471, -58818.727292862815, 187500.0, -38935.01775682184, -41553.81519243899, 0.772, -0.654, 0.162, 192.0, 0.0, 0.0, 0.0, 0.0, 0.0, 0.0, 0.0, 0.0, 0.0, 1.6635917335308108E9, 0.0, 2022-09-19 17:48:53.530
27.0, -42835.53127473966, -35531.47292512333, -46018.12911249747, -41618.47878914819, -58791.05583322714, 187500.0, -38922.07609678222, -41548.741346447634, 0.772, -0.654, 0.162, 192.0, 0.0, 0.0, 0.0, 0.0, 0.0, 0.0, 0.0, 0.0, 0.0, 1.6635917335348878E9, 0.0, 2022-09-19 17:48:53.534
28.0, -42823.61779494498, -35533.93161701341, -46003.48871987924, -41636.65075739035, -58798.45426064185, 187500.0, -38781.97536253636, -41582.06779743049, 0.772, -0.654, 0.162, 192.0, 0.0, 0.0, 0.0, 0.0, 0.0, 0.0, 0.0, 0.0, 0.0, 1.6635917335408E9, 0.0, 2022-09-19 17:48:53.540
29.0, -42831.95499562681, -35553.08706201161, -46002.43818788984, -41672.50295549667, -58825.87985108851, 187500.0, -38573.612400723985, -41633.43210618879, 0.772, -0.654, 0.162, 192.0, 0.0, 0.0, 0.0, 0.0, 0.0, 0.0, 0.0, 0.0, 0.0, 1.6635917335438166E9, 0.0, 2022-09-19 17:48:53.543
30.0, -42875.272676381195, -35582.121978059055, -46049.153333801434, -41687.165699859346, -58856.188816569906, 187500.0, -38656.872648820005, -41632.426277688304, 0.772, -0.654, 0.162, 192.0, 0.0, 0.0, 0.0, 0.0, 0.0, 0.0, 0.0, 0.0, 0.0, 1.6635917335467796E9, 0.0, 2022-09-19 17:48:53.546
31.0, -42871.852859479535, -35562.00540804928, -46047.02991807818, -41631.95689105474, -58810.30068520316, 187500.0, -38928.960434074455, -41554.530448261554, 0.772, -0.654, 0.162, 192.0, 0.0, 0.0, 0.0, 0.0, 0.0, 0.0, 0.0, 0.0, 0.0, 1.663591733549864E9, 0.0, 2022-09-19 17:48:53.549
32.0, -42837.23000731826, -35530.0871169671, -46007.64614434793, -41606.47590237569, -58773.35325161854, 187500.0, -38908.88856755359, -41539.9571108767, 0.772, -0.654, 0.162, 192.0, 0.0, 0.0, 0.0, 0.0, 0.0, 0.0, 0.0, 0.0, 0.0, 1.6635917335548775E9, 0.0, 2022-09-19 17:48:53.554
33.0, -42830.2115595593, -35531.9870152458, -45994.704484308306, -41627.93357705278, -58784.126792446, 187500.0, -38781.86360381408, -41569.55082053552, 0.772, -0.654, 0.162, 192.0, 0.0, 0.0, 0.0, 0.0, 0.0, 0.0, 0.0, 0.0, 0.0, 1.6635917335588903E9, 0.0, 2022-09-19 17:48:53.558
34.0, -42841.789763187146, -35553.48939341181, -45974.67732127635, -41667.585571716496, -58820.1354527635, 187500.0, -38584.05066538461, -41622.010364772126, 0.772, -0.654, 0.162, 192.0, 0.0, 0.0, 0.0, 0.0, 0.0, 0.0, 0.0, 0.0, 0.0, 1.6635917335628123E9, 0.0, 2022-09-19 17:48:53.562
35.0, -42889.68955155487, -35594.37073402056, -46033.23889174925, -41691.23371735022, -58865.08481086312, 187500.0, -38687.785111401696, -41633.610920144434, 0.762, -0.654, 0.166, 192.0, 23.0, 208.0, 235.0, 144.0, 5.0, 48.0, 0.0, 0.0, 0.0, 1.663591733566978E9, 0.0, 2022-09-19 17:48:53.566
36.0, -42875.87617348149, -35566.14048077351, -46043.34188024305, -41630.54873115406, -58818.995513796275, 187500.0, -38955.08962334271, -41553.926951161266, 0.762, -0.654, 0.166, 192.0, 0.0, 0.0, 0.0, 0.0, 0.0, 0.0, 0.0, 0.0, 0.0, 1.6635917335708723E9, 0.0, 2022-09-19 17:48:53.570
37.0, -42820.71206816579, -35514.15032317046, -45995.37503664196, -41583.78888175355, -58766.267748626204, 187500.0, -38921.9866898044, -41517.33714548792, 0.762, -0.654, 0.166, 192.0, 0.0, 0.0, 0.0, 0.0, 0.0, 0.0, 0.0, 0.0, 0.0, 1.6635917335749304E9, 0.0, 2022-09-19 17:48:53.574
38.0, -42812.53132969515, -35516.22903540481, -45989.4071208724, -41599.74802729464, -58772.7721062627, 187500.0, -38789.79847309572, -41548.182552836246, 0.762, -0.654, 0.166, 192.0, 0.0, 0.0, 0.0, 0.0, 0.0, 0.0, 0.0, 0.0, 0.0, 1.6635917335780082E9, 0.0, 2022-09-19 17:48:53.578
39.0, -42830.032745603654, -35547.63323636451, -45980.13114692344, -41646.19495227277, -58810.747720092266, 187500.0, -38591.44909279932, -41611.23682394467, 0.762, -0.654, 0.166, 192.0, 0.0, 0.0, 0.0, 0.0, 0.0, 0.0, 0.0, 0.0, 0.0, 1.663591733581904E9, 0.0, 2022-09-19 17:48:53.581
40.0, -42871.13760365696, -35580.33383850263, -46025.28167072316, -41663.65166469236, -58844.521205964236, 187500.0, -38700.30208829667, -41617.540015881066, 0.762, -0.654, 0.166, 192.0, 0.0, 0.0, 0.0, 0.0, 0.0, 0.0, 0.0, 0.0, 0.0, 1.6635917335869875E9, 0.0, 2022-09-19 17:48:53.586
41.0, -42865.30379835413, -35561.71483537136, -46022.82297883308, -41613.695515834755, -58802.65638859945, 187500.0, -38955.53665823182, -41552.31762556048, 0.762, -0.654, 0.166, 192.0, 0.0, 0.0, 0.0, 0.0, 0.0, 0.0, 0.0, 0.0, 0.0, 1.6635917335909283E9, 0.0, 2022-09-19 17:48:53.590
42.0, -42833.69843169433, -35532.61286409055, -45983.46155684729, -41588.0133614556, -58773.80028650764, 187500.0, -38910.162616987545, -41536.11261083038, 0.762, -0.654, 0.166, 192.0, 0.0, 0.0, 0.0, 0.0, 0.0, 0.0, 0.0, 0.0, 0.0, 1.66359173359501E9, 0.0, 2022-09-19 17:48:53.595
43.0, -42830.05509734811, -35530.98118674531, -45977.87362073346, -41602.497291862644, -58786.898408758454, 187500.0, -38761.65762682648, -41565.527506533566, 0.762, -0.654, 0.166, 192.0, 0.0, 0.0, 0.0, 0.0, 0.0, 0.0, 0.0, 0.0, 0.0, 1.663591733598936E9, 0.0, 2022-09-19 17:48:53.598
44.0, -42835.978309628765, -35555.72456785734, -45988.24483016072, -41653.63808317639, -58829.70199939037, 187500.0, -38563.73292967474, -41629.16292299783, 0.762, -0.654, 0.166, 192.0, 0.0, 0.0, 0.0, 0.0, 0.0, 0.0, 0.0, 0.0, 0.0, 1.6635917336029572E9, 0.0, 2022-09-19 17:48:53.602
45.0, -42863.873286708986, -35576.98107683433, -46027.762714357705, -41660.835344891, -58853.50660723527, 187500.0, -38685.4828817228, -41618.299975192545, 0.774, -0.654, 0.164, 192.0, 24.0, 48.0, 235.0, 144.0, 5.0, 32.0, 0.0, 0.0, 0.0, 1.6635917336059284E9, 0.0, 2022-09-19 17:48:53.605
46.0, -42845.85778067801, -35551.27657071073, -46022.085371266054, -41605.224204686194, -58805.69622584537, 187500.0, -38950.909847129566, -41550.03774762604, 0.774, -0.654, 0.164, 192.0, 0.0, 0.0, 0.0, 0.0, 0.0, 0.0, 0.0, 0.0, 0.0, 1.6635917336109283E9, 0.0, 2022-09-19 17:48:53.610
47.0, -42809.04445756012, -35527.27079716573, -45987.1048911935, -41589.55563182302, -58777.30951038713, 187500.0, -38910.564948387735, -41541.946416133214, 0.774, -0.654, 0.164, 192.0, 0.0, 0.0, 0.0, 0.0, 0.0, 0.0, 0.0, 0.0, 0.0, 1.6635917336149275E9, 0.0, 2022-09-19 17:48:53.614
48.0, -42812.33016399505, -35525.54971284267, -45976.95719921079, -41610.49921637765, -58783.23272266778, 187500.0, -38756.226152923846, -41570.04255891354, 0.774, -0.654, 0.164, 192.0, 0.0, 0.0, 0.0, 0.0, 0.0, 0.0, 0.0, 0.0, 0.0, 1.6635917336189604E9, 0.0, 2022-09-19 17:48:53.618
49.0, -42824.46716123428, -35543.7887363182, -45980.645237045916, -41649.413603474335, -58811.7311968483, 187500.0, -38552.288836513624, -41622.09977174995, 0.774, -0.654, 0.164, 192.0, 0.0, 0.0, 0.0, 0.0, 0.0, 0.0, 0.0, 0.0, 0.0, 1.6635917336229384E9, 0.0, 2022-09-19 17:48:53.622
50.0, -42868.45539432233, -35577.11518730107, -46029.863778336505, -41660.54477221308, -58838.642697172494, 187500.0, -38692.56838471513, -41613.4719983902, 0.774, -0.654, 0.164, 192.0, 0.0, 0.0, 0.0, 0.0, 0.0, 0.0, 0.0, 0.0, 0.0, 1.6635917336289546E9, 0.0, 2022-09-19 17:48:53.628
51.0, -42879.050121194145, -35573.80712912168, -46026.75688585721, -41616.556539125035, -58802.276408943704, 187500.0, -38958.57649547774, -41551.71412846019, 0.774, -0.654, 0.164, 192.0, 0.0, 0.0, 0.0, 0.0, 0.0, 0.0, 0.0, 0.0, 0.0, 1.6635917336319742E9, 0.0, 2022-09-19 17:48:53.631
52.0, -42812.66544016188, -35528.634253577504, -45998.34781865452, -41593.22131791369, -58770.000489950246, 187500.0, -38909.447361164974, -41537.67723294225, 0.774, -0.654, 0.164, 192.0, 0.0, 0.0, 0.0, 0.0, 0.0, 0.0, 0.0, 0.0, 0.0, 1.6635917336349897E9, 0.0, 2022-09-19 17:48:53.634
53.0, -42795.52165216466, -35505.07551492161, -45993.38573138544, -41609.2698704326, -58776.75071677574, 187500.0, -38748.06776619766, -41565.438099555744, 0.774, -0.654, 0.164, 192.0, 0.0, 0.0, 0.0, 0.0, 0.0, 0.0, 0.0, 0.0, 0.0, 1.6635917336381133E9, 0.0, 2022-09-19 17:48:53.638
54.0, -42820.80147514361, -35536.72558507032, -45971.43631833033, -41662.46702223623, -58815.24042072779, 187500.0, -38546.9467695888, -41629.90053056485, 0.774, -0.654, 0.164, 192.0, 0.0, 0.0, 0.0, 0.0, 0.0, 0.0, 0.0, 0.0, 0.0, 1.6635917336429603E9, 0.0, 2022-09-19 17:48:53.642
55.0, -42860.945208185345, -35565.78285286223, -46018.19616773083, -41669.06078685055, -58832.630077914015, 187500.0, -38701.062047608146, -41617.69647809225, 0.77, -0.65, 0.164, 192.0, 24.0, 16.0, 235.0, 176.0, 5.0, 32.0, 0.0, 0.0, 0.0, 1.6635917336469483E9, 0.0, 2022-09-19 17:48:53.646
56.0, -42853.18915285935, -35543.72168108483, -46018.2632229642, -41613.24848094565, -58786.272559913705, 187500.0, -38959.33645478922, -41545.61210222389, 0.77, -0.65, 0.164, 192.0, 0.0, 0.0, 0.0, 0.0, 0.0, 0.0, 0.0, 0.0, 0.0, 1.6635917336510396E9, 0.0, 2022-09-19 17:48:53.651
57.0, -42820.041515832134, -35521.45934360735, -45988.62480981646, -41599.32334414999, -58763.29496661365, 187500.0, -38895.11989296912, -41544.047480112014, 0.77, -0.65, 0.164, 192.0, 0.0, 0.0, 0.0, 0.0, 0.0, 0.0, 0.0, 0.0, 0.0, 1.663591733655017E9, 0.0, 2022-09-19 17:48:53.655
58.0, -42815.54881519661, -35527.807239032656, -45982.254562646696, -41625.51958865161, -58779.23176041029, 187500.0, -38747.24075165281, -41582.715998019696, 0.77, -0.65, 0.164, 192.0, 0.0, 0.0, 0.0, 0.0, 0.0, 0.0, 0.0, 0.0, 0.0, 1.663591733658049E9, 0.0, 2022-09-19 17:48:53.658
59.0, -42827.7081641803, -35548.46025090936, -45985.4061586149, -41665.64096994889, -58817.74381610678, 187500.0, -38570.594915222515, -41631.174579998806, 0.77, -0.65, 0.164, 192.0, 0.0, 0.0, 0.0, 0.0, 0.0, 0.0, 0.0, 0.0, 0.0, 1.6635917336620772E9, 0.0, 2022-09-19 17:48:53.662
60.0, -42868.16482164441, -35576.08700705612, -46037.28455749567, -41668.837269405994, -58840.65435417347, 187500.0, -38723.81612346365, -41617.4729606477, 0.77, -0.65, 0.164, 192.0, 0.0, 0.0, 0.0, 0.0, 0.0, 0.0, 0.0, 0.0, 0.0, 1.663591733666064E9, 0.0, 2022-09-19 17:48:53.666
61.0, -42873.68570252487, -35569.605001164084, -46035.9658045728, -41623.32911769499, -58805.60681886755, 187500.0, -38957.16833557705, -41563.73936697714, 0.77, -0.65, 0.164, 192.0, 0.0, 0.0, 0.0, 0.0, 0.0, 0.0, 0.0, 0.0, 0.0, 1.6635917336710567E9, 0.0, 2022-09-19 17:48:53.671
62.0, -42841.96857714279, -35550.85188756608, -46005.36626641348, -41613.069666990006, -58787.01016748073, 187500.0, -38903.74766632887, -41566.622742011874, 0.77, -0.65, 0.164, 192.0, 0.0, 0.0, 0.0, 0.0, 0.0, 0.0, 0.0, 0.0, 0.0, 1.66359173367511E9, 0.0, 2022-09-19 17:48:53.675
63.0, -42811.5031494502, -35522.062840707644, -45983.72977778075, -41617.584719369974, -58786.272559913705, 187500.0, -38738.165943403954, -41583.45360558672, 0.77, -0.65, 0.164, 192.0, 0.0, 0.0, 0.0, 0.0, 0.0, 0.0, 0.0, 0.0, 0.0, 1.6635917336791048E9, 0.0, 2022-09-19 17:48:53.679
64.0, -42819.058039076095, -35536.41266064795, -46001.52176636717, -41657.929618111804, -58819.151976007466, 187500.0, -38546.0974032995, -41631.62161488791, 0.77, -0.65, 0.164, 192.0, 0.0, 0.0, 0.0, 0.0, 0.0, 0.0, 0.0, 0.0, 0.0, 1.6635917336830878E9, 0.0, 2022-09-19 17:48:53.683
65.0, -42863.9179901979, -35572.71189364337, -46062.58673221907, -41668.39023451689, -58849.93032812242, 187500.0, -38726.3418705871, -41616.84711180295, 0.78, -0.65, 0.168, 192.0, 24.0, 96.0, 235.0, 176.0, 5.0, 64.0, 0.0, 0.0, 0.0, 1.663591733686114E9, 0.0, 2022-09-19 17:48:53.686
66.0, -42854.70907148231, -35555.054015523674, -46022.48770266625, -41620.825722315996, -58809.98776078079, 187500.0, -38962.733919946426, -41556.67621572927, 0.78, -0.65, 0.168, 192.0, 0.0, 0.0, 0.0, 0.0, 0.0, 0.0, 0.0, 0.0, 0.0, 1.66359173369115E9, 0.0, 2022-09-19 17:48:53.691
67.0, -42817.49341696423, -35528.567198344135, -45981.80752775759, -41602.1173122069, -58784.90910350193, 187500.0, -38902.65243085056, -41550.484782515145, 0.78, -0.65, 0.168, 192.0, 0.0, 0.0, 0.0, 0.0, 0.0, 0.0, 0.0, 0.0, 0.0, 1.6635917336961846E9, 0.0, 2022-09-19 17:48:53.696
68.0, -42818.81216988709, -35534.22218969133, -45984.825013259055, -41629.92288230931, -58806.2326677123, 187500.0, -38743.776231262236, -41592.10373069093, 0.78, -0.65, 0.168, 192.0, 0.0, 0.0, 0.0, 0.0, 0.0, 0.0, 0.0, 0.0, 0.0, 1.6635917336991253E9, 0.0, 2022-09-19 17:48:53.699
69.0, -42839.37577478597, -35555.054015523674, -46036.569301673095, -41682.09185386799, -58853.90893863547, 187500.0, -38550.7018626573, -41651.96170234224, 0.78, -0.65, 0.168, 192.0, 0.0, 0.0, 0.0, 0.0, 0.0, 0.0, 0.0, 0.0, 0.0, 1.6635917337031426E9, 0.0, 2022-09-19 17:48:53.703
70.0, -42885.15214743044, -35583.50778621528, -46065.35834853153, -41683.27649632413, -58872.349127811096, 187500.0, -38740.17760040493, -41628.98410904218, 0.78, -0.65, 0.168, 192.0, 0.0, 0.0, 0.0, 0.0, 0.0, 0.0, 0.0, 0.0, 0.0, 1.6635917337071059E9, 0.0, 2022-09-19 17:48:53.707
71.0, -42866.93547569936, -35554.60698063457, -46008.182586214854, -41625.25136771815, -58821.07422603062, 187500.0, -38963.650341469096, -41562.04063439854, 0.78, -0.65, 0.168, 192.0, 0.0, 0.0, 0.0, 0.0, 0.0, 0.0, 0.0, 0.0, 0.0, 1.663591733712106E9, 0.0, 2022-09-19 17:48:53.712
72.0, -42818.83452163154, -35525.05797446465, -45987.93190573835, -41607.392323898355, -58795.503830373746, 187500.0, -38893.80114004626, -41556.07271862897, 0.78, -0.65, 0.168, 192.0, 0.0, 0.0, 0.0, 0.0, 0.0, 0.0, 0.0, 0.0, 0.0, 1.6635917337161388E9, 0.0, 2022-09-19 17:48:53.716
73.0, -42819.72859140976, -35533.953968757865, -45982.07574869106, -41635.95785331224, -58813.92166780492, 187500.0, -38744.15621091798, -41597.91518424931, 0.78, -0.65, 0.168, 192.0, 0.0, 0.0, 0.0, 0.0, 0.0, 0.0, 0.0, 0.0, 0.0, 1.6635917337191577E9, 0.0, 2022-09-19 17:48:53.719
74.0, -42835.218350317286, -35553.22117247834, -45998.63839133244, -41677.375635787925, -58850.042086844696, 187500.0, -38555.1498598039, -41648.05014706256, 0.78, -0.65, 0.168, 192.0, 0.0, 0.0, 0.0, 0.0, 0.0, 0.0, 0.0, 0.0, 0.0, 1.6635917337221456E9, 0.0, 2022-09-19 17:48:53.722
75.0, -42864.87911520948, -35569.00150406379, -46042.33605174256, -41667.49616473868, -58862.29084280621, 187500.0, -38745.027928951735, -41617.07062924751, 0.772, -0.654, 0.16, 192.0, 24.0, 32.0, 235.0, 144.0, 5.0, 0.0, 0.0, 0.0, 0.0, 1.663591733726113E9, 0.0, 2022-09-19 17:48:53.726
76.0, -42853.747946470736, -35555.277532968226, -46033.0153743047, -41623.30676595053, -58819.9342870634, 187500.0, -38977.44136779802, -41559.783108208554, 0.772, -0.654, 0.16, 192.0, 0.0, 0.0, 0.0, 0.0, 0.0, 0.0, 0.0, 0.0, 0.0, 1.6635917337311947E9, 0.0, 2022-09-19 17:48:53.731
77.0, -42824.7577339122, -35536.85969553706, -46012.11649323899, -41614.36606816841, -58798.54366761967, 187500.0, -38911.01198327685, -41559.06785238598, 0.772, -0.654, 0.16, 192.0, 0.0, 0.0, 0.0, 0.0, 0.0, 0.0, 0.0, 0.0, 0.0, 1.663591733735185E9, 0.0, 2022-09-19 17:48:53.735
78.0, -42812.12899829495, -35524.588587831095, -45998.07959772106, -41623.686745606276, -58799.05775774214, 187500.0, -38732.33213810112, -41578.75973925111, 0.772, -0.654, 0.16, 192.0, 0.0, 0.0, 0.0, 0.0, 0.0, 0.0, 0.0, 0.0, 0.0, 1.6635917337391417E9, 0.0, 2022-09-19 17:48:53.739
79.0, -42828.7586961697, -35540.97241651683, -45980.712292279284, -41663.42814724781, -58836.1393017935, 187500.0, -38551.9982638357, -41631.10752476544, 0.772, -0.654, 0.16, 192.0, 0.0, 0.0, 0.0, 0.0, 0.0, 0.0, 0.0, 0.0, 0.0, 1.6635917337421174E9, 0.0, 2022-09-19 17:48:53.742
80.0, -42844.919007410885, -35549.08609975411, -46032.18835975986, -41656.92378961132, -58850.19854905589, 187500.0, -38756.11439420157, -41601.603222084435, 0.772, -0.654, 0.16, 192.0, 0.0, 0.0, 0.0, 0.0, 0.0, 0.0, 0.0, 0.0, 0.0, 1.663591733746268E9, 0.0, 2022-09-19 17:48:53.746
81.0, -42840.806286431114, -35532.277587923716, -46025.77340910118, -41616.24361470266, -58812.02176952622, 187500.0, -38977.419016053565, -41552.83171568295, 0.772, -0.654, 0.16, 192.0, 0.0, 0.0, 0.0, 0.0, 0.0, 0.0, 0.0, 0.0, 0.0, 1.6635917337502468E9, 0.0, 2022-09-19 17:48:53.750
82.0, -42822.634318188946, -35518.7324307838, -45998.03489423214, -41614.09784723495, -58800.26475194273, 187500.0, -38898.15973021504, -41564.56638152199, 0.772, -0.654, 0.16, 192.0, 0.0, 0.0, 0.0, 0.0, 0.0, 0.0, 0.0, 0.0, 0.0, 1.663591733754218E9, 0.0, 2022-09-19 17:48:53.754
83.0, -42820.9579373548, -35525.572064587126, -45995.68796106434, -41640.2270365032, -58818.883755074, 187500.0, -38718.02702164972, -41608.97929775468, 0.772, -0.654, 0.16, 192.0, 0.0, 0.0, 0.0, 0.0, 0.0, 0.0, 0.0, 0.0, 0.0, 1.663591733759176E9, 0.0, 2022-09-19 17:48:53.759
84.0, -42835.37481252847, -35549.8907625545, -46007.40027515892, -41678.001484632674, -58852.634889201516, 187500.0, -38539.59304566301, -41655.64974017737, 0.772, -0.654, 0.16, 192.0, 0.0, 0.0, 0.0, 0.0, 0.0, 0.0, 0.0, 0.0, 0.0, 1.6635917337632444E9, 0.0, 2022-09-19 17:48:53.763
85.0, -42865.37085358749, -35563.50297492778, -46044.28065351018, -41661.95293211376, -58859.0945433491, 187500.0, -38756.87435351305, -41618.54584438156, 0.772, -0.656, 0.16, 192.0, 24.0, 32.0, 235.0, 128.0, 5.0, 0.0, 0.0, 0.0, 0.0, 1.6635917337672815E9, 0.0, 2022-09-19 17:48:53.767
86.0, -42857.07835639457, -35550.382500932516, -46036.05521155062, -41617.91999553681, -58818.74964460727, 187500.0, -38970.17705085004, -41567.29329434554, 0.772, -0.656, 0.16, 192.0, 0.0, 0.0, 0.0, 0.0, 0.0, 0.0, 0.0, 0.0, 0.0, 1.6635917337702084E9, 0.0, 2022-09-19 17:48:53.770
87.0, -42811.5031494502, -35502.438009075886, -45988.58010632755, -41588.25923064462, -58787.59131283657, 187500.0, -38882.49115735187, -41543.645148711825, 0.772, -0.656, 0.16, 192.0, 0.0, 0.0, 0.0, 0.0, 0.0, 0.0, 0.0, 0.0, 0.0, 1.663591733774259E9, 0.0, 2022-09-19 17:48:53.774
88.0, -42790.33604745103, -35489.898680436454, -45974.81143174308, -41604.821873286, -58800.9800077653, 187500.0, -38716.95413791587, -41570.199021124725, 0.772, -0.656, 0.16, 192.0, 0.0, 0.0, 0.0, 0.0, 0.0, 0.0, 0.0, 0.0, 0.0, 1.663591733778258E9, 0.0, 2022-09-19 17:48:53.778
89.0, -42818.029858831156, -35525.50500935376, -45997.18552794284, -41655.44857447727, -58848.499816477284, 187500.0, -38552.75822314718, -41630.682841620786, 0.772, -0.656, 0.16, 192.0, 0.0, 0.0, 0.0, 0.0, 0.0, 0.0, 0.0, 0.0, 0.0, 1.6635917337822711E9, 0.0, 2022-09-19 17:48:53.782
90.0, -42847.98119640126, -35540.21245720535, -46040.547912186135, -41648.206609273744, -58857.68638344841, 187500.0, -38775.06867349967, -41605.62653608639, 0.772, -0.656, 0.16, 192.0, 0.0, 0.0, 0.0, 0.0, 0.0, 0.0, 0.0, 0.0, 0.0, 1.6635917337862122E9, 0.0, 2022-09-19 17:48:53.786
91.0, -42836.04536486213, -35516.81018076064, -46022.13007475497, -41604.77716979709, -58814.25694397175, 187500.0, -38984.57157427926, -41556.139773862335, 0.772, -0.656, 0.16, 192.0, 0.0, 0.0, 0.0, 0.0, 0.0, 0.0, 0.0, 0.0, 0.0, 1.66359173379132E9, 0.0, 2022-09-19 17:48:53.791
92.0, -42820.890882121435, -35512.78686675869, -45992.64812381841, -41599.85978601692, -58801.8293740546, 187500.0, -38903.74766632887, -41559.20196285271, 0.772, -0.656, 0.16, 192.0, 0.0, 0.0, 0.0, 0.0, 0.0, 0.0, 0.0, 0.0, 0.0, 1.6635917337962933E9, 0.0, 2022-09-19 17:48:53.796
93.0, -42825.51769322368, -35518.46420985034, -45987.686036549334, -41628.87235031991, -58821.789481853186, 187500.0, -38718.56346351665, -41605.20185294174, 0.772, -0.656, 0.16, 192.0, 0.0, 0.0, 0.0, 0.0, 0.0, 0.0, 0.0, 0.0, 0.0, 1.6635917338002746E9, 0.0, 2022-09-19 17:48:53.800
94.0, -42841.789763187146, -35534.82568679162, -46001.94644951182, -41666.535039727096, -58860.74857243879, 187500.0, -38551.48417371323, -41653.951007598764, 0.772, -0.656, 0.16, 192.0, 0.0, 0.0, 0.0, 0.0, 0.0, 0.0, 0.0, 0.0, 0.0, 1.663591733803288E9, 0.0, 2022-09-19 17:48:53.803
95.0, -42849.36700455749, -35539.92188452743, -46030.31081322561, -41637.85775159094, -58851.226729300826, 187500.0, -38765.658589083985, -41595.74706503714, 0.78, -0.656, 0.164, 192.0, 24.0, 96.0, 235.0, 128.0, 5.0, 32.0, 0.0, 0.0, 0.0, 1.663591733806301E9, 0.0, 2022-09-19 17:48:53.806
96.0, -42830.99387061523, -35518.53126508371, -46015.58101362956, -41595.38943712586, -58810.65831311444, 187500.0, -38952.742690174906, -41544.09218360093, 0.78, -0.656, 0.164, 192.0, 0.0, 0.0, 0.0, 0.0, 0.0, 0.0, 0.0, 0.0, 0.0, 1.6635917338103385E9, 0.0, 2022-09-19 17:48:53.810
97.0, -42814.07360006256, -35505.276680621704, -45989.83180401705, -41605.358315152924, -58807.70788284635, 187500.0, -38875.137433426076, -41566.220410611684, 0.78, -0.656, 0.164, 192.0, 0.0, 0.0, 0.0, 0.0, 0.0, 0.0, 0.0, 0.0, 0.0, 1.6635917338142707E9, 0.0, 2022-09-19 17:48:53.814
98.0, -42808.82094011557, -35511.713983024834, -45973.62678928695, -41632.73920211067, -58822.012999297745, 187500.0, -38692.00959110375, -41603.90545176333, 0.78, -0.656, 0.164, 192.0, 0.0, 0.0, 0.0, 0.0, 0.0, 0.0, 0.0, 0.0, 0.0, 1.6635917338193483E9, 0.0, 2022-09-19 17:48:53.819
99.0, -42820.734419910244, -35532.16582920144, -45997.34199015403, -41664.031644348106, -58854.13245608002, 187500.0, -38534.16157176037, -41640.71877488122, 0.78, -0.656, 0.164, 192.0, 0.0, 0.0, 0.0, 0.0, 0.0, 0.0, 0.0, 0.0, 0.0, 1.6635917338233304E9, 0.0, 2022-09-19 17:48:53.823
100.0, -42845.65661497791, -35543.051128751176, -46043.833618621065, -41644.026833060605, -58852.72429617933, 187500.0, -38773.280533943245, -41599.09982670544, 0.78, -0.656, 0.164, 192.0, 0.0, 0.0, 0.0, 0.0, 0.0, 0.0, 0.0, 0.0, 0.0, 1.663591733826362E9, 0.0, 2022-09-19 17:48:53.826
101.0, -42835.419516017384, -35526.689651809895, -46023.9629178003, -41600.32917265048, -58809.272504958215, 187500.0, -38964.16443159156, -41552.83171568295, 0.78, -0.656, 0.164, 192.0, 0.0, 0.0, 0.0, 0.0, 0.0, 0.0, 0.0, 0.0, 0.0, 1.663591733830381E9, 0.0, 2022-09-19 17:48:53.830
102.0, -42826.411763001895, -35521.95108198537, -45992.178737184855, -41599.85978601692, -58798.521315875216, 187500.0, -38866.01792168831, -41564.76754722209, 0.78, -0.656, 0.164, 192.0, 0.0, 0.0, 0.0, 0.0, 0.0, 0.0, 0.0, 0.0, 0.0, 1.663591733834335E9, 0.0, 2022-09-19 17:48:53.834
103.0, -42835.218350317286, -35541.84413455059, -45980.13114692344, -41635.60022540095, -58823.13058652051, 187500.0, -38683.13594855499, -41612.153245467336, 0.78, -0.656, 0.164, 192.0, 0.0, 0.0, 0.0, 0.0, 0.0, 0.0, 0.0, 0.0, 0.0, 1.663591733838339E9, 0.0, 2022-09-19 17:48:53.838
104.0, -42850.931626669364, -35561.80424234918, -45993.69865580781, -41669.97720837322, -58858.46869450435, 187500.0, -38538.67662414034, -41651.69348140877, 0.78, -0.656, 0.164, 192.0, 0.0, 0.0, 0.0, 0.0, 0.0, 0.0, 0.0, 0.0, 0.0, 1.6635917338423889E9, 0.0, 2022-09-19 17:48:53.842
105.0, -42871.40582459042, -35560.6419516375, -46031.182531259365, -41633.34269921097, -58842.26367977425, 187500.0, -38775.73922583333, -41589.89090798985, 0.78, -0.654, 0.166, 192.0, 24.0, 96.0, 235.0, 144.0, 5.0, 48.0, 0.0, 0.0, 0.0, 1.663591733847356E9, 0.0, 2022-09-19 17:48:53.847
106.0, -42853.01033890371, -35543.878143296024, -46022.33124045506, -41601.33500115097, -58804.44452815587, 187500.0, -38941.63387318062, -41555.3574628064, 0.78, -0.654, 0.166, 192.0, 0.0, 0.0, 0.0, 0.0, 0.0, 0.0, 0.0, 0.0, 0.0, 1.663591733851317E9, 0.0, 2022-09-19 17:48:53.851
107.0, -42824.5565682121, -35525.84028552059, -45972.48685031973, -41602.22907092918, -58795.54853386266, 187500.0, -38849.49998253584, -41569.61787576889, 0.78, -0.654, 0.166, 192.0, 0.0, 0.0, 0.0, 0.0, 0.0, 0.0, 0.0, 0.0, 0.0, 1.6635917338543875E9, 0.0, 2022-09-19 17:48:53.854
108.0, -42807.323373237065, -35517.257215649755, -45956.01361465617, -41614.589585612965, -58800.51062113174, 187500.0, -38669.00964605923, -41596.32821039298, 0.78, -0.654, 0.166, 192.0, 0.0, 0.0, 0.0, 0.0, 0.0, 0.0, 0.0, 0.0, 0.0, 1.663591733858366E9, 0.0, 2022-09-19 17:48:53.858
109.0, -42820.93558561034, -35537.798468804176, -45985.897896992916, -41651.5817226865, -58839.201490783875, 187500.0, -38536.553208417085, -41636.404888201345, 0.78, -0.654, 0.166, 192.0, 0.0, 0.0, 0.0, 0.0, 0.0, 0.0, 0.0, 0.0, 0.0, 1.6635917338624165E9, 0.0, 2022-09-19 17:48:53.862
110.0, -42853.85970519301, -35554.56227714566, -46029.14852251393, -41633.14153351087, -58835.289935504195, 187500.0, -38783.271763714765, -41591.61199231291, 0.78, -0.654, 0.166, 192.0, 0.0, 0.0, 0.0, 0.0, 0.0, 0.0, 0.0, 0.0, 0.0, 1.663591733866392E9, 0.0, 2022-09-19 17:48:53.866
111.0, -42824.176588556365, -35519.35827962855, -45996.60438258701, -41590.42734985678, -58781.15401043344, 187500.0, -38942.460887725465, -41540.6053114659, 0.78, -0.654, 0.166, 192.0, 0.0, 0.0, 0.0, 0.0, 0.0, 0.0, 0.0, 0.0, 0.0, 1.6635917338704133E9, 0.0, 2022-09-19 17:48:53.870
112.0, -42796.37101845396, -35485.54009026767, -45964.507277549186, -41587.49927133313, -58768.9723097053, 187500.0, -38845.9684069119, -41547.53435224704, 0.78, -0.654, 0.166, 192.0, 0.0, 0.0, 0.0, 0.0, 0.0, 0.0, 0.0, 0.0, 0.0, 1.6635917338754303E9, 0.0, 2022-09-19 17:48:53.875
113.0, -42799.61202139998, -35498.68291600739, -45960.88629494742, -41622.502103150146, -58795.52618211821, 187500.0, -38658.28080872069, -41596.75289353763, 0.78, -0.654, 0.166, 192.0, 0.0, 0.0, 0.0, 0.0, 0.0, 0.0, 0.0, 0.0, 0.0, 1.6635917338795342E9, 0.0, 2022-09-19 17:48:53.879
114.0, -42825.58474845705, -35530.869428023034, -45985.2049929148, -41667.026778105115, -58837.636868672, 187500.0, -38528.57363564654, -41643.33392898249, 0.78, -0.654, 0.166, 192.0, 0.0, 0.0, 0.0, 0.0, 0.0, 0.0, 0.0, 0.0, 0.0, 1.663591733882435E9, 0.0, 2022-09-19 17:48:53.882
115.0, -42854.26203659321, -35544.07930899612, -46027.51684516869, -41642.46221094873, -58826.23747899979, 187500.0, -38791.11722601858, -41592.72957953568, 0.768, -0.656, 0.164, 192.0, 24.0, 0.0, 235.0, 128.0, 5.0, 32.0, 0.0, 0.0, 0.0, 1.6635917338864338E9, 0.0, 2022-09-19 17:48:53.886
116.0, -42848.9646731573, -35531.56233210115, -46008.54021412614, -41604.6207075859, -58781.44458311136, 187500.0, -38947.8923616281, -41550.86476217089, 0.768, -0.656, 0.164, 192.0, 0.0, 0.0, 0.0, 0.0, 0.0, 0.0, 0.0, 0.0, 0.0, 1.6635917338903952E9, 0.0, 2022-09-19 17:48:53.890
117.0, -42825.24947229022, -35508.76355275673, -45974.073824176055, -41595.434140614765, -58765.083106170074, 187500.0, -38847.667139490506, -41553.61402673889, 0.768, -0.656, 0.164, 192.0, 0.0, 0.0, 0.0, 0.0, 0.0, 0.0, 0.0, 0.0, 0.0, 1.6635917338945105E9, 0.0, 2022-09-19 17:48:53.894
118.0, -42799.25439348869, -35504.04733467667, -45964.82020197156, -41616.64594610286, -58779.410574365924, 187500.0, -38653.653997618436, -41588.68391378927, 0.768, -0.656, 0.164, 192.0, 0.0, 0.0, 0.0, 0.0, 0.0, 0.0, 0.0, 0.0, 0.0, 1.6635917338984427E9, 0.0, 2022-09-19 17:48:53.898
119.0, -42822.6566699334, -35530.869428023034, -46027.896824824435, -41655.985016344195, -58826.23747899979, 187500.0, -38542.364661975465, -41629.207626486736, 0.768, -0.656, 0.164, 192.0, 0.0, 0.0, 0.0, 0.0, 0.0, 0.0, 0.0, 0.0, 0.0, 1.6635917339035096E9, 0.0, 2022-09-19 17:48:53.903
120.0, -42839.24166431924, -35532.85873327956, -46025.54989165663, -41625.005498529135, -58818.995513796275, 187500.0, -38809.80328438321, -41575.54108804955, 0.768, -0.656, 0.164, 192.0, 0.0, 0.0, 0.0, 0.0, 0.0, 0.0, 0.0, 0.0, 0.0, 1.6635917339065075E9, 0.0, 2022-09-19 17:48:53.906
121.0, -42822.544911211124, -35511.35635511355, -46005.96976351378, -41584.72765502067, -58778.42709760989, 187500.0, -38955.82723090974, -41532.15635206179, 0.768, -0.656, 0.164, 192.0, 0.0, 0.0, 0.0, 0.0, 0.0, 0.0, 0.0, 0.0, 0.0, 1.663591733909507E9, 0.0, 2022-09-19 17:48:53.909
122.0, -42811.10081805001, -35496.626555517505, -45961.400385069894, -41588.795672511544, -58776.79542026466, 187500.0, -38861.72638675289, -41547.51200050259, 0.768, -0.656, 0.164, 192.0, 0.0, 0.0, 0.0, 0.0, 0.0, 0.0, 0.0, 0.0, 0.0, 1.6635917339145565E9, 0.0, 2022-09-19 17:48:53.914
123.0, -42805.75875112519, -35504.874349221514, -45951.02917564263, -41619.70813509323, -58798.61072285304, 187500.0, -38679.33615199759, -41595.009457470114, 0.768, -0.656, 0.164, 192.0, 0.0, 0.0, 0.0, 0.0, 0.0, 0.0, 0.0, 0.0, 0.0, 1.6635917339184275E9, 0.0, 2022-09-19 17:48:53.918
124.0, -42826.72468742427, -35531.584683845605, -45980.37701611245, -41657.661397178344, -58837.41335122745, 187500.0, -38566.57160122056, -41630.14639975386, 0.768, -0.656, 0.164, 192.0, 0.0, 0.0, 0.0, 0.0, 0.0, 0.0, 0.0, 0.0, 0.0, 1.6635917339224231E9, 0.0, 2022-09-19 17:48:53.922
125.0, -42847.08712662305, -35537.574951359624, -46020.766618343194, -41629.542902653564, -58832.16069128045, 187500.0, -38832.80322942772, -41573.59648628193, 0.77, -0.658, 0.168, 192.0, 24.0, 16.0, 235.0, 112.0, 5.0, 64.0, 0.0, 0.0, 0.0, 1.6635917339264345E9, 0.0, 2022-09-19 17:48:53.926
126.0, -42814.34182099603, -35502.88504396499, -45988.20012667181, -41583.09597767544, -58787.0772227141, 187500.0, -38951.42393725204, -41528.22244503766, 0.77, -0.658, 0.168, 192.0, 0.0, 0.0, 0.0, 0.0, 0.0, 0.0, 0.0, 0.0, 0.0, 1.6635917339305716E9, 0.0, 2022-09-19 17:48:53.930
127.0, -42799.23204174424, -35492.49148279327, -45974.78907999863, -41587.43221609977, -58786.31726340262, 187500.0, -38867.04610193326, -41545.70150920171, 0.77, -0.658, 0.168, 192.0, 0.0, 0.0, 0.0, 0.0, 0.0, 0.0, 0.0, 0.0, 0.0, 1.6635917339345644E9, 0.0, 2022-09-19 17:48:53.934
128.0, -42799.58966965553, -35504.15909339894, -45960.55101878059, -41618.97052752621, -58801.96348452133, 187500.0, -38679.60437293105, -41588.92978297827, 0.77, -0.658, 0.168, 192.0, 0.0, 0.0, 0.0, 0.0, 0.0, 0.0, 0.0, 0.0, 0.0, 1.6635917339375548E9, 0.0, 2022-09-19 17:48:53.937
129.0, -42829.25043454772, -35532.81402979064, -45976.21959164376, -41653.23575177619, -58834.06058955915, 187500.0, -38569.23145881075, -41621.42921941629, 0.77, -0.658, 0.168, 192.0, 0.0, 0.0, 0.0, 0.0, 0.0, 0.0, 0.0, 0.0, 0.0, 1.6635917339425383E9, 0.0, 2022-09-19 17:48:53.942
130.0, -42847.48945802325, -35533.70809956886, -46015.89393805194, -41618.34467868146, -58816.134490505996, 187500.0, -38845.476668533884, -41561.97357916518, 0.77, -0.658, 0.168, 192.0, 0.0, 0.0, 0.0, 0.0, 0.0, 0.0, 0.0, 0.0, 0.0, 1.663591733946565E9, 0.0, 2022-09-19 17:48:53.946
131.0, -42824.06482983409, -35504.36025909904, -45995.26327791969, -41576.6139717834, -58766.4689143263, 187500.0, -38964.70087345849, -41524.98144209164, 0.77, -0.658, 0.168, 192.0, 0.0, 0.0, 0.0, 0.0, 0.0, 0.0, 0.0, 0.0, 0.0, 1.6635917339505365E9, 0.0, 2022-09-19 17:48:53.950
132.0, -42800.64020164492, -35487.35058156855, -45945.88827441791, -41572.4118438258, -58752.7672949752, 187500.0, -38849.03059590228, -41536.04555559702, 0.77, -0.658, 0.168, 192.0, 0.0, 0.0, 0.0, 0.0, 0.0, 0.0, 0.0, 0.0, 0.0, 1.6635917339545667E9, 0.0, 2022-09-19 17:48:53.954
133.0, -42791.83361432953, -35497.386514828984, -45938.355736536476, -41603.88310001887, -58771.386298106474, 187500.0, -38650.81532607262, -41585.934649221264, 0.77, -0.658, 0.168, 192.0, 0.0, 0.0, 0.0, 0.0, 0.0, 0.0, 0.0, 0.0, 0.0, 1.6635917339585643E9, 0.0, 2022-09-19 17:48:53.958
134.0, -42817.739286153235, -35531.80820129016, -45975.549039310106, -41642.99865281566, -58814.56986839412, 187500.0, -38570.55021173361, -41625.81016132953, 0.77, -0.658, 0.168, 192.0, 0.0, 0.0, 0.0, 0.0, 0.0, 0.0, 0.0, 0.0, 0.0, 1.6635917339625723E9, 0.0, 2022-09-19 17:48:53.962
135.0, -42841.72270795378, -35532.94814025738, -46011.53534788315, -41613.80727455703, -58807.97610377981, 187500.0, -38849.745851724845, -41567.405053067814, 0.776, -0.658, 0.17, 192.0, 24.0, 64.0, 235.0, 112.0, 5.0, 80.0, 0.0, 0.0, 0.0, 1.6635917339656005E9, 0.0, 2022-09-19 17:48:53.965
136.0, -42833.743135183235, -35512.60805280305, -45989.74239703923, -41578.82679448448, -58773.66617604091, 187500.0, -38953.212076808464, -41530.79289565002, 0.776, -0.658, 0.17, 192.0, 0.0, 0.0, 0.0, 0.0, 0.0, 0.0, 0.0, 0.0, 0.0, 1.663591733969669E9, 0.0, 2022-09-19 17:48:53.969
137.0, -42798.76265511068, -35490.90450893695, -45964.93196069384, -41586.69460853274, -58777.68949004287, 187500.0, -38845.67783423398, -41552.07175637147, 0.776, -0.658, 0.17, 192.0, 0.0, 0.0, 0.0, 0.0, 0.0, 0.0, 0.0, 0.0, 0.0, 1.663591733974588E9, 0.0, 2022-09-19 17:48:53.974
138.0, -42784.77046308166, -35489.004610658245, -45982.880411491446, -41622.94913803925, -58803.25988569974, 187500.0, -38648.133116737976, -41600.887966261864, 0.776, -0.658, 0.17, 192.0, 0.0, 0.0, 0.0, 0.0, 0.0, 0.0, 0.0, 0.0, 0.0, 1.6635917339786181E9, 0.0, 2022-09-19 17:48:53.978
139.0, -42824.53421646765, -35528.902474510964, -46019.581975887064, -41667.227943805214, -58851.60670895657, 187500.0, -38582.24017408373, -41640.13762952538, 0.776, -0.658, 0.17, 192.0, 0.0, 0.0, 0.0, 0.0, 0.0, 0.0, 0.0, 0.0, 0.0, 1.6635917339825928E9, 0.0, 2022-09-19 17:48:53.982
140.0, -42837.76644918519, -35525.61676807603, -46002.21467044529, -41621.876254305396, -58822.772958609225, 187500.0, -38857.725424495395, -41565.70632048921, 0.776, -0.658, 0.17, 192.0, 0.0, 0.0, 0.0, 0.0, 0.0, 0.0, 0.0, 0.0, 0.0, 1.6635917339866233E9, 0.0, 2022-09-19 17:48:53.986
141.0, -42803.85885284649, -35486.94825016835, -45977.40423409989, -41577.061006672506, -58769.19582714985, 187500.0, -38948.92054187305, -41521.06988681196, 0.776, -0.658, 0.17, 192.0, 0.0, 0.0, 0.0, 0.0, 0.0, 0.0, 0.0, 0.0, 0.0, 1.6635917339906185E9, 0.0, 2022-09-19 17:48:53.990
142.0, -42780.30011419059, -35474.744197695756, -45963.21087637077, -41577.77626249508, -58759.58457703407, 187500.0, -38820.82269439968, -41531.195227050215, 0.776, -0.658, 0.17, 192.0, 0.0, 0.0, 0.0, 0.0, 0.0, 0.0, 0.0, 0.0, 0.0, 1.6635917339935799E9, 0.0, 2022-09-19 17:48:53.993
143.0, -42782.89291654741, -35485.8753664345, -45952.10205937649, -41615.28248969108, -58785.66906281341, 187500.0, -38612.81736049859, -41581.03961718555, 0.776, -0.658, 0.17, 192.0, 0.0, 0.0, 0.0, 0.0, 0.0, 0.0, 0.0, 0.0, 0.0, 1.663591733997568E9, 0.0, 2022-09-19 17:48:53.997
144.0, -42818.83452163154, -35521.235826162796, -45986.61315281548, -41656.52145821112, -58833.01005756975, 187500.0, -38568.4044442659, -41619.5740246265, 0.776, -0.658, 0.17, 192.0, 0.0, 0.0, 0.0, 0.0, 0.0, 0.0, 0.0, 0.0, 0.0, 1.6635917340027215E9, 0.0, 2022-09-19 17:48:54.002
145.0, -42845.58955974455, -35529.52832335571, -46027.20392074632, -41624.245539217656, -58825.11989177703, 187500.0, -38864.96738969891, -41566.220410611684, 0.776, -0.658, 0.17, 192.0, 0.0, 0.0, 0.0, 0.0, 0.0, 0.0, 0.0, 0.0, 0.0, 1.6635917340066679E9, 0.0, 2022-09-19 17:48:54.006
146.0, -42808.82094011557, -35497.16299738443, -45984.400330114404, -41586.001704454626, -58783.88092325699, 187500.0, -38948.4958587284, -41530.636433438835, 0.782, -0.652, 0.178, 192.0, 24.0, 112.0, 235.0, 160.0, 5.0, 144.0, 0.0, 0.0, 0.0, 1.6635917340107007E9, 0.0, 2022-09-19 17:48:54.010
147.0, -42792.906498063385, -35489.697514736356, -45964.75314673819, -41592.774283024584, -58783.65740581243, 187500.0, -38833.943168394944, -41548.69664295872, 0.782, -0.652, 0.178, 192.0, 0.0, 0.0, 0.0, 0.0, 0.0, 0.0, 0.0, 0.0, 0.0, 1.6635917340146646E9, 0.0, 2022-09-19 17:48:54.014
148.0, -42793.57705039705, -35497.878253207, -45967.59181828402, -41624.69257410677, -58809.54072589168, 187500.0, -38622.272148403186, -41596.01528597061, 0.782, -0.652, 0.178, 192.0, 0.0, 0.0, 0.0, 0.0, 0.0, 0.0, 0.0, 0.0, 0.0, 1.6635917340177417E9, 0.0, 2022-09-19 17:48:54.017
149.0, -42813.98419308474, -35526.399079131974, -45995.91147850889, -41656.70027216677, -58847.60574669907, 187500.0, -38572.561868734585, -41625.11725725142, 0.782, -0.652, 0.178, 192.0, 0.0, 0.0, 0.0, 0.0, 0.0, 0.0, 0.0, 0.0, 0.0, 1.6635917340216613E9, 0.0, 2022-09-19 17:48:54.021
150.0, -42825.4059345014, -35523.538055841695, -46036.18932201735, -41619.082286248486, -58830.05962730165, 187500.0, -38864.81092748773, -41563.22527685467, 0.782, -0.652, 0.178, 192.0, 0.0, 0.0, 0.0, 0.0, 0.0, 0.0, 0.0, 0.0, 0.0, 1.6635917340256636E9, 0.0, 2022-09-19 17:48:54.025
151.0, -42809.64795466041, -35501.36512534203, -45998.01254248769, -41590.673219045784, -58796.17438270741, 187500.0, -38945.76894590485, -41540.6053114659, 0.782, -0.652, 0.178, 192.0, 0.0, 0.0, 0.0, 0.0, 0.0, 0.0, 0.0, 0.0, 0.0, 1.6635917340306633E9, 0.0, 2022-09-19 17:48:54.030
152.0, -42795.0522655311, -35492.558538026635, -45955.47717278924, -41596.976410982184, -58793.69333907287, 187500.0, -38822.23085430037, -41557.056195385005, 0.782, -0.652, 0.178, 192.0, 0.0, 0.0, 0.0, 0.0, 0.0, 0.0, 0.0, 0.0, 0.0, 1.6635917340346897E9, 0.0, 2022-09-19 17:48:54.034
153.0, -42795.85692833149, -35503.890872465476, -45960.61807401396, -41634.594396900466, -58824.18111850991, 187500.0, -38618.762924523704, -41611.102713477936, 0.782, -0.652, 0.178, 192.0, 0.0, 0.0, 0.0, 0.0, 0.0, 0.0, 0.0, 0.0, 0.0, 1.6635917340386732E9, 0.0, 2022-09-19 17:48:54.038
154.0, -42824.377754256464, -35530.601207089574, -45997.699618065315, -41665.551562971064, -58862.335546295115, 187500.0, -38588.92334567587, -41637.63423414639, 0.782, -0.652, 0.178, 192.0, 0.0, 0.0, 0.0, 0.0, 0.0, 0.0, 0.0, 0.0, 0.0, 1.663591734042678E9, 0.0, 2022-09-19 17:48:54.042
155.0, -42837.05119336262, -35524.34271864208, -46025.30402246762, -41624.46905666221, -58834.529976192716, 187500.0, -38883.76520678583, -41572.54595429253, 0.782, -0.652, 0.178, 192.0, 0.0, 0.0, 0.0, 0.0, 0.0, 0.0, 0.0, 0.0, 0.0, 1.6635917340466607E9, 0.0, 2022-09-19 17:48:54.046
156.0, -42805.222309258264, -35492.916165937924, -45989.87650750596, -41588.57215506699, -58792.419289638914, 187500.0, -38946.8418296387, -41540.068869598974, 0.778, -0.644, 0.184, 192.0, 24.0, 80.0, 235.0, 224.0, 5.0, 192.0, 0.0, 0.0, 0.0, 1.663591734049749E9, 0.0, 2022-09-19 17:48:54.049
157.0, -42784.68105610384, -35481.76264545473, -45970.855172974494, -41592.48371034667, -58791.368757649514, 187500.0, -38825.94124387995, -41557.8608581854, 0.778, -0.644, 0.184, 192.0, 0.0, 0.0, 0.0, 0.0, 0.0, 0.0, 0.0, 0.0, 0.0, 1.663591734053681E9, 0.0, 2022-09-19 17:48:54.053
158.0, -42792.39240794092, -35499.08524740759, -45970.8998764634, -41634.50498992264, -58820.62719114151, 187500.0, -38621.60159606953, -41612.354411167435, 0.778, -0.644, 0.184, 192.0, 0.0, 0.0, 0.0, 0.0, 0.0, 0.0, 0.0, 0.0, 0.0, 1.6635917340587108E9, 0.0, 2022-09-19 17:48:54.058
159.0, -42832.80436191611, -35534.445707135885, -46005.56743211358, -41669.99956011767, -58861.68734570591, 187500.0, -38597.528767291165, -41636.36018471244, 0.778, -0.644, 0.184, 192.0, 0.0, 0.0, 0.0, 0.0, 0.0, 0.0, 0.0, 0.0, 0.0, 1.6635917340626795E9, 0.0, 2022-09-19 17:48:54.062
