%OpenBCI Raw EEG Data
%Number of channels = 8
%Sample Rate = 250 Hz
%Board = OpenBCI_GUI$BoardCytonSerial
Sample Index, EXG Channel 0, EXG Channel 1, EXG Channel 2, EXG Channel 3, EXG Channel 4, EXG Channel 5, EXG Channel 6, EXG Channel 7, Accel Channel 0, Accel Channel 1, Accel Channel 2, Other, Other, Other, Other, Other, Other, Other, Analog Channel 0, Analog Channel 1, Analog Channel 2, Timestamp, Other, Timestamp (Formatted)
26.0, 10478.475448903495, -122455.23899260032, 14050.440675072752, 4312.076188573384, -183759.59202761555, 187500.0, 28713.766183110023, 13413.862992985607, 0.0, 0.0, 0.0, 192.0, 0.0, 0.0, 0.0, 0.0, 0.0, 0.0, 0.0, 0.0, 0.0, 1.6635871183965158E9, 0.0, 2022-09-19 16:31:58.396
27.0, 10474.362727923719, -122462.43625431493, 14042.997544169135, 4313.4396449851565, -183783.15076627146, 187500.0, 28722.081032047397, 13414.488841830354, 0.0, 0.0, 0.0, 192.0, 0.0, 0.0, 0.0, 0.0, 0.0, 0.0, 0.0, 0.0, 0.0, 1.6635871183965387E9, 0.0, 2022-09-19 16:31:58.396
0.0, 0.0, 0.0, 0.0, 0.0, 0.0, 0.0, 0.0, 0.0, 0.616, -0.6880000000000001, 0.434, 192.0, 19.0, 64.0, 234.0, 128.0, 13.0, 144.0, 0.0, 0.0, 0.0, 1.663587118463179E9, 0.0, 2022-09-19 16:31:58.463
1.0, 13872.610196186328, -91551.42653601487, 9789.773498746574, 3399.7226833966597, -184082.8429559282, 187500.0, 20248.11002589584, 12013.302685416065, 0.616, -0.6880000000000001, 0.434, 192.0, 0.0, 0.0, 0.0, 0.0, 0.0, 0.0, 0.0, 0.0, 0.0, 1.6635871184800508E9, 0.0, 2022-09-19 16:31:58.480
2.0, 13853.208881999122, -91569.77731821267, 9773.36731831638, 3405.645895677316, -184024.90723430004, 187500.0, 20229.6251332313, 12008.698226058272, 0.616, -0.6880000000000001, 0.434, 192.0, 0.0, 0.0, 0.0, 0.0, 0.0, 0.0, 0.0, 0.0, 0.0, 1.6635871184830513E9, 0.0, 2022-09-19 16:31:58.483
3.0, 13848.69382961915, -91582.89779220794, 9763.040812378027, 3394.782947872037, -184079.1549180931, 187500.0, 20219.90212439324, 11999.176382920312, 0.616, -0.6880000000000001, 0.434, 192.0, 0.0, 0.0, 0.0, 0.0, 0.0, 0.0, 0.0, 0.0, 0.0, 1.6635871184870632E9, 0.0, 2022-09-19 16:31:58.487
4.0, 13853.857082588325, -91579.94736193983, 9767.667623480276, 3393.777119371548, -184132.2626629189, 187500.0, 20224.260714562024, 11999.891638742882, 0.616, -0.6880000000000001, 0.434, 192.0, 0.0, 0.0, 0.0, 0.0, 0.0, 0.0, 0.0, 0.0, 0.0, 1.663587118490082E9, 0.0, 2022-09-19 16:31:58.490
5.0, 13860.517902436008, -91573.39830081443, 9782.21860912068, 3405.4000264883075, -184150.971073028, 187500.0, 20242.633848504287, 12016.431929639808, 0.616, -0.6880000000000001, 0.434, 192.0, 0.0, 0.0, 0.0, 0.0, 0.0, 0.0, 0.0, 0.0, 0.0, 1.663587118494071E9, 0.0, 2022-09-19 16:31:58.494
6.0, 13862.954242581636, -91572.68304499186, 9787.068937667482, 3409.9374306127347, -184064.4921737304, 187500.0, 20247.52888054, 12012.676836571318, 0.616, -0.6880000000000001, 0.434, 192.0, 0.0, 0.0, 0.0, 0.0, 0.0, 0.0, 0.0, 0.0, 0.0, 1.6635871184980724E9, 0.0, 2022-09-19 16:31:58.498
7.0, 13847.330373207376, -91587.68106552138, 9770.550998515011, 3402.29313400902, -184063.17342080755, 187500.0, 20225.802984929443, 11995.667159040828, 0.616, -0.6880000000000001, 0.434, 192.0, 0.0, 0.0, 0.0, 0.0, 0.0, 0.0, 0.0, 0.0, 0.0, 1.663587118502114E9, 0.0, 2022-09-19 16:31:58.502
8.0, 13841.205995226623, -91595.43712084736, 9762.54907400001, 3400.5720496859612, -184084.58639199572, 187500.0, 20218.806888914933, 11992.604970050452, 0.614, -0.6920000000000001, 0.436, 192.0, 19.0, 48.0, 234.0, 96.0, 13.0, 160.0, 0.0, 0.0, 0.0, 1.6635871185061314E9, 0.0, 2022-09-19 16:31:58.506
9.0, 13853.924137821692, -91599.10280693804, 9762.727887955652, 3395.7217211391594, -184091.962467666, 187500.0, 20224.48423200658, 11992.001472950158, 0.614, -0.6920000000000001, 0.436, 192.0, 0.0, 0.0, 0.0, 0.0, 0.0, 0.0, 0.0, 0.0, 0.0, 1.663587118509096E9, 0.0, 2022-09-19 16:31:58.509
10.0, 13865.41293447172, -91594.83362374706, 9773.479077038655, 3388.032721046534, -184168.3160267253, 187500.0, 20230.921534409707, 11990.101574671457, 0.614, -0.6920000000000001, 0.436, 192.0, 0.0, 0.0, 0.0, 0.0, 0.0, 0.0, 0.0, 0.0, 0.0, 1.6635871185130863E9, 0.0, 2022-09-19 16:31:58.513
11.0, 13865.658803660728, -91585.87057422049, 9781.123373642371, 3385.4622704341737, -184116.10235167772, 187500.0, 20225.311246551424, 11987.262903125633, 0.614, -0.6920000000000001, 0.436, 192.0, 0.0, 0.0, 0.0, 0.0, 0.0, 0.0, 0.0, 0.0, 0.0, 1.6635871185171535E9, 0.0, 2022-09-19 16:31:58.517
12.0, 13835.618059112796, -91610.03280997668, 9754.435390762734, 3380.164906998266, -184012.05498123827, 187500.0, 20195.561074681413, 11968.308623827532, 0.614, -0.6920000000000001, 0.436, 192.0, 0.0, 0.0, 0.0, 0.0, 0.0, 0.0, 0.0, 0.0, 0.0, 1.6635871185210824E9, 0.0, 2022-09-19 16:31:58.521
13.0, 13826.185622952657, -91626.30487994014, 9738.945631855206, 3372.7217760946487, -184030.6516326251, 187500.0, 20188.94495832264, 11954.115266098413, 0.614, -0.6920000000000001, 0.436, 192.0, 0.0, 0.0, 0.0, 0.0, 0.0, 0.0, 0.0, 0.0, 0.0, 1.663587118525124E9, 0.0, 2022-09-19 16:31:58.525
14.0, 13834.187547467656, -91626.84132180708, 9741.73959991212, 3360.361261410864, -184109.53093880785, 187500.0, 20197.036289815464, 11948.303812540033, 0.614, -0.6920000000000001, 0.436, 192.0, 0.0, 0.0, 0.0, 0.0, 0.0, 0.0, 0.0, 0.0, 0.0, 1.6635871185301602E9, 0.0, 2022-09-19 16:31:58.530
15.0, 13842.524748149484, -91620.00168800374, 9752.826065161951, 3372.319444694453, -184143.55029386882, 187500.0, 20209.642673688257, 11962.720687713705, 0.614, -0.6920000000000001, 0.436, 192.0, 0.0, 0.0, 0.0, 0.0, 0.0, 0.0, 0.0, 0.0, 0.0, 1.6635871185332851E9, 0.0, 2022-09-19 16:31:58.533
16.0, 13839.68607660366, -91617.87827228049, 9754.07776285145, 3364.0716509904446, -184107.47457831795, 187500.0, 20205.597007941844, 11957.93741440027, 0.614, -0.6920000000000001, 0.436, 192.0, 0.0, 0.0, 0.0, 0.0, 0.0, 0.0, 0.0, 0.0, 0.0, 1.6635871185371425E9, 0.0, 2022-09-19 16:31:58.537
17.0, 13817.267276914989, -91637.39134518997, 9728.485015450122, 3348.6712990607384, -184018.31346968573, 187500.0, 20181.792400096943, 11938.536100213063, 0.614, -0.6920000000000001, 0.436, 192.0, 0.0, 0.0, 0.0, 0.0, 0.0, 0.0, 0.0, 0.0, 0.0, 1.6635871185410876E9, 0.0, 2022-09-19 16:31:58.541
18.0, 13807.745433777027, -91658.91607510044, 9711.318875708446, 3362.0599939894673, -184031.5009989144, 187500.0, 20172.136446492248, 11948.79555091805, 0.614, -0.6900000000000001, 0.436, 192.0, 19.0, 48.0, 234.0, 112.0, 13.0, 160.0, 0.0, 0.0, 0.0, 1.663587118545231E9, 0.0, 2022-09-19 16:31:58.545
19.0, 13817.088462959346, -91659.85484836755, 9720.63955314631, 3362.5293806230284, -184111.63200278665, 187500.0, 20179.84779832933, 11950.673097452296, 0.614, -0.6900000000000001, 0.436, 192.0, 0.0, 0.0, 0.0, 0.0, 0.0, 0.0, 0.0, 0.0, 0.0, 1.6635871185491648E9, 0.0, 2022-09-19 16:31:58.549
20.0, 13827.705541575617, -91650.66828139643, 9736.330477753936, 3356.650871831283, -184146.72424158148, 187500.0, 20191.917740335197, 11958.496208011653, 0.614, -0.6900000000000001, 0.436, 192.0, 0.0, 0.0, 0.0, 0.0, 0.0, 0.0, 0.0, 0.0, 0.0, 1.6635871185531673E9, 0.0, 2022-09-19 16:31:58.553
21.0, 13820.485928116552, -91647.65079589497, 9739.571480699955, 3347.3078426489647, -184087.78269145283, 187500.0, 20189.123772278283, 11952.572995730996, 0.614, -0.6900000000000001, 0.436, 192.0, 0.0, 0.0, 0.0, 0.0, 0.0, 0.0, 0.0, 0.0, 0.0, 1.6635871185581686E9, 0.0, 2022-09-19 16:31:58.558
22.0, 13802.49277383003, -91669.66726418344, 9720.438387446213, 3354.840380530403, -184028.52821690182, 187500.0, 20176.38327793876, 11944.392257260353, 0.614, -0.6900000000000001, 0.436, 192.0, 0.0, 0.0, 0.0, 0.0, 0.0, 0.0, 0.0, 0.0, 0.0, 1.6635871185621977E9, 0.0, 2022-09-19 16:31:58.562
23.0, 13802.336311618843, -91691.30375281618, 9711.944724553196, 3358.8860462768134, -184029.55639714675, 187500.0, 20180.317184962892, 11936.926774612282, 0.614, -0.6900000000000001, 0.436, 192.0, 0.0, 0.0, 0.0, 0.0, 0.0, 0.0, 0.0, 0.0, 0.0, 1.6635871185651944E9, 0.0, 2022-09-19 16:31:58.565
24.0, 13812.528707090463, -91692.93543016141, 9718.06910253395, 3355.2650636750536, -184114.91770922157, 187500.0, 20191.33659497936, 11937.038533334558, 0.614, -0.6900000000000001, 0.436, 192.0, 0.0, 0.0, 0.0, 0.0, 0.0, 0.0, 0.0, 0.0, 0.0, 1.6635871185692298E9, 0.0, 2022-09-19 16:31:58.569
25.0, 13825.40331189672, -91682.13953758951, 9733.603564930389, 3359.1989706991876, -184170.68531163756, 187500.0, 20206.848705631342, 11955.679888210285, 0.614, -0.6900000000000001, 0.436, 192.0, 0.0, 0.0, 0.0, 0.0, 0.0, 0.0, 0.0, 0.0, 0.0, 1.6635871185732665E9, 0.0, 2022-09-19 16:31:58.573
26.0, 13820.664742072195, -91683.41358702346, 9733.625916674842, 3353.6110345853613, -184093.81766245578, 187500.0, 20205.842877130854, 11952.774161431094, 0.614, -0.6900000000000001, 0.436, 192.0, 0.0, 0.0, 0.0, 0.0, 0.0, 0.0, 0.0, 0.0, 0.0, 1.6635871185772617E9, 0.0, 2022-09-19 16:31:58.577
27.0, 13805.01852095348, -91701.63025875454, 9715.163375754759, 3357.679052076227, -184054.03155732533, 187500.0, 20190.93426357916, 11942.93939387076, 0.614, -0.6900000000000001, 0.436, 192.0, 0.0, 0.0, 0.0, 0.0, 0.0, 0.0, 0.0, 0.0, 0.0, 1.663587118581166E9, 0.0, 2022-09-19 16:31:58.581
28.0, 13812.126375690268, -91714.23664262732, 9708.21198322916, 3360.8529997888804, -184069.0966330882, 187500.0, 20193.057679302416, 11941.08419908097, 0.624, -0.6900000000000001, 0.434, 192.0, 19.0, 128.0, 234.0, 112.0, 13.0, 144.0, 0.0, 0.0, 0.0, 1.6635871185862021E9, 0.0, 2022-09-19 16:31:58.586
29.0, 13821.916439761691, -91718.97521245184, 9711.676503619732, 3364.451630646185, -184116.59409005573, 187500.0, 20203.89827536324, 11954.070562609502, 0.624, -0.6900000000000001, 0.434, 192.0, 0.0, 0.0, 0.0, 0.0, 0.0, 0.0, 0.0, 0.0, 0.0, 1.6635871185892506E9, 0.0, 2022-09-19 16:31:58.589
30.0, 13835.26043120151, -91705.60886926757, 9730.20609977318, 3360.741241066604, -184204.1682248316, 187500.0, 20221.086766849374, 11965.31349007052, 0.624, -0.6900000000000001, 0.434, 192.0, 0.0, 0.0, 0.0, 0.0, 0.0, 0.0, 0.0, 0.0, 0.0, 1.6635871185922537E9, 0.0, 2022-09-19 16:31:58.592
31.0, 13836.936812035658, -91697.40577905248, 9736.621050431855, 3366.2621219470648, -184104.7029620055, 187500.0, 20222.80785117243, 11970.789667462072, 0.624, -0.6900000000000001, 0.434, 192.0, 0.0, 0.0, 0.0, 0.0, 0.0, 0.0, 0.0, 0.0, 0.0, 1.6635871185972536E9, 0.0, 2022-09-19 16:31:58.597
32.0, 13813.959218735603, -91722.01504969777, 9714.850451332386, 3362.6634910897606, -184036.0384030388, 187500.0, 20200.880789861774, 11954.562300987518, 0.624, -0.6900000000000001, 0.434, 192.0, 0.0, 0.0, 0.0, 0.0, 0.0, 0.0, 0.0, 0.0, 0.0, 1.6635871186012745E9, 0.0, 2022-09-19 16:31:58.601
33.0, 13810.449994856119, -91737.48245686085, 9707.5414308955, 3363.1775812122323, -184084.42992978453, 187500.0, 20197.192752026647, 11957.780952189083, 0.624, -0.6900000000000001, 0.434, 192.0, 0.0, 0.0, 0.0, 0.0, 0.0, 0.0, 0.0, 0.0, 0.0, 1.6635871186053176E9, 0.0, 2022-09-19 16:31:58.605
34.0, 13827.392617153242, -91739.73998305082, 9715.92333506624, 3366.3962324137965, -184121.01973545787, 187500.0, 20212.32488302289, 11962.22894933569, 0.624, -0.6900000000000001, 0.434, 192.0, 0.0, 0.0, 0.0, 0.0, 0.0, 0.0, 0.0, 0.0, 0.0, 1.6635871186092396E9, 0.0, 2022-09-19 16:31:58.609
35.0, 13841.40716092672, -91726.44069509993, 9734.765855642063, 3361.0541654889785, -184184.72220715552, 187500.0, 20228.52989775299, 11968.442734294264, 0.624, -0.6900000000000001, 0.434, 192.0, 0.0, 0.0, 0.0, 0.0, 0.0, 0.0, 0.0, 0.0, 0.0, 1.6635871186142843E9, 0.0, 2022-09-19 16:31:58.614
36.0, 13832.801739311426, -91719.57870955214, 9737.515120210066, 3355.7568020530707, -184100.94786893702, 187500.0, 20224.148955839748, 11968.442734294264, 0.624, -0.6900000000000001, 0.434, 192.0, 0.0, 0.0, 0.0, 0.0, 0.0, 0.0, 0.0, 0.0, 0.0, 1.663587118617302E9, 0.0, 2022-09-19 16:31:58.617
37.0, 13814.339198391343, -91733.81677077017, 9720.706608379676, 3360.8529997888804, -184057.83135388274, 187500.0, 20209.86619113281, 11963.547702258553, 0.624, -0.6900000000000001, 0.434, 192.0, 0.0, 0.0, 0.0, 0.0, 0.0, 0.0, 0.0, 0.0, 0.0, 1.6635871186203003E9, 0.0, 2022-09-19 16:31:58.620
38.0, 13806.426680854163, -91747.13841046553, 9712.30235246448, 3364.0940027349, -184059.93241786154, 187500.0, 20209.28504577697, 11958.94324290076, 0.624, -0.6880000000000001, 0.434, 192.0, 19.0, 128.0, 234.0, 128.0, 13.0, 144.0, 0.0, 0.0, 0.0, 1.6635871186253023E9, 0.0, 2022-09-19 16:31:58.625
39.0, 13809.846497755827, -91747.31722442117, 9721.980657813629, 3359.646005588294, -184154.23442771847, 187500.0, 20217.443432503158, 11963.480647025186, 0.624, -0.6880000000000001, 0.434, 192.0, 0.0, 0.0, 0.0, 0.0, 0.0, 0.0, 0.0, 0.0, 0.0, 1.6635871186293035E9, 0.0, 2022-09-19 16:31:58.629
40.0, 13820.731797305561, -91734.28615740374, 9739.3479632554, 3358.707232321171, -184158.23538997598, 187500.0, 20231.592086743367, 11972.354289573943, 0.624, -0.6880000000000001, 0.434, 192.0, 0.0, 0.0, 0.0, 0.0, 0.0, 0.0, 0.0, 0.0, 0.0, 1.6635871186333191E9, 0.0, 2022-09-19 16:31:58.633
41.0, 13820.552983349919, -91731.91687249146, 9741.694896423209, 3358.1484387097885, -184106.5134533064, 187500.0, 20226.361778540824, 11973.248359352156, 0.624, -0.6880000000000001, 0.434, 192.0, 0.0, 0.0, 0.0, 0.0, 0.0, 0.0, 0.0, 0.0, 0.0, 1.6635871186372983E9, 0.0, 2022-09-19 16:31:58.637
42.0, 13800.72698601806, -91752.16755296798, 9722.561803169467, 3353.4992758630847, -184040.12877227413, 187500.0, 20205.6193596863, 11957.535083000075, 0.624, -0.6880000000000001, 0.434, 192.0, 0.0, 0.0, 0.0, 0.0, 0.0, 0.0, 0.0, 0.0, 0.0, 1.6635871186423965E9, 0.0, 2022-09-19 16:31:58.642
43.0, 13799.989378451035, -91767.52320140878, 9713.486994920611, 3356.941444509202, -184050.58938867922, 187500.0, 20203.875923618787, 11952.684754453274, 0.624, -0.6880000000000001, 0.434, 192.0, 0.0, 0.0, 0.0, 0.0, 0.0, 0.0, 0.0, 0.0, 0.0, 1.6635871186453252E9, 0.0, 2022-09-19 16:31:58.645
44.0, 13805.756128520505, -91768.73019560936, 9718.449082189689, 3364.205761457177, -184133.26849141938, 187500.0, 20215.901162135742, 11960.932548157281, 0.624, -0.6880000000000001, 0.434, 192.0, 0.0, 0.0, 0.0, 0.0, 0.0, 0.0, 0.0, 0.0, 0.0, 1.663587118648323E9, 0.0, 2022-09-19 16:31:58.648
45.0, 13817.222573426077, -91757.06258500369, 9736.330477753936, 3367.6032266143834, -184160.85054407723, 187500.0, 20234.6766274782, 11975.930568686792, 0.624, -0.6880000000000001, 0.434, 192.0, 0.0, 0.0, 0.0, 0.0, 0.0, 0.0, 0.0, 0.0, 0.0, 1.663587118654446E9, 0.0, 2022-09-19 16:31:58.654
46.0, 13809.757090778005, -91758.403689671, 9736.30812600948, 3359.7577643105706, -184082.9994181394, 187500.0, 20230.295685564957, 11969.31445232802, 0.624, -0.6880000000000001, 0.434, 192.0, 0.0, 0.0, 0.0, 0.0, 0.0, 0.0, 0.0, 0.0, 0.0, 1.6635871186573777E9, 0.0, 2022-09-19 16:31:58.657
47.0, 13788.366471334277, -91780.2636957483, 9712.995256542596, 3357.5449416094953, -184038.87707458463, 187500.0, 20208.413327743212, 11955.523425999098, 0.624, -0.6880000000000001, 0.434, 192.0, 0.0, 0.0, 0.0, 0.0, 0.0, 0.0, 0.0, 0.0, 0.0, 1.6635871186613271E9, 0.0, 2022-09-19 16:31:58.661
48.0, 13794.289683614932, -91785.44930046193, 9707.943762295696, 3359.1095637213666, -184092.52126127738, 187500.0, 20209.463859732612, 11952.84121666446, 0.616, -0.682, 0.436, 192.0, 19.0, 64.0, 234.0, 176.0, 13.0, 160.0, 0.0, 0.0, 0.0, 1.6635871186653533E9, 0.0, 2022-09-19 16:31:58.665
49.0, 13804.415023853187, -91781.20246901542, 9716.996218800095, 3359.5565986104725, -184137.02358448788, 187500.0, 20218.4716127481, 11954.852873665437, 0.616, -0.682, 0.436, 192.0, 0.0, 0.0, 0.0, 0.0, 0.0, 0.0, 0.0, 0.0, 0.0, 1.6635871186703856E9, 0.0, 2022-09-19 16:31:58.670
50.0, 13812.886335001747, -91774.69811137892, 9730.787245129019, 3358.5954735988944, -184150.63579686117, 187500.0, 20230.698016965154, 11961.670155724307, 0.616, -0.682, 0.436, 192.0, 0.0, 0.0, 0.0, 0.0, 0.0, 0.0, 0.0, 0.0, 0.0, 1.6635871186733725E9, 0.0, 2022-09-19 16:31:58.673
51.0, 13808.036006454946, -91776.77682361327, 9729.334381739423, 3364.0045957570787, -184086.26277282988, 187500.0, 20228.351083797348, 11962.765391202616, 0.616, -0.682, 0.436, 192.0, 0.0, 0.0, 0.0, 0.0, 0.0, 0.0, 0.0, 0.0, 0.0, 1.663587118676364E9, 0.0, 2022-09-19 16:31:58.676
52.0, 13793.686186514638, -91796.40165524503, 9711.318875708446, 3363.3116916789645, -184014.3348591727, 187500.0, 20211.699034178142, 11945.241623549655, 0.616, -0.682, 0.436, 192.0, 0.0, 0.0, 0.0, 0.0, 0.0, 0.0, 0.0, 0.0, 0.0, 1.6635871186813583E9, 0.0, 2022-09-19 16:31:58.681
53.0, 13798.357701105799, -91808.65041120654, 9706.312084950458, 3370.2183807156543, -184074.97514187996, 187500.0, 20210.983778355574, 11951.45540850823, 0.616, -0.682, 0.436, 192.0, 0.0, 0.0, 0.0, 0.0, 0.0, 0.0, 0.0, 0.0, 0.0, 1.6635871186853883E9, 0.0, 2022-09-19 16:31:58.685
54.0, 13816.037930969946, -91803.55421347074, 9721.801843857986, 3373.8617150618693, -184153.02743351788, 187500.0, 20226.205316329637, 11963.03361213608, 0.616, -0.682, 0.436, 192.0, 0.0, 0.0, 0.0, 0.0, 0.0, 0.0, 0.0, 0.0, 0.0, 1.6635871186893928E9, 0.0, 2022-09-19 16:31:58.689
55.0, 13832.891146289248, -91789.09263480814, 9745.002954602594, 3372.5653138834614, -184140.13047696717, 187500.0, 20243.840842704874, 11968.196865105256, 0.616, -0.682, 0.436, 192.0, 0.0, 0.0, 0.0, 0.0, 0.0, 0.0, 0.0, 0.0, 0.0, 1.6635871186933985E9, 0.0, 2022-09-19 16:31:58.693
56.0, 13821.223535683577, -91794.32294301069, 9740.554957455988, 3366.709156836171, -184050.43292646803, 187500.0, 20232.262639077027, 11958.518559756109, 0.616, -0.682, 0.436, 192.0, 0.0, 0.0, 0.0, 0.0, 0.0, 0.0, 0.0, 0.0, 0.0, 1.6635871186964073E9, 0.0, 2022-09-19 16:31:58.696
57.0, 13800.503468573508, -91816.56292874372, 9718.87376533434, 3364.965720768657, -184020.8392168092, 187500.0, 20207.675720176187, 11949.220234062701, 0.616, -0.682, 0.436, 192.0, 0.0, 0.0, 0.0, 0.0, 0.0, 0.0, 0.0, 0.0, 0.0, 1.663587118700414E9, 0.0, 2022-09-19 16:31:58.700
58.0, 13799.92232321767, -91825.99536490385, 9715.252782732581, 3370.8442295604027, -184051.57286543524, 187500.0, 20206.491077720057, 11950.918966641304, 0.616, -0.68, 0.44, 192.0, 19.0, 64.0, 234.0, 192.0, 13.0, 192.0, 0.0, 0.0, 0.0, 1.663587118704437E9, 0.0, 2022-09-19 16:31:58.704
59.0, 13807.141936676733, -91829.68340273899, 9720.907774079773, 3369.972511526646, -184094.64467700062, 187500.0, 20215.878810391285, 11946.158045072323, 0.616, -0.68, 0.44, 192.0, 0.0, 0.0, 0.0, 0.0, 0.0, 0.0, 0.0, 0.0, 0.0, 1.663587118708518E9, 0.0, 2022-09-19 16:31:58.708
60.0, 13819.994189738536, -91819.60276598964, 9739.280908022036, 3368.162020225766, -184158.14598299813, 187500.0, 20230.608609987332, 11949.287289296066, 0.616, -0.68, 0.44, 192.0, 0.0, 0.0, 0.0, 0.0, 0.0, 0.0, 0.0, 0.0, 0.0, 1.6635871187134593E9, 0.0, 2022-09-19 16:31:58.713
61.0, 13812.618114068284, -91820.38507704558, 9740.800826644996, 3365.9939010136013, -184073.76814767937, 187500.0, 20224.48423200658, 11948.594385217952, 0.616, -0.68, 0.44, 192.0, 0.0, 0.0, 0.0, 0.0, 0.0, 0.0, 0.0, 0.0, 0.0, 1.6635871187173855E9, 0.0, 2022-09-19 16:31:58.717
62.0, 13799.58704705084, -91842.1780278895, 9725.199309015192, 3380.4331279317294, -184023.76729533283, 187500.0, 20214.20242955714, 11947.633260206374, 0.616, -0.68, 0.44, 192.0, 0.0, 0.0, 0.0, 0.0, 0.0, 0.0, 0.0, 0.0, 0.0, 1.6635871187215211E9, 0.0, 2022-09-19 16:31:58.721
63.0, 13802.40336685221, -91850.67169078252, 9725.31106773747, 3380.2766657205425, -184066.36972026466, 187500.0, 20217.398729014247, 11941.777103159084, 0.616, -0.68, 0.44, 192.0, 0.0, 0.0, 0.0, 0.0, 0.0, 0.0, 0.0, 0.0, 0.0, 1.6635871187244537E9, 0.0, 2022-09-19 16:31:58.724
64.0, 13812.752224535016, -91847.29657736977, 9732.865957363363, 3380.4331279317294, -184126.07122970477, 187500.0, 20228.485194264078, 11952.952975386737, 0.616, -0.68, 0.44, 192.0, 0.0, 0.0, 0.0, 0.0, 0.0, 0.0, 0.0, 0.0, 0.0, 1.663587118730408E9, 0.0, 2022-09-19 16:31:58.730
65.0, 13829.516032876496, -91831.80681846224, 9750.188559316226, 3376.0745377629446, -184190.93599211407, 187500.0, 20238.878755435795, 11964.88880692587, 0.616, -0.68, 0.44, 192.0, 0.0, 0.0, 0.0, 0.0, 0.0, 0.0, 0.0, 0.0, 0.0, 1.663587118733475E9, 0.0, 2022-09-19 16:31:58.733
66.0, 13820.530631605463, -91829.61634750562, 9749.6521174493, 3372.4982586500955, -184066.92851387605, 187500.0, 20228.798118686453, 11963.123019113902, 0.616, -0.68, 0.44, 192.0, 0.0, 0.0, 0.0, 0.0, 0.0, 0.0, 0.0, 0.0, 0.0, 1.663587118736472E9, 0.0, 2022-09-19 16:31:58.736
67.0, 13799.29647437292, -91850.71639427143, 9726.562765426967, 3364.0269475015343, -184019.6322226086, 187500.0, 20206.62518818679, 11942.98409735967, 0.616, -0.68, 0.44, 192.0, 0.0, 0.0, 0.0, 0.0, 0.0, 0.0, 0.0, 0.0, 0.0, 1.6635871187414997E9, 0.0, 2022-09-19 16:31:58.741
68.0, 13794.647311526218, -91870.36357764764, 9718.4937856786, 3380.0084447870786, -184045.6943566435, 187500.0, 20206.13344980877, 11959.03264987858, 0.622, -0.686, 0.44, 192.0, 19.0, 112.0, 234.0, 144.0, 13.0, 192.0, 0.0, 0.0, 0.0, 1.6635871187454956E9, 0.0, 2022-09-19 16:31:58.745
69.0, 13799.721157517572, -91872.77756604881, 9724.908736337273, 3367.6032266143834, -184113.57660455426, 187500.0, 20211.09553707785, 11958.138580100367, 0.622, -0.686, 0.44, 192.0, 0.0, 0.0, 0.0, 0.0, 0.0, 0.0, 0.0, 0.0, 0.0, 1.663587118749498E9, 0.0, 2022-09-19 16:31:58.749
70.0, 13812.796928023927, -91860.43940310949, 9743.68420167973, 3363.6916713347046, -184182.86701236572, 187500.0, 20225.33359829588, 11967.816885449516, 0.622, -0.686, 0.44, 192.0, 0.0, 0.0, 0.0, 0.0, 0.0, 0.0, 0.0, 0.0, 0.0, 1.6635871187524931E9, 0.0, 2022-09-19 16:31:58.752
71.0, 13808.930076233159, -91861.24406590988, 9744.511216224577, 3369.994863271101, -184065.63211269764, 187500.0, 20224.953618640142, 11974.880036697394, 0.622, -0.686, 0.44, 192.0, 0.0, 0.0, 0.0, 0.0, 0.0, 0.0, 0.0, 0.0, 0.0, 1.6635871187564948E9, 0.0, 2022-09-19 16:31:58.756
72.0, 13796.077823171358, -91880.33245567471, 9726.898041593795, 3376.521572652051, -184044.75558337636, 187500.0, 20214.76122316852, 11970.879074439892, 0.622, -0.686, 0.44, 192.0, 0.0, 0.0, 0.0, 0.0, 0.0, 0.0, 0.0, 0.0, 0.0, 1.6635871187606237E9, 0.0, 2022-09-19 16:31:58.760
73.0, 13795.742547004527, -91890.16722323504, 9723.701742136687, 3375.940427296213, -184088.4085402976, 187500.0, 20214.828278401885, 11974.32124308601, 0.622, -0.686, 0.44, 192.0, 0.0, 0.0, 0.0, 0.0, 0.0, 0.0, 0.0, 0.0, 0.0, 1.663587118764564E9, 0.0, 2022-09-19 16:31:58.764
74.0, 13802.671587785673, -91886.54624063328, 9734.050599819493, 3372.8335348169253, -184150.8593143057, 187500.0, 20225.95944714063, 11977.092859398468, 0.622, -0.686, 0.44, 192.0, 0.0, 0.0, 0.0, 0.0, 0.0, 0.0, 0.0, 0.0, 0.0, 1.663587118768517E9, 0.0, 2022-09-19 16:31:58.768
75.0, 13817.423739126176, -91870.72120555893, 9753.36250702888, 3367.2455987030985, -184159.0624045208, 187500.0, 20240.86806069232, 11979.395089077365, 0.622, -0.686, 0.44, 192.0, 0.0, 0.0, 0.0, 0.0, 0.0, 0.0, 0.0, 0.0, 0.0, 1.6635871187735932E9, 0.0, 2022-09-19 16:31:58.773
76.0, 13808.550096577419, -91873.87280152712, 9749.070972093461, 3362.9540637676796, -184085.81573794078, 187500.0, 20233.603743744345, 11968.822713950005, 0.622, -0.686, 0.44, 192.0, 0.0, 0.0, 0.0, 0.0, 0.0, 0.0, 0.0, 0.0, 0.0, 1.6635871187775528E9, 0.0, 2022-09-19 16:31:58.777
77.0, 13791.67452951366, -91898.3926651946, 9724.327590981435, 3368.765517326059, -184023.6331848661, 187500.0, 20214.515353979514, 11965.581711003984, 0.622, -0.686, 0.44, 192.0, 0.0, 0.0, 0.0, 0.0, 0.0, 0.0, 0.0, 0.0, 0.0, 1.6635871187805448E9, 0.0, 2022-09-19 16:31:58.780
78.0, 13791.942750447126, -91912.02722931234, 9716.616239144354, 3362.99876725659, -184072.8517261567, 187500.0, 20211.743737667053, 11962.56422550252, 0.62, -0.68, 0.43, 192.0, 19.0, 96.0, 234.0, 192.0, 13.0, 112.0, 0.0, 0.0, 0.0, 1.6635871187845695E9, 0.0, 2022-09-19 16:31:58.784
79.0, 13805.35379712031, -91911.08845604521, 9724.886384592817, 3355.354470652875, -184147.68536659307, 187500.0, 20220.930304638186, 11960.127885356891, 0.62, -0.68, 0.43, 192.0, 0.0, 0.0, 0.0, 0.0, 0.0, 0.0, 0.0, 0.0, 0.0, 1.6635871187886405E9, 0.0, 2022-09-19 16:31:58.788
80.0, 13821.156480450212, -91896.3363047047, 9745.561748213977, 3357.991976498601, -184175.69210239555, 187500.0, 20238.074092635405, 11974.2765395971, 0.62, -0.68, 0.43, 192.0, 0.0, 0.0, 0.0, 0.0, 0.0, 0.0, 0.0, 0.0, 0.0, 1.6635871187925785E9, 0.0, 2022-09-19 16:31:58.792
81.0, 13808.483041344052, -91901.23133674043, 9743.281870279536, 3358.8413427879027, -184072.2929325453, 187500.0, 20228.90987740873, 11967.213388349222, 0.62, -0.68, 0.43, 192.0, 0.0, 0.0, 0.0, 0.0, 0.0, 0.0, 0.0, 0.0, 0.0, 1.6635871187975543E9, 0.0, 2022-09-19 16:31:58.797
82.0, 13788.120602145267, -91927.31582251977, 9723.142948525305, 3361.5012003780844, -184035.50196117186, 187500.0, 20212.86132488982, 11956.350440543943, 0.62, -0.68, 0.43, 192.0, 0.0, 0.0, 0.0, 0.0, 0.0, 0.0, 0.0, 0.0, 0.0, 1.6635871188015957E9, 0.0, 2022-09-19 16:31:58.801
83.0, 13787.405346322697, -91940.3021860483, 9716.616239144354, 3359.310729421464, -184064.5368772193, 187500.0, 20210.33557776637, 11956.149274843845, 0.62, -0.68, 0.43, 192.0, 0.0, 0.0, 0.0, 0.0, 0.0, 0.0, 0.0, 0.0, 0.0, 1.663587118805634E9, 0.0, 2022-09-19 16:31:58.805
84.0, 13792.367433591777, -91944.86194191717, 9721.980657813629, 3358.9531015101793, -184104.8594242167, 187500.0, 20221.734967438577, 11959.926719656793, 0.62, -0.68, 0.43, 192.0, 0.0, 0.0, 0.0, 0.0, 0.0, 0.0, 0.0, 0.0, 0.0, 1.663587118808597E9, 0.0, 2022-09-19 16:31:58.808
85.0, 13804.504430831008, -91936.45768600199, 9739.415018488768, 3355.1980084416878, -184168.29367498084, 187500.0, 20234.453110033646, 11964.195902847756, 0.62, -0.68, 0.43, 192.0, 0.0, 0.0, 0.0, 0.0, 0.0, 0.0, 0.0, 0.0, 0.0, 1.663587118812595E9, 0.0, 2022-09-19 16:31:58.812
86.0, 13792.836820225337, -91939.8998546481, 9735.548166698, 3354.2368834301096, -184071.62238021166, 187500.0, 20220.460918004625, 11959.725553956694, 0.62, -0.68, 0.43, 192.0, 0.0, 0.0, 0.0, 0.0, 0.0, 0.0, 0.0, 0.0, 0.0, 1.6635871188166296E9, 0.0, 2022-09-19 16:31:58.816
87.0, 13775.737735717028, -91963.81622121528, 9715.073968776938, 3355.2427119305985, -184042.90038858657, 187500.0, 20203.630054429777, 11948.929661384782, 0.62, -0.68, 0.43, 192.0, 0.0, 0.0, 0.0, 0.0, 0.0, 0.0, 0.0, 0.0, 0.0, 1.6635871188205886E9, 0.0, 2022-09-19 16:31:58.820
88.0, 13778.10702062929, -91975.52853530986, 9712.704683864677, 3350.5041421060732, -184095.67285724555, 187500.0, 20205.28408351947, 11941.17360605879, 0.62, -0.68, 0.43, 192.0, 0.0, 0.0, 0.0, 0.0, 0.0, 0.0, 0.0, 0.0, 0.0, 1.663587118824588E9, 0.0, 2022-09-19 16:31:58.824
89.0, 13792.568599291873, -91968.5100875509, 9728.015628816562, 3352.158171195766, -184146.29955843682, 187500.0, 20220.14799358225, 11953.668231209307, 0.624, -0.686, 0.432, 192.0, 19.0, 128.0, 234.0, 144.0, 13.0, 128.0, 0.0, 0.0, 0.0, 1.663587118829612E9, 0.0, 2022-09-19 16:31:58.829
90.0, 13799.184715650645, -91965.44789856052, 9740.35379175589, 3353.543979351995, -184134.8554652757, 187500.0, 20233.4249297887, 11965.089972625969, 0.624, -0.686, 0.432, 192.0, 0.0, 0.0, 0.0, 0.0, 0.0, 0.0, 0.0, 0.0, 0.0, 1.6635871188336523E9, 0.0, 2022-09-19 16:31:58.833
91.0, 13790.422831824164, -91971.99695968593, 9733.603564930389, 3343.910377491758, -184055.01503408136, 187500.0, 20224.10425235084, 11949.868434651904, 0.624, -0.686, 0.432, 192.0, 0.0, 0.0, 0.0, 0.0, 0.0, 0.0, 0.0, 0.0, 0.0, 1.663587118836599E9, 0.0, 2022-09-19 16:31:58.836
92.0, 13773.524913015952, -91994.05813146332, 9714.470471676645, 3347.3078426489647, -184021.71093484294, 187500.0, 20208.413327743212, 11944.168739815801, 0.624, -0.686, 0.432, 192.0, 0.0, 0.0, 0.0, 0.0, 0.0, 0.0, 0.0, 0.0, 0.0, 1.6635871188406763E9, 0.0, 2022-09-19 16:31:58.840
93.0, 13773.435506038131, -92004.54109961285, 9707.854355317873, 3343.2174734136433, -184097.52805203534, 187500.0, 20207.56396145391, 11937.127940312379, 0.624, -0.686, 0.432, 192.0, 0.0, 0.0, 0.0, 0.0, 0.0, 0.0, 0.0, 0.0, 0.0, 1.663587118844682E9, 0.0, 2022-09-19 16:31:58.844
94.0, 13784.38786082123, -92001.68007632258, 9718.627896145332, 3351.3758601398304, -184125.64654656014, 187500.0, 20221.824374416396, 11949.309641040521, 0.624, -0.686, 0.432, 192.0, 0.0, 0.0, 0.0, 0.0, 0.0, 0.0, 0.0, 0.0, 0.0, 1.6635871188486269E9, 0.0, 2022-09-19 16:31:58.848
95.0, 13792.546247547418, -91996.85209952023, 9729.177919528238, 3346.7490490375817, -184132.97791874147, 187500.0, 20228.90987740873, 11953.2211963202, 0.624, -0.686, 0.432, 192.0, 0.0, 0.0, 0.0, 0.0, 0.0, 0.0, 0.0, 0.0, 0.0, 1.6635871188526828E9, 0.0, 2022-09-19 16:31:58.852
96.0, 13784.790192221428, -92005.63633509116, 9723.433521203224, 3348.4254298717296, -184077.3891302811, 187500.0, 20223.254886061535, 11947.990888117658, 0.624, -0.686, 0.432, 192.0, 0.0, 0.0, 0.0, 0.0, 0.0, 0.0, 0.0, 0.0, 0.0, 1.6635871188577027E9, 0.0, 2022-09-19 16:31:58.857
97.0, 13768.58517749133, -92028.47981792448, 9703.741634338097, 3338.769476267037, -184014.40191440607, 187500.0, 20207.899237620742, 11928.41075997481, 0.624, -0.686, 0.432, 192.0, 0.0, 0.0, 0.0, 0.0, 0.0, 0.0, 0.0, 0.0, 0.0, 1.663587118860666E9, 0.0, 2022-09-19 16:31:58.860
98.0, 13768.473418769052, -92043.50019019845, 9698.019587757539, 3341.384630368308, -184064.80509815278, 187500.0, 20210.4696882331, 11926.153233784824, 0.624, -0.686, 0.432, 192.0, 0.0, 0.0, 0.0, 0.0, 0.0, 0.0, 0.0, 0.0, 0.0, 1.6635871188647444E9, 0.0, 2022-09-19 16:31:58.864
99.0, 13783.560846276385, -92037.95695757354, 9713.01760828705, 3343.3068803914643, -184160.35880569922, 187500.0, 20223.523106995002, 11937.597326945941, 0.626, -0.6880000000000001, 0.436, 192.0, 19.0, 144.0, 234.0, 128.0, 13.0, 160.0, 0.0, 0.0, 0.0, 1.66358711886875E9, 0.0, 2022-09-19 16:31:58.868
100.0, 13794.736718504038, -92026.69167836806, 9726.383951471324, 3336.511950077051, -184142.1197822237, 187500.0, 20232.374397799304, 11938.357286257422, 0.626, -0.6880000000000001, 0.436, 192.0, 0.0, 0.0, 0.0, 0.0, 0.0, 0.0, 0.0, 0.0, 0.0, 1.6635871188726988E9, 0.0, 2022-09-19 16:31:58.872
101.0, 13779.91751193017, -92039.99096631896, 9710.40245418578, 3336.6237087993277, -184037.2453972394, 187500.0, 20218.4716127481, 11929.2154227752, 0.626, -0.6880000000000001, 0.436, 192.0, 0.0, 0.0, 0.0, 0.0, 0.0, 0.0, 0.0, 0.0, 0.0, 1.6635871188767529E9, 0.0, 2022-09-19 16:31:58.876
102.0, 13770.686241470128, -92061.91802762962, 9694.420956900234, 3346.9502147376797, -184051.19288577948, 187500.0, 20204.85940037482, 11925.057998306513, 0.626, -0.6880000000000001, 0.436, 192.0, 0.0, 0.0, 0.0, 0.0, 0.0, 0.0, 0.0, 0.0, 0.0, 1.66358711888076E9, 0.0, 2022-09-19 16:31:58.880
103.0, 13769.099267613801, -92076.93839990359, 9687.268398674536, 3344.42446761423, -184065.25213304188, 187500.0, 20201.37252823979, 11925.236812262156, 0.626, -0.6880000000000001, 0.436, 192.0, 0.0, 0.0, 0.0, 0.0, 0.0, 0.0, 0.0, 0.0, 0.0, 1.6635871188857508E9, 0.0, 2022-09-19 16:31:58.885
104.0, 13778.755221218495, -92071.66338821214, 9698.399567413278, 3346.927862993224, -184146.456020648, 187500.0, 20214.157726068228, 11937.373809501387, 0.626, -0.6880000000000001, 0.436, 192.0, 0.0, 0.0, 0.0, 0.0, 0.0, 0.0, 0.0, 0.0, 0.0, 1.6635871188887074E9, 0.0, 2022-09-19 16:31:58.888
105.0, 13792.121564402767, -92055.36896650422, 9718.762006612063, 3346.905511248769, -184155.6649393636, 187500.0, 20228.842822175364, 11949.711972440717, 0.626, -0.6880000000000001, 0.436, 192.0, 0.0, 0.0, 0.0, 0.0, 0.0, 0.0, 0.0, 0.0, 0.0, 1.6635871188917575E9, 0.0, 2022-09-19 16:31:58.891
106.0, 13785.080764899347, -92061.80626890734, 9713.911678065262, 3350.3029764059756, -184073.8352029127, 187500.0, 20220.5726767269, 11942.671172937295, 0.626, -0.6880000000000001, 0.436, 192.0, 0.0, 0.0, 0.0, 0.0, 0.0, 0.0, 0.0, 0.0, 0.0, 1.6635871188967657E9, 0.0, 2022-09-19 16:31:58.896
107.0, 13769.121619358257, -92087.37666456422, 9692.118727221337, 3353.163999696255, -184016.30181268477, 187500.0, 20204.881752119276, 11929.707161153217, 0.626, -0.6880000000000001, 0.436, 192.0, 0.0, 0.0, 0.0, 0.0, 0.0, 0.0, 0.0, 0.0, 0.0, 1.663587118900756E9, 0.0, 2022-09-19 16:31:58.900
108.0, 13768.808694935882, -92095.95973443506, 9685.256741673558, 3348.894816505291, -184072.27058080086, 187500.0, 20202.981853840574, 11926.17558552928, 0.626, -0.6880000000000001, 0.436, 192.0, 0.0, 0.0, 0.0, 0.0, 0.0, 0.0, 0.0, 0.0, 0.0, 1.6635871189057734E9, 0.0, 2022-09-19 16:31:58.905
109.0, 13781.280968341944, -92088.91893493163, 9699.941837780696, 3349.319499649942, -184146.1207444812, 187500.0, 20215.275313290993, 11928.902498352827, 0.624, -0.6900000000000001, 0.434, 192.0, 19.0, 128.0, 234.0, 112.0, 13.0, 144.0, 0.0, 0.0, 0.0, 1.6635871189108384E9, 0.0, 2022-09-19 16:31:58.910
110.0, 13789.886389957237, -92084.7391587185, 9713.151718753781, 3348.0901537049003, -184113.80012199882, 187500.0, 20226.451185518647, 11931.160024542813, 0.624, -0.6900000000000001, 0.434, 192.0, 0.0, 0.0, 0.0, 0.0, 0.0, 0.0, 0.0, 0.0, 0.0, 1.663587118913793E9, 0.0, 2022-09-19 16:31:58.913
111.0, 13784.521971287963, -92094.90920244566, 9703.58517212691, 3357.6343485873163, -184070.16951682206, 187500.0, 20218.449261003647, 11929.863623364405, 0.624, -0.6900000000000001, 0.434, 192.0, 0.0, 0.0, 0.0, 0.0, 0.0, 0.0, 0.0, 0.0, 0.0, 1.66358711891681E9, 0.0, 2022-09-19 16:31:58.916
112.0, 13776.63180549524, -92111.51654857595, 9687.894247519285, 3356.941444509202, -184027.9917750349, 187500.0, 20204.5688276969, 11922.442844205243, 0.624, -0.6900000000000001, 0.434, 192.0, 0.0, 0.0, 0.0, 0.0, 0.0, 0.0, 0.0, 0.0, 0.0, 1.6635871189207935E9, 0.0, 2022-09-19 16:31:58.920
113.0, 13771.982642648536, -92124.86054001577, 9685.748480051576, 3354.5051043635735, -184047.32603398873, 187500.0, 20205.485249219568, 11928.813091375005, 0.624, -0.6900000000000001, 0.434, 192.0, 0.0, 0.0, 0.0, 0.0, 0.0, 0.0, 0.0, 0.0, 0.0, 1.6635871189248657E9, 0.0, 2022-09-19 16:31:58.924
114.0, 13777.212950851077, -92123.00534522597, 9695.940875523196, 3346.0114414705567, -184131.92738675207, 187500.0, 20211.7213859226, 11927.762559385606, 0.624, -0.6900000000000001, 0.434, 192.0, 0.0, 0.0, 0.0, 0.0, 0.0, 0.0, 0.0, 0.0, 0.0, 1.6635871189287884E9, 0.0, 2022-09-19 16:31:58.928
115.0, 13784.074936398858, -92121.30661264737, 9707.407320428769, 3347.7995810269813, -184108.99449694093, 187500.0, 20220.32680753789, 11931.78587338756, 0.624, -0.6900000000000001, 0.434, 192.0, 0.0, 0.0, 0.0, 0.0, 0.0, 0.0, 0.0, 0.0, 0.0, 1.6635871189327886E9, 0.0, 2022-09-19 16:31:58.932
116.0, 13774.664851983172, -92132.75070580849, 9699.740672080598, 3350.9735287396347, -184022.2920801988, 187500.0, 20210.022653343996, 11924.230983761667, 0.624, -0.6900000000000001, 0.434, 192.0, 0.0, 0.0, 0.0, 0.0, 0.0, 0.0, 0.0, 0.0, 0.0, 1.6635871189369204E9, 0.0, 2022-09-19 16:31:58.936
117.0, 13763.220758822055, -92153.31431070737, 9683.178029439216, 3349.9900519836015, -184013.35138241667, 187500.0, 20194.130563036273, 11909.50118416562, 0.624, -0.6900000000000001, 0.434, 192.0, 0.0, 0.0, 0.0, 0.0, 0.0, 0.0, 0.0, 0.0, 0.0, 1.6635871189418073E9, 0.0, 2022-09-19 16:31:58.941
118.0, 13770.596834492308, -92162.65733988969, 9685.435555629201, 3357.4778863761294, -184086.21806934098, 187500.0, 20199.98672008356, 11920.542945926542, 0.624, -0.6900000000000001, 0.434, 192.0, 0.0, 0.0, 0.0, 0.0, 0.0, 0.0, 0.0, 0.0, 0.0, 1.6635871189448233E9, 0.0, 2022-09-19 16:31:58.944
119.0, 13783.91847418767, -92157.91877006517, 9697.617256357344, 3356.963796253657, -184160.8281923328, 187500.0, 20216.594066213856, 11932.545832699041, 0.628, -0.684, 0.436, 192.0, 19.0, 160.0, 234.0, 160.0, 13.0, 160.0, 0.0, 0.0, 0.0, 1.663587118947857E9, 0.0, 2022-09-19 16:31:58.947
120.0, 13796.100174915813, -92145.87117980375, 9712.615276886854, 3351.509970606562, -184136.93417751006, 187500.0, 20228.932229153186, 11936.502091467632, 0.628, -0.684, 0.436, 192.0, 0.0, 0.0, 0.0, 0.0, 0.0, 0.0, 0.0, 0.0, 0.0, 1.663587118952868E9, 0.0, 2022-09-19 16:31:58.952
121.0, 13782.219741609068, -92160.57862765536, 9699.24893370258, 3351.420563628741, -184015.36303941763, 187500.0, 20218.695130192653, 11923.113396538902, 0.628, -0.684, 0.436, 192.0, 0.0, 0.0, 0.0, 0.0, 0.0, 0.0, 0.0, 0.0, 0.0, 1.663587118956885E9, 0.0, 2022-09-19 16:31:58.956
122.0, 13780.543360774918, -92179.9575900981, 9684.027395728517, 3368.0502615034893, -184003.29309741178, 187500.0, 20214.04596734595, 11928.50016695263, 0.628, -0.684, 0.436, 192.0, 0.0, 0.0, 0.0, 0.0, 0.0, 0.0, 0.0, 0.0, 0.0, 1.663587118960906E9, 0.0, 2022-09-19 16:31:58.960
123.0, 13787.137125389234, -92193.81567166038, 9678.081831703405, 3368.452592903685, -184056.19967653748, 187500.0, 20216.504659236034, 11926.197937273733, 0.628, -0.684, 0.436, 192.0, 0.0, 0.0, 0.0, 0.0, 0.0, 0.0, 0.0, 0.0, 0.0, 1.6635871189649403E9, 0.0, 2022-09-19 16:31:58.964
124.0, 13798.692977272627, -92193.39098851573, 9688.542448108488, 3364.0045957570787, -184108.6145172852, 187500.0, 20226.786461685475, 11937.910251368316, 0.628, -0.684, 0.436, 192.0, 0.0, 0.0, 0.0, 0.0, 0.0, 0.0, 0.0, 0.0, 0.0, 1.6635871189689038E9, 0.0, 2022-09-19 16:31:58.968
125.0, 13809.622980311273, -92183.1091860663, 9703.629875615821, 3357.299072420487, -184143.8632182912, 187500.0, 20236.107139123338, 11942.917042126304, 0.628, -0.684, 0.436, 192.0, 0.0, 0.0, 0.0, 0.0, 0.0, 0.0, 0.0, 0.0, 0.0, 1.6635871189729283E9, 0.0, 2022-09-19 16:31:58.972
126.0, 13794.669663270673, -92196.74375018403, 9691.626988843322, 3359.37778465483, -184044.46501069845, 187500.0, 20221.15382208274, 11931.763521643106, 0.628, -0.684, 0.436, 192.0, 0.0, 0.0, 0.0, 0.0, 0.0, 0.0, 0.0, 0.0, 0.0, 1.6635871189780357E9, 0.0, 2022-09-19 16:31:58.978
127.0, 13780.185732863634, -92221.37537257378, 9669.945796721673, 3362.1494009672883, -184018.15700747457, 187500.0, 20204.211199785615, 11921.101739537924, 0.628, -0.684, 0.436, 192.0, 0.0, 0.0, 0.0, 0.0, 0.0, 0.0, 0.0, 0.0, 0.0, 1.6635871189809456E9, 0.0, 2022-09-19 16:31:58.980
128.0, 13785.617206766274, -92232.97592794608, 9662.256796629048, 3360.1153922218555, -184047.61660666665, 187500.0, 20200.791382883952, 11914.619733645884, 0.628, -0.684, 0.436, 192.0, 0.0, 0.0, 0.0, 0.0, 0.0, 0.0, 0.0, 0.0, 0.0, 1.663587118984892E9, 0.0, 2022-09-19 16:31:58.984
129.0, 13791.87569521376, -92233.15474190173, 9671.286901388992, 3358.774287554537, -184086.21806934098, 187500.0, 20208.3686242543, 11922.085216293957, 0.626, -0.686, 0.438, 192.0, 19.0, 144.0, 234.0, 144.0, 13.0, 176.0, 0.0, 0.0, 0.0, 1.6635871189899826E9, 0.0, 2022-09-19 16:31:58.989
130.0, 13792.278026613954, -92232.61830003481, 9679.557046837455, 3354.415697385752, -184112.10138942022, 187500.0, 20217.443432503158, 11923.78394887256, 0.626, -0.686, 0.438, 192.0, 0.0, 0.0, 0.0, 0.0, 0.0, 0.0, 0.0, 0.0, 0.0, 1.6635871189949503E9, 0.0, 2022-09-19 16:31:58.994
131.0, 13789.081727156847, -92238.09447742635, 9674.326738634914, 3361.3447381668975, -184050.83525786822, 187500.0, 20211.34140626686, 11924.946239584237, 0.626, -0.686, 0.438, 192.0, 0.0, 0.0, 0.0, 0.0, 0.0, 0.0, 0.0, 0.0, 0.0, 1.6635871189979308E9, 0.0, 2022-09-19 16:31:58.997
132.0, 13776.58710200633, -92257.40638463575, 9659.10520066085, 3362.216456200654, -184020.25807145334, 187500.0, 20198.75737413852, 11917.704274380718, 0.626, -0.686, 0.438, 192.0, 0.0, 0.0, 0.0, 0.0, 0.0, 0.0, 0.0, 0.0, 0.0, 1.663587119000948E9, 0.0, 2022-09-19 16:31:59.000
133.0, 13777.928206673647, -92266.79411730697, 9660.647471028265, 3362.7305463231264, -184068.78370866584, 187500.0, 20201.506638706524, 11920.967629071192, 0.626, -0.686, 0.438, 192.0, 0.0, 0.0, 0.0, 0.0, 0.0, 0.0, 0.0, 0.0, 0.0, 1.6635871190041897E9, 0.0, 2022-09-19 16:31:59.004
134.0, 13783.516142787474, -92268.55990511893, 9669.923444977218, 3368.8772760483357, -184095.71756073448, 187500.0, 20214.448298746145, 11928.209594274711, 0.626, -0.686, 0.438, 192.0, 0.0, 0.0, 0.0, 0.0, 0.0, 0.0, 0.0, 0.0, 0.0, 1.6635871190079474E9, 0.0, 2022-09-19 16:31:59.007
135.0, 13795.58608479334, -92256.95934974663, 9688.721262064131, 3363.3340434234196, -184132.68734606355, 187500.0, 20227.613476230323, 11930.198899531235, 0.626, -0.686, 0.438, 192.0, 0.0, 0.0, 0.0, 0.0, 0.0, 0.0, 0.0, 0.0, 0.0, 1.6635871190129385E9, 0.0, 2022-09-19 16:31:59.012
136.0, 13774.284872327433, -92275.62305636682, 9673.611482812345, 3365.0104242575676, -184046.16374327705, 187500.0, 20207.42985098718, 11930.087140808957, 0.626, -0.686, 0.438, 192.0, 0.0, 0.0, 0.0, 0.0, 0.0, 0.0, 0.0, 0.0, 0.0, 1.663587119017024E9, 0.0, 2022-09-19 16:31:59.017
137.0, 13772.697898471106, -92292.6327338973, 9662.659128029243, 3374.0405290175117, -184013.39608590558, 187500.0, 20201.461935217612, 11926.64497216284, 0.626, -0.686, 0.438, 192.0, 0.0, 0.0, 0.0, 0.0, 0.0, 0.0, 0.0, 0.0, 0.0, 1.6635871190209813E9, 0.0, 2022-09-19 16:31:59.020
138.0, 13782.175038120156, -92297.93009733321, 9664.737840263586, 3375.359281940375, -184083.31234256178, 187500.0, 20209.86619113281, 11932.83640537696, 0.626, -0.686, 0.438, 192.0, 0.0, 0.0, 0.0, 0.0, 0.0, 0.0, 0.0, 0.0, 0.0, 1.663587119023972E9, 0.0, 2022-09-19 16:31:59.023
139.0, 13792.92622720316, -92296.36547522133, 9675.645491557776, 3369.413717915263, -184121.31030813578, 187500.0, 20221.913781394218, 11937.418512990298, 0.626, -0.684, 0.434, 192.0, 19.0, 144.0, 234.0, 160.0, 13.0, 144.0, 0.0, 0.0, 0.0, 1.6635871190279841E9, 0.0, 2022-09-19 16:31:59.027
140.0, 13802.381015107754, -92286.06132102745, 9691.671692332231, 3367.6032266143834, -184158.4589074205, 187500.0, 20231.48032802109, 11949.443751507253, 0.626, -0.684, 0.434, 192.0, 0.0, 0.0, 0.0, 0.0, 0.0, 0.0, 0.0, 0.0, 0.0, 1.6635871190320666E9, 0.0, 2022-09-19 16:31:59.032
141.0, 13788.768802734472, -92298.9359258337, 9678.662977059243, 3363.0211190010455, -184073.67874070155, 187500.0, 20215.275313290993, 11935.965649600703, 0.626, -0.684, 0.434, 192.0, 0.0, 0.0, 0.0, 0.0, 0.0, 0.0, 0.0, 0.0, 0.0, 1.6635871190359771E9, 0.0, 2022-09-19 16:31:59.035
142.0, 13776.832971195337, -92322.20409181167, 9658.300537860458, 3360.875351533336, -184035.23374023841, 187500.0, 20199.38322298327, 11915.849079590927, 0.626, -0.684, 0.434, 192.0, 0.0, 0.0, 0.0, 0.0, 0.0, 0.0, 0.0, 0.0, 0.0, 1.6635871190410058E9, 0.0, 2022-09-19 16:31:59.041
143.0, 13783.002052665002, -92325.57920522442, 9661.742706506575, 3366.865619047358, -184084.67579897356, 187500.0, 20209.173287054695, 11923.336913983454, 0.626, -0.684, 0.434, 192.0, 0.0, 0.0, 0.0, 0.0, 0.0, 0.0, 0.0, 0.0, 0.0, 1.6635871190450137E9, 0.0, 2022-09-19 16:31:59.045
144.0, 13793.283855114443, -92323.7463621791, 9671.353956622357, 3369.2125522151655, -184141.49393337895, 187500.0, 20221.176173827193, 11939.229004291177, 0.626, -0.684, 0.434, 192.0, 0.0, 0.0, 0.0, 0.0, 0.0, 0.0, 0.0, 0.0, 0.0, 1.6635871190490286E9, 0.0, 2022-09-19 16:31:59.049
145.0, 13798.44710808362, -92314.60449869686, 9685.569666095933, 3371.581837127428, -184145.89722703662, 187500.0, 20231.592086743367, 11948.750847429139, 0.626, -0.684, 0.434, 192.0, 0.0, 0.0, 0.0, 0.0, 0.0, 0.0, 0.0, 0.0, 0.0, 1.6635871190519636E9, 0.0, 2022-09-19 16:31:59.051
146.0, 13786.578331777851, -92321.08650458891, 9677.835962514397, 3372.967645283657, -184082.6417902281, 187500.0, 20220.19269707116, 11945.062809594014, 0.626, -0.684, 0.434, 192.0, 0.0, 0.0, 0.0, 0.0, 0.0, 0.0, 0.0, 0.0, 0.0, 1.663587119056082E9, 0.0, 2022-09-19 16:31:59.056
147.0, 13777.861151440282, -92337.24681583009, 9666.4812763311, 3377.6615116192716, -184034.96551930494, 187500.0, 20211.006130100028, 11933.97634434418, 0.626, -0.684, 0.434, 192.0, 0.0, 0.0, 0.0, 0.0, 0.0, 0.0, 0.0, 0.0, 0.0, 1.6635871190600216E9, 0.0, 2022-09-19 16:31:59.060
148.0, 13783.046756153914, -92346.58984501241, 9667.44240134268, 3378.197953486199, -184118.94102322354, 187500.0, 20215.76705166901, 11940.212481047212, 0.626, -0.684, 0.434, 192.0, 0.0, 0.0, 0.0, 0.0, 0.0, 0.0, 0.0, 0.0, 0.0, 1.6635871190660133E9, 0.0, 2022-09-19 16:31:59.066
149.0, 13792.702709758605, -92340.19724609819, 9678.417107870235, 3368.8996277927913, -184156.4248986751, 187500.0, 20225.557115740434, 11942.93939387076, 0.628, -0.6880000000000001, 0.44, 192.0, 19.0, 160.0, 234.0, 128.0, 13.0, 192.0, 0.0, 0.0, 0.0, 1.6635871190691366E9, 0.0, 2022-09-19 16:31:59.069
150.0, 13797.553038305407, -92332.24002507211, 9692.029320243517, 3374.7557848400816, -184146.99246251496, 187500.0, 20233.04495013296, 11948.281460795577, 0.628, -0.6880000000000001, 0.44, 192.0, 0.0, 0.0, 0.0, 0.0, 0.0, 0.0, 0.0, 0.0, 0.0, 1.6635871190730455E9, 0.0, 2022-09-19 16:31:59.073
151.0, 13787.628863767251, -92344.22056010015, 9681.34518639388, 3378.846154075403, -184066.68264468704, 187500.0, 20216.884638891774, 11944.45931249372, 0.628, -0.6880000000000001, 0.44, 192.0, 0.0, 0.0, 0.0, 0.0, 0.0, 0.0, 0.0, 0.0, 0.0, 1.663587119077042E9, 0.0, 2022-09-19 16:31:59.077
152.0, 13772.541436259919, -92367.33226386693, 9663.039107684983, 3368.6984620926933, -184028.77408609082, 187500.0, 20197.796249126943, 11929.483643708665, 0.628, -0.6880000000000001, 0.44, 192.0, 0.0, 0.0, 0.0, 0.0, 0.0, 0.0, 0.0, 0.0, 0.0, 1.66358711908008E9, 0.0, 2022-09-19 16:31:59.080
153.0, 13781.593892764318, -92375.04361570402, 9664.134343163294, 3369.324310937442, -184107.3628195957, 187500.0, 20204.121792807793, 11930.668286164795, 0.628, -0.6880000000000001, 0.44, 192.0, 0.0, 0.0, 0.0, 0.0, 0.0, 0.0, 0.0, 0.0, 0.0, 1.6635871190840786E9, 0.0, 2022-09-19 16:31:59.084
154.0, 13800.21289589559, -92362.92897020925, 9684.541485850988, 3374.4428604177074, -184183.89519261065, 187500.0, 20221.734967438577, 11940.324239769488, 0.628, -0.6880000000000001, 0.44, 192.0, 0.0, 0.0, 0.0, 0.0, 0.0, 0.0, 0.0, 0.0, 0.0, 1.6635871190881538E9, 0.0, 2022-09-19 16:31:59.088
155.0, 13804.035044197446, -92350.5014002921, 9700.388872669802, 3374.1299359953327, -184149.29469219383, 187500.0, 20228.775766942, 11943.677001437783, 0.628, -0.6880000000000001, 0.44, 192.0, 0.0, 0.0, 0.0, 0.0, 0.0, 0.0, 0.0, 0.0, 0.0, 1.663587119092086E9, 0.0, 2022-09-19 16:31:59.092
156.0, 13789.975796935058, -92363.46541207617, 9689.525924864522, 3379.449651175696, -184033.95969080445, 187500.0, 20214.33654002387, 11938.133768812868, 0.628, -0.6880000000000001, 0.44, 192.0, 0.0, 0.0, 0.0, 0.0, 0.0, 0.0, 0.0, 0.0, 0.0, 1.6635871190961113E9, 0.0, 2022-09-19 16:31:59.096
157.0, 13774.553093260896, -92389.12521471086, 9670.72810777761, 3376.923904052246, -184033.55735940425, 187500.0, 20198.220932271593, 11923.40396921682, 0.628, -0.6880000000000001, 0.44, 192.0, 0.0, 0.0, 0.0, 0.0, 0.0, 0.0, 0.0, 0.0, 0.0, 1.6635871191011264E9, 0.0, 2022-09-19 16:31:59.101
158.0, 13778.196427607112, -92394.57904035796, 9671.935101978195, 3380.9472180542016, -184139.5046281224, 187500.0, 20205.14997305274, 11928.50016695263, 0.628, -0.6880000000000001, 0.44, 192.0, 0.0, 0.0, 0.0, 0.0, 0.0, 0.0, 0.0, 0.0, 0.0, 1.6635871191051934E9, 0.0, 2022-09-19 16:31:59.105
159.0, 13791.339253346832, -92379.91629599528, 9689.123593464326, 3377.4156424302632, -184197.64151545067, 187500.0, 20222.740795939066, 11946.806245661528, 0.622, -0.684, 0.438, 192.0, 19.0, 112.0, 234.0, 160.0, 13.0, 176.0, 0.0, 0.0, 0.0, 1.6635871191081195E9, 0.0, 2022-09-19 16:31:59.108
160.0, 13793.686186514638, -92370.84148774642, 9699.003064513572, 3373.995825528601, -184145.24902644742, 187500.0, 20230.921534409707, 11947.923832884293, 0.622, -0.684, 0.438, 192.0, 0.0, 0.0, 0.0, 0.0, 0.0, 0.0, 0.0, 0.0, 0.0, 1.663587119112154E9, 0.0, 2022-09-19 16:31:59.112
161.0, 13778.3528898183, -92385.14660419781, 9684.183857939704, 3380.9248663097464, -184040.62051065214, 187500.0, 20218.181040070183, 11943.520539226598, 0.622, -0.684, 0.438, 192.0, 0.0, 0.0, 0.0, 0.0, 0.0, 0.0, 0.0, 0.0, 0.0, 1.663587119116114E9, 0.0, 2022-09-19 16:31:59.116
162.0, 13766.975851890547, -92405.84431956343, 9667.688270531688, 3374.7334330956264, -184048.06364155575, 187500.0, 20203.607702685324, 11934.110454810912, 0.622, -0.684, 0.438, 192.0, 0.0, 0.0, 0.0, 0.0, 0.0, 0.0, 0.0, 0.0, 0.0, 1.663587119120162E9, 0.0, 2022-09-19 16:31:59.120
163.0, 13773.614319993774, -92413.5109679116, 9666.01188969754, 3370.9559882826793, -184129.80397102883, 187500.0, 20207.742775409555, 11928.790739630549, 0.622, -0.684, 0.438, 192.0, 0.0, 0.0, 0.0, 0.0, 0.0, 0.0, 0.0, 0.0, 0.0, 1.6635871191241496E9, 0.0, 2022-09-19 16:31:59.124
164.0, 13794.49084931503, -92399.8093485605, 9681.903980005263, 3372.1182789943555, -184198.44617825106, 187500.0, 20221.645560460754, 11937.999658346136, 0.622, -0.684, 0.438, 192.0, 0.0, 0.0, 0.0, 0.0, 0.0, 0.0, 0.0, 0.0, 0.0, 1.6635871191291497E9, 0.0, 2022-09-19 16:31:59.129
165.0, 13800.97285520707, -92385.97361874266, 9695.382081911812, 3366.0833079914223, -184153.2062474735, 187500.0, 20229.848650675853, 11943.699353182239, 0.622, -0.684, 0.438, 192.0, 0.0, 0.0, 0.0, 0.0, 0.0, 0.0, 0.0, 0.0, 0.0, 1.663587119133144E9, 0.0, 2022-09-19 16:31:59.133
166.0, 13787.87473295626, -92397.32830492596, 9683.915637006241, 3368.2514272035874, -184063.91102837457, 187500.0, 20216.705824936133, 11934.937469355758, 0.622, -0.684, 0.438, 192.0, 0.0, 0.0, 0.0, 0.0, 0.0, 0.0, 0.0, 0.0, 0.0, 1.663587119136178E9, 0.0, 2022-09-19 16:31:59.136
167.0, 13773.591968249319, -92418.29424122504, 9666.324814119913, 3371.7830028275257, -184055.48442071493, 187500.0, 20204.077089318882, 11931.495300709641, 0.622, -0.684, 0.438, 192.0, 0.0, 0.0, 0.0, 0.0, 0.0, 0.0, 0.0, 0.0, 0.0, 1.6635871191401877E9, 0.0, 2022-09-19 16:31:59.140
168.0, 13781.929168931149, -92422.20579650471, 9668.515285076533, 3377.5050494080842, -184126.00417447143, 187500.0, 20212.95073186764, 11940.74892291414, 0.622, -0.684, 0.438, 192.0, 0.0, 0.0, 0.0, 0.0, 0.0, 0.0, 0.0, 0.0, 0.0, 1.6635871191441717E9, 0.0, 2022-09-19 16:31:59.144
169.0, 13800.190544151134, -92405.28552595204, 9688.408337641757, 3371.224209216143, -184216.2381668375, 187500.0, 20230.094519864862, 11946.31450728351, 0.63, -0.686, 0.44, 192.0, 19.0, 176.0, 234.0, 144.0, 13.0, 192.0, 0.0, 0.0, 0.0, 1.6635871191481383E9, 0.0, 2022-09-19 16:31:59.148
170.0, 13808.125413432768, -92392.83560429045, 9700.902962792274, 3369.480773148629, -184150.47933464998, 187500.0, 20238.364665313326, 11948.08029509548, 0.63, -0.686, 0.44, 192.0, 0.0, 0.0, 0.0, 0.0, 0.0, 0.0, 0.0, 0.0, 0.0, 1.663587119152264E9, 0.0, 2022-09-19 16:31:59.152
171.0, 13794.06616617038, -92407.16307248629, 9684.474430617624, 3361.881180033825, -184055.93145560403, 187500.0, 20218.24809530355, 11937.306754268022, 0.63, -0.686, 0.44, 192.0, 0.0, 0.0, 0.0, 0.0, 0.0, 0.0, 0.0, 0.0, 0.0, 1.6635871191572032E9, 0.0, 2022-09-19 16:31:59.157
172.0, 13784.812543965882, -92420.97645055968, 9671.242197900081, 3364.250464946087, -184064.84980164169, 187500.0, 20206.915760864707, 11928.92485009728, 0.63, -0.686, 0.44, 192.0, 0.0, 0.0, 0.0, 0.0, 0.0, 0.0, 0.0, 0.0, 0.0, 1.6635871191612213E9, 0.0, 2022-09-19 16:31:59.161
173.0, 13785.661910255183, -92428.73250588567, 9671.82334325592, 3371.4030231717857, -184125.22186341547, 187500.0, 20216.19173481366, 11936.54679495654, 0.63, -0.686, 0.44, 192.0, 0.0, 0.0, 0.0, 0.0, 0.0, 0.0, 0.0, 0.0, 0.0, 1.6635871191642225E9, 0.0, 2022-09-19 16:31:59.164
174.0, 13798.268294127976, -92415.34381095694, 9687.626026585822, 3366.709156836171, -184186.66680892312, 187500.0, 20229.446319275656, 11945.80041716104, 0.63, -0.686, 0.44, 192.0, 0.0, 0.0, 0.0, 0.0, 0.0, 0.0, 0.0, 0.0, 0.0, 1.6635871191682165E9, 0.0, 2022-09-19 16:31:59.168
175.0, 13799.54234356193, -92406.26900270808, 9697.796070312987, 3363.244636445598, -184157.8107068313, 187500.0, 20234.54251701147, 11954.249376565145, 0.63, -0.686, 0.44, 192.0, 0.0, 0.0, 0.0, 0.0, 0.0, 0.0, 0.0, 0.0, 0.0, 1.663587119172222E9, 0.0, 2022-09-19 16:31:59.172
176.0, 13780.990395664025, -92428.73250588567, 9677.076003202916, 3368.027909759034, -184047.10251654417, 187500.0, 20218.784537170475, 11942.961745615214, 0.63, -0.686, 0.44, 192.0, 0.0, 0.0, 0.0, 0.0, 0.0, 0.0, 0.0, 0.0, 0.0, 1.6635871191763031E9, 0.0, 2022-09-19 16:31:59.176
177.0, 13772.384974048731, -92450.23488405168, 9660.558064050445, 3375.00165402909, -184032.12684775912, 187500.0, 20214.76122316852, 11939.541928713552, 0.63, -0.686, 0.44, 192.0, 0.0, 0.0, 0.0, 0.0, 0.0, 0.0, 0.0, 0.0, 0.0, 1.6635871191802285E9, 0.0, 2022-09-19 16:31:59.180
178.0, 13778.554055518396, -92454.39230852036, 9662.435610584691, 3375.314578451464, -184134.14020945315, 187500.0, 20220.32680753789, 11942.849986892938, 0.63, -0.686, 0.44, 192.0, 0.0, 0.0, 0.0, 0.0, 0.0, 0.0, 0.0, 0.0, 0.0, 1.6635871191842673E9, 0.0, 2022-09-19 16:31:59.184
179.0, 13792.434488825142, -92442.72469791469, 9678.774735781519, 3360.5400753665062, -184183.91754435512, 187500.0, 20233.96137165563, 11939.072542079992, 0.626, -0.678, 0.436, 192.0, 19.0, 144.0, 234.0, 208.0, 13.0, 160.0, 0.0, 0.0, 0.0, 1.663587119189326E9, 0.0, 2022-09-19 16:31:59.189
180.0, 13799.989378451035, -92432.8675786099, 9691.425823143223, 3367.580874869928, -184153.4074131736, 187500.0, 20241.04687464796, 11949.17553057379, 0.626, -0.678, 0.436, 192.0, 0.0, 0.0, 0.0, 0.0, 0.0, 0.0, 0.0, 0.0, 0.0, 1.663587119192334E9, 0.0, 2022-09-19 16:31:59.192
181.0, 13780.051622396903, -92449.7654974181, 9673.276206645514, 3370.1960289711988, -184057.71959516045, 187500.0, 20223.456051761634, 11941.754751414628, 0.626, -0.678, 0.436, 192.0, 0.0, 0.0, 0.0, 0.0, 0.0, 0.0, 0.0, 0.0, 0.0, 1.6635871191962976E9, 0.0, 2022-09-19 16:31:59.196
182.0, 13764.383049533732, -92468.40685229383, 9653.852540713851, 3361.0541654889785, -184079.95958089348, 187500.0, 20208.18981029866, 11936.926774612282, 0.626, -0.678, 0.436, 192.0, 0.0, 0.0, 0.0, 0.0, 0.0, 0.0, 0.0, 0.0, 0.0, 1.6635871192002761E9, 0.0, 2022-09-19 16:31:59.200
183.0, 13767.020555379459, -92468.2280383382, 9654.366630836324, 3364.0269475015343, -184141.5609886123, 187500.0, 20215.18590631317, 11940.860681636415, 0.626, -0.678, 0.436, 192.0, 0.0, 0.0, 0.0, 0.0, 0.0, 0.0, 0.0, 0.0, 0.0, 1.6635871192042823E9, 0.0, 2022-09-19 16:31:59.204
184.0, 13783.091459642823, -92450.5701602185, 9674.43849735719, 3368.2514272035874, -184231.81733272283, 187500.0, 20238.118796124316, 11950.673097452296, 0.626, -0.678, 0.436, 192.0, 0.0, 0.0, 0.0, 0.0, 0.0, 0.0, 0.0, 0.0, 0.0, 1.6635871192083116E9, 0.0, 2022-09-19 16:31:59.208
185.0, 13788.858209712293, -92438.83549437947, 9686.754308552065, 3364.7869068130144, -184122.47259884747, 187500.0, 20245.226650861103, 11951.544815486051, 0.626, -0.678, 0.436, 192.0, 0.0, 0.0, 0.0, 0.0, 0.0, 0.0, 0.0, 0.0, 0.0, 1.6635871192133217E9, 0.0, 2022-09-19 16:31:59.213
186.0, 13774.173113605157, -92459.93554114527, 9667.464753087133, 3373.7276045951376, -184035.5913681497, 187500.0, 20224.707749451132, 11948.46027475122, 0.626, -0.678, 0.436, 192.0, 0.0, 0.0, 0.0, 0.0, 0.0, 0.0, 0.0, 0.0, 0.0, 1.6635871192163618E9, 0.0, 2022-09-19 16:31:59.216
187.0, 13767.132314101735, -92479.56037277704, 9650.969165679118, 3369.771345826548, -184081.56890649427, 187500.0, 20211.76608941151, 11942.93939387076, 0.626, -0.678, 0.436, 192.0, 0.0, 0.0, 0.0, 0.0, 0.0, 0.0, 0.0, 0.0, 0.0, 1.66358711921936E9, 0.0, 2022-09-19 16:31:59.219
188.0, 13774.73190721654, -92479.15804137684, 9658.501703560556, 3376.163944740766, -184156.715471353, 187500.0, 20219.969179626605, 11958.65267022284, 0.626, -0.678, 0.436, 192.0, 0.0, 0.0, 0.0, 0.0, 0.0, 0.0, 0.0, 0.0, 0.0, 1.6635871192242823E9, 0.0, 2022-09-19 16:31:59.224
189.0, 13782.06327939788, -92468.04922438256, 9674.259683401548, 3363.9598922681685, -184192.81353864833, 187500.0, 20229.6251332313, 11961.066658624013, 0.626, -0.678, 0.436, 192.0, 0.0, 0.0, 0.0, 0.0, 0.0, 0.0, 0.0, 0.0, 0.0, 1.6635871192293599E9, 0.0, 2022-09-19 16:31:59.229
190.0, 13782.53266603144, -92458.99676787815, 9684.854410273363, 3368.832572559425, -184144.39966015812, 187500.0, 20234.117833866818, 11963.413591791821, 0.622, -0.678, 0.432, 192.0, 19.0, 112.0, 234.0, 208.0, 13.0, 128.0, 0.0, 0.0, 0.0, 1.663587119233344E9, 0.0, 2022-09-19 16:31:59.233
191.0, 13767.065258868368, -92470.70908197273, 9671.599825811367, 3370.061918504467, -184046.7448886329, 187500.0, 20218.29279879246, 11953.60117597594, 0.622, -0.678, 0.432, 192.0, 0.0, 0.0, 0.0, 0.0, 0.0, 0.0, 0.0, 0.0, 0.0, 1.663587119236307E9, 0.0, 2022-09-19 16:31:59.236
192.0, 13762.416096021665, -92480.43209081079, 9664.044936185472, 3366.0833079914223, -184099.13737763613, 187500.0, 20213.77774641249, 11941.955917114725, 0.622, -0.678, 0.432, 192.0, 0.0, 0.0, 0.0, 0.0, 0.0, 0.0, 0.0, 0.0, 0.0, 1.6635871192403536E9, 0.0, 2022-09-19 16:31:59.240
193.0, 13775.357756061287, -92482.46609955623, 9670.929273477706, 3369.413717915263, -184146.59013111476, 187500.0, 20222.56198198342, 11947.208577061723, 0.622, -0.678, 0.432, 192.0, 0.0, 0.0, 0.0, 0.0, 0.0, 0.0, 0.0, 0.0, 0.0, 1.6635871192443793E9, 0.0, 2022-09-19 16:31:59.244
194.0, 13797.821259238872, -92468.0268726381, 9689.34711090888, 3367.5361713810175, -184180.65418966464, 187500.0, 20238.565831013424, 11959.390277789866, 0.622, -0.678, 0.432, 192.0, 0.0, 0.0, 0.0, 0.0, 0.0, 0.0, 0.0, 0.0, 0.0, 1.6635871192473104E9, 0.0, 2022-09-19 16:31:59.247
195.0, 13795.720195260072, -92461.61192197942, 9694.15273596677, 3371.1124504938666, -184137.22475018798, 187500.0, 20239.795176958465, 11960.977251646193, 0.622, -0.678, 0.432, 192.0, 0.0, 0.0, 0.0, 0.0, 0.0, 0.0, 0.0, 0.0, 0.0, 1.66358711925237E9, 0.0, 2022-09-19 16:31:59.252
196.0, 13772.183808348635, -92480.72266348872, 9667.5318083205, 3367.424412658741, -184033.91498731554, 187500.0, 20215.05179584644, 11944.995754360647, 0.622, -0.678, 0.432, 192.0, 0.0, 0.0, 0.0, 0.0, 0.0, 0.0, 0.0, 0.0, 0.0, 1.6635871192563407E9, 0.0, 2022-09-19 16:31:59.256
197.0, 13759.689183198117, -92503.78966376658, 9644.844787698363, 3366.7315085806263, -184050.90231310157, 187500.0, 20204.255903274527, 11939.519576969096, 0.622, -0.678, 0.432, 192.0, 0.0, 0.0, 0.0, 0.0, 0.0, 0.0, 0.0, 0.0, 0.0, 1.663587119260368E9, 0.0, 2022-09-19 16:31:59.260
198.0, 13764.941843145114, -92507.20948066826, 9644.733028976087, 3358.5954735988944, -184119.34335462374, 187500.0, 20208.14510680975, 11938.111417068412, 0.622, -0.678, 0.432, 192.0, 0.0, 0.0, 0.0, 0.0, 0.0, 0.0, 0.0, 0.0, 0.0, 1.6635871192644708E9, 0.0, 2022-09-19 16:31:59.264
199.0, 13779.58223576334, -92493.84313748397, 9661.29567161747, 3366.105659735878, -184200.21196606304, 187500.0, 20226.406482029735, 11956.08221961048, 0.622, -0.678, 0.432, 192.0, 0.0, 0.0, 0.0, 0.0, 0.0, 0.0, 0.0, 0.0, 0.0, 1.6635871192684033E9, 0.0, 2022-09-19 16:31:59.268
200.0, 13781.459782297587, -92484.79068097958, 9672.806820011952, 3366.2621219470648, -184127.79231402784, 187500.0, 20232.329694310392, 11959.434981278775, 0.622, -0.684, 0.432, 192.0, 19.0, 112.0, 234.0, 160.0, 13.0, 128.0, 0.0, 0.0, 0.0, 1.6635871192724607E9, 0.0, 2022-09-19 16:31:59.272
201.0, 13761.142046587713, -92504.99665796717, 9655.10423840335, 3368.072613247945, -184051.79638287978, 187500.0, 20211.453164989136, 11948.348516028944, 0.622, -0.684, 0.432, 192.0, 0.0, 0.0, 0.0, 0.0, 0.0, 0.0, 0.0, 0.0, 0.0, 1.6635871192756631E9, 0.0, 2022-09-19 16:31:59.275
202.0, 13757.454008752586, -92524.97911751021, 9641.514377774523, 3370.28543594902, -184049.33769098972, 187500.0, 20206.58048469788, 11941.88886188136, 0.622, -0.684, 0.432, 192.0, 0.0, 0.0, 0.0, 0.0, 0.0, 0.0, 0.0, 0.0, 0.0, 1.6635871192794135E9, 0.0, 2022-09-19 16:31:59.279
203.0, 13762.43844776612, -92529.82944605702, 9645.045953398461, 3364.496334135096, -184107.63104052914, 187500.0, 20213.934208623676, 11941.26301303661, 0.622, -0.684, 0.432, 192.0, 0.0, 0.0, 0.0, 0.0, 0.0, 0.0, 0.0, 0.0, 0.0, 1.66358711928443E9, 0.0, 2022-09-19 16:31:59.284
204.0, 13774.888369427727, -92520.53112036361, 9661.228616384104, 3362.0823457339225, -184178.6201809192, 187500.0, 20226.182964585183, 11943.878167137882, 0.622, -0.684, 0.432, 192.0, 0.0, 0.0, 0.0, 0.0, 0.0, 0.0, 0.0, 0.0, 0.0, 1.6635871192884586E9, 0.0, 2022-09-19 16:31:59.288
205.0, 13778.799924707404, -92511.05398071457, 9670.996328711073, 3364.3622236683636, -184131.18977918505, 187500.0, 20228.976932642097, 11956.752771944139, 0.622, -0.684, 0.432, 192.0, 0.0, 0.0, 0.0, 0.0, 0.0, 0.0, 0.0, 0.0, 0.0, 1.663587119292408E9, 0.0, 2022-09-19 16:31:59.292
206.0, 13759.86799715376, -92531.37171642444, 9650.008040667539, 3370.28543594902, -184027.81296107924, 187500.0, 20209.530914965977, 11950.538986985564, 0.622, -0.684, 0.432, 192.0, 0.0, 0.0, 0.0, 0.0, 0.0, 0.0, 0.0, 0.0, 0.0, 1.6635871192965057E9, 0.0, 2022-09-19 16:31:59.296
207.0, 13748.982697604026, -92551.2424172452, 9633.087770114871, 3368.385537670319, -184036.12781001662, 187500.0, 20198.667967160698, 11941.821806647993, 0.622, -0.684, 0.432, 192.0, 0.0, 0.0, 0.0, 0.0, 0.0, 0.0, 0.0, 0.0, 0.0, 1.663587119300412E9, 0.0, 2022-09-19 16:31:59.300
208.0, 13753.76597091746, -92553.52229517965, 9636.351124805347, 3367.2455987030985, -184139.5046281224, 187500.0, 20203.630054429777, 11940.905385125327, 0.622, -0.684, 0.432, 192.0, 0.0, 0.0, 0.0, 0.0, 0.0, 0.0, 0.0, 0.0, 0.0, 1.663587119305496E9, 0.0, 2022-09-19 16:31:59.305
209.0, 13772.228511837544, -92535.10445774847, 9660.066325672427, 3367.424412658741, -184206.7833789329, 187500.0, 20221.354987782837, 11954.94228064326, 0.622, -0.684, 0.432, 192.0, 0.0, 0.0, 0.0, 0.0, 0.0, 0.0, 0.0, 0.0, 0.0, 1.663587119308498E9, 0.0, 2022-09-19 16:31:59.308
210.0, 13774.664851983172, -92523.86153028745, 9670.504590333056, 3360.517723622051, -184129.28988090635, 187500.0, 20226.76410994102, 11952.952975386737, 0.626, -0.684, 0.434, 192.0, 19.0, 144.0, 234.0, 160.0, 13.0, 144.0, 0.0, 0.0, 0.0, 1.6635871193124635E9, 0.0, 2022-09-19 16:31:59.312
211.0, 13753.162473817167, -92543.86634157496, 9651.550311034956, 3362.7305463231264, -184032.01508903684, 187500.0, 20210.737909166564, 11940.07837058048, 0.626, -0.684, 0.434, 192.0, 0.0, 0.0, 0.0, 0.0, 0.0, 0.0, 0.0, 0.0, 0.0, 1.6635871193164651E9, 0.0, 2022-09-19 16:31:59.316
212.0, 13746.009915591469, -92566.7545278972, 9639.659182984733, 3359.422488143741, -184039.77114436284, 187500.0, 20202.62422592929, 11936.815015890004, 0.626, -0.684, 0.434, 192.0, 0.0, 0.0, 0.0, 0.0, 0.0, 0.0, 0.0, 0.0, 0.0, 1.6635871193205535E9, 0.0, 2022-09-19 16:31:59.320
213.0, 13752.603680205784, -92569.41438548737, 9646.699982488153, 3354.2368834301096, -184138.454096133, 187500.0, 20208.413327743212, 11938.089065323957, 0.626, -0.684, 0.434, 192.0, 0.0, 0.0, 0.0, 0.0, 0.0, 0.0, 0.0, 0.0, 0.0, 1.6635871193244812E9, 0.0, 2022-09-19 16:31:59.324
214.0, 13768.205197835588, -92555.69041439181, 9667.375346109313, 3354.9297875082243, -184189.57253570232, 187500.0, 20225.49006050707, 11945.17456831629, 0.626, -0.684, 0.434, 192.0, 0.0, 0.0, 0.0, 0.0, 0.0, 0.0, 0.0, 0.0, 0.0, 1.663587119327532E9, 0.0, 2022-09-19 16:31:59.327
215.0, 13769.926282158647, -92547.30851022108, 9674.080869445905, 3347.196083926688, -184132.28501466336, 187500.0, 20226.00415062954, 11938.178472301779, 0.626, -0.684, 0.434, 192.0, 0.0, 0.0, 0.0, 0.0, 0.0, 0.0, 0.0, 0.0, 0.0, 1.663587119331573E9, 0.0, 2022-09-19 16:31:59.331
216.0, 13753.788322661916, -92564.16172554037, 9655.774790737009, 3362.484677134118, -184054.52329570334, 187500.0, 20211.162592311215, 11937.753789157128, 0.626, -0.684, 0.434, 192.0, 0.0, 0.0, 0.0, 0.0, 0.0, 0.0, 0.0, 0.0, 0.0, 1.6635871193356447E9, 0.0, 2022-09-19 16:31:59.335
217.0, 13751.441389494108, -92580.56790597057, 9645.96237492113, 3367.5585231254727, -184073.85755465718, 187500.0, 20209.754432410533, 11935.898594367338, 0.626, -0.684, 0.434, 192.0, 0.0, 0.0, 0.0, 0.0, 0.0, 0.0, 0.0, 0.0, 0.0, 1.6635871193396196E9, 0.0, 2022-09-19 16:31:59.339
218.0, 13756.761104674471, -92587.0052083737, 9649.158674378237, 3368.0502615034893, -184122.00321221392, 187500.0, 20220.99735987155, 11940.3689432584, 0.626, -0.684, 0.434, 192.0, 0.0, 0.0, 0.0, 0.0, 0.0, 0.0, 0.0, 0.0, 0.0, 1.6635871193445153E9, 0.0, 2022-09-19 16:31:59.344
219.0, 13769.05456412489, -92573.41534774487, 9669.945796721673, 3366.5303428805287, -184210.9184516571, 187500.0, 20236.800043201452, 11949.689620696261, 0.626, -0.684, 0.434, 192.0, 0.0, 0.0, 0.0, 0.0, 0.0, 0.0, 0.0, 0.0, 0.0, 1.6635871193486352E9, 0.0, 2022-09-19 16:31:59.348
220.0, 13765.992375134514, -92563.17824878434, 9679.534695093, 3361.0988689778887, -184109.35212485222, 187500.0, 20238.342313568868, 11940.905385125327, 0.63, -0.686, 0.436, 192.0, 19.0, 176.0, 234.0, 144.0, 13.0, 160.0, 0.0, 0.0, 0.0, 1.663587119352558E9, 0.0, 2022-09-19 16:31:59.352
221.0, 13751.083761582824, -92583.31717053858, 9663.530846063, 3372.5206103945507, -184024.12492324412, 187500.0, 20227.658179719234, 11928.969553586192, 0.63, -0.686, 0.436, 192.0, 0.0, 0.0, 0.0, 0.0, 0.0, 0.0, 0.0, 0.0, 0.0, 1.66358711935561E9, 0.0, 2022-09-19 16:31:59.355
222.0, 13748.759180159472, -92602.27144983667, 9651.885587201785, 3382.8471163329027, -184065.05096734178, 187500.0, 20223.545458739456, 11934.356323999922, 0.63, -0.686, 0.436, 192.0, 0.0, 0.0, 0.0, 0.0, 0.0, 0.0, 0.0, 0.0, 0.0, 1.6635871193595283E9, 0.0, 2022-09-19 16:31:59.359
223.0, 13756.001145362992, -92601.86911843647, 9657.67468901571, 3378.153249997288, -184142.47741013498, 187500.0, 20228.440490775167, 11939.854853135927, 0.63, -0.686, 0.436, 192.0, 0.0, 0.0, 0.0, 0.0, 0.0, 0.0, 0.0, 0.0, 0.0, 1.663587119363636E9, 0.0, 2022-09-19 16:31:59.363
224.0, 13768.115790857768, -92585.93232463984, 9675.645491557776, 3366.3068254359755, -184216.46168428203, 187500.0, 20237.403540301748, 11942.872338637393, 0.63, -0.686, 0.436, 192.0, 0.0, 0.0, 0.0, 0.0, 0.0, 0.0, 0.0, 0.0, 0.0, 1.663587119368572E9, 0.0, 2022-09-19 16:31:59.368
225.0, 13763.10900009978, -92581.21610655978, 9678.595921825878, 3357.008499742568, -184100.2996683478, 187500.0, 20232.083825121383, 11939.452521735731, 0.63, -0.686, 0.436, 192.0, 0.0, 0.0, 0.0, 0.0, 0.0, 0.0, 0.0, 0.0, 0.0, 1.6635871193726113E9, 0.0, 2022-09-19 16:31:59.372
226.0, 13748.781531903927, -92599.38807480194, 9661.519189062023, 3367.9161510367576, -184048.10834504466, 187500.0, 20212.66015918972, 11938.98313510217, 0.63, -0.686, 0.436, 192.0, 0.0, 0.0, 0.0, 0.0, 0.0, 0.0, 0.0, 0.0, 0.0, 1.663587119376605E9, 0.0, 2022-09-19 16:31:59.376
227.0, 13745.831101635828, -92619.34818260053, 9648.756342978042, 3371.6265406163384, -184040.48640018541, 187500.0, 20206.781650397978, 11939.184300802268, 0.63, -0.686, 0.436, 192.0, 0.0, 0.0, 0.0, 0.0, 0.0, 0.0, 0.0, 0.0, 0.0, 1.6635871193806024E9, 0.0, 2022-09-19 16:31:59.380
228.0, 13753.318936028354, -92620.5551768011, 9653.4278575692, 3356.0473747309898, -184112.8613487317, 187500.0, 20211.85549638933, 11925.84030936245, 0.63, -0.686, 0.436, 192.0, 0.0, 0.0, 0.0, 0.0, 0.0, 0.0, 0.0, 0.0, 0.0, 1.6635871193836179E9, 0.0, 2022-09-19 16:31:59.383
229.0, 13765.120657100757, -92609.89339469593, 9670.124610677316, 3358.8189910434476, -184189.50548046894, 187500.0, 20228.731063453088, 11939.094893824446, 0.63, -0.686, 0.436, 192.0, 0.0, 0.0, 0.0, 0.0, 0.0, 0.0, 0.0, 0.0, 0.0, 1.6635871193876095E9, 0.0, 2022-09-19 16:31:59.387
230.0, 13766.573520490352, -92606.42887430536, 9677.545389836478, 3361.90353177828, -184103.2500986159, 187500.0, 20232.977894899595, 11948.3708677734, 0.626, -0.686, 0.44, 192.0, 19.0, 144.0, 234.0, 144.0, 13.0, 192.0, 0.0, 0.0, 0.0, 1.663587119391693E9, 0.0, 2022-09-19 16:31:59.391
231.0, 13746.680467925129, -92625.83018849256, 9660.558064050445, 3360.227150944132, -184044.62147290964, 187500.0, 20213.77774641249, 11934.445730977743, 0.626, -0.686, 0.44, 192.0, 0.0, 0.0, 0.0, 0.0, 0.0, 0.0, 0.0, 0.0, 0.0, 1.6635871193955705E9, 0.0, 2022-09-19 16:31:59.395
232.0, 13733.135310785212, -92651.08765972707, 9643.458979542134, 3360.2047991996765, -184030.15989424704, 187500.0, 20203.5182957075, 11925.974419829181, 0.626, -0.686, 0.44, 192.0, 0.0, 0.0, 0.0, 0.0, 0.0, 0.0, 0.0, 0.0, 0.0, 1.6635871194006135E9, 0.0, 2022-09-19 16:31:59.400
233.0, 13742.210119034067, -92655.75917431823, 9647.974031922107, 3361.3447381668975, -184123.16550292558, 187500.0, 20207.720423665098, 11932.881108865871, 0.626, -0.686, 0.44, 192.0, 0.0, 0.0, 0.0, 0.0, 0.0, 0.0, 0.0, 0.0, 0.0, 1.663587119404682E9, 0.0, 2022-09-19 16:31:59.404
234.0, 13764.450104767098, -92636.44726710883, 9668.939968221184, 3361.881180033825, -184212.2819080689, 187500.0, 20224.41717677321, 11945.59925146094, 0.626, -0.686, 0.44, 192.0, 0.0, 0.0, 0.0, 0.0, 0.0, 0.0, 0.0, 0.0, 0.0, 1.6635871194076364E9, 0.0, 2022-09-19 16:31:59.407
235.0, 13763.824255922349, -92629.22765364977, 9675.846657257875, 3363.7363748236153, -184109.08390391874, 187500.0, 20225.71357795162, 11944.951050871738, 0.626, -0.686, 0.44, 192.0, 0.0, 0.0, 0.0, 0.0, 0.0, 0.0, 0.0, 0.0, 0.0, 1.6635871194116485E9, 0.0, 2022-09-19 16:31:59.411
236.0, 13743.059485323369, -92652.24995043874, 9652.734953491086, 3362.0599939894673, -184034.67494662703, 187500.0, 20201.528990450977, 11929.595402430941, 0.626, -0.686, 0.44, 192.0, 0.0, 0.0, 0.0, 0.0, 0.0, 0.0, 0.0, 0.0, 0.0, 1.66358711941563E9, 0.0, 2022-09-19 16:31:59.415
237.0, 13737.270383509443, -92672.43357568188, 9639.547424262455, 3369.9278080377353, -184047.97423457794, 187500.0, 20197.684490404667, 11932.009390832114, 0.626, -0.686, 0.44, 192.0, 0.0, 0.0, 0.0, 0.0, 0.0, 0.0, 0.0, 0.0, 0.0, 1.663587119419706E9, 0.0, 2022-09-19 16:31:59.419
238.0, 13738.007991076469, -92679.85435484104, 9636.306421316436, 3362.194104456199, -184091.4036740546, 187500.0, 20200.81373462841, 11930.444768720243, 0.626, -0.686, 0.44, 192.0, 0.0, 0.0, 0.0, 0.0, 0.0, 0.0, 0.0, 0.0, 0.0, 1.663587119423692E9, 0.0, 2022-09-19 16:31:59.423
239.0, 13750.033229593424, -92671.76302334822, 9648.063438899928, 3361.389441655808, -184178.9778088305, 187500.0, 20213.643635945755, 11936.233870534166, 0.626, -0.686, 0.44, 192.0, 0.0, 0.0, 0.0, 0.0, 0.0, 0.0, 0.0, 0.0, 0.0, 1.663587119428671E9, 0.0, 2022-09-19 16:31:59.428
240.0, 13754.369468017754, -92667.09150875706, 9653.137284891282, 3356.8743892758357, -184102.02075267085, 187500.0, 20216.929342380685, 11934.401027488831, 0.618, -0.6900000000000001, 0.44, 192.0, 19.0, 80.0, 234.0, 112.0, 13.0, 192.0, 0.0, 0.0, 0.0, 1.66358711943267E9, 0.0, 2022-09-19 16:31:59.432
241.0, 13738.76795038795, -92682.98359906478, 9635.367648049314, 3357.969624754146, -184047.21427526645, 187500.0, 20202.356004995825, 11917.592515658442, 0.618, -0.6900000000000001, 0.44, 192.0, 0.0, 0.0, 0.0, 0.0, 0.0, 0.0, 0.0, 0.0, 0.0, 1.663587119435698E9, 0.0, 2022-09-19 16:31:59.435
242.0, 13737.762121887461, -92698.56276495014, 9623.901203143741, 3366.8209155584477, -184057.31726376025, 187500.0, 20200.99254858405, 11920.252373248622, 0.618, -0.6900000000000001, 0.44, 192.0, 0.0, 0.0, 0.0, 0.0, 0.0, 0.0, 0.0, 0.0, 0.0, 1.6635871194397187E9, 0.0, 2022-09-19 16:31:59.439
243.0, 13747.619241192251, -92699.635648684, 9629.757360191032, 3359.7577643105706, -184143.59499735775, 187500.0, 20214.09067083486, 11921.83934710495, 0.618, -0.6900000000000001, 0.44, 192.0, 0.0, 0.0, 0.0, 0.0, 0.0, 0.0, 0.0, 0.0, 0.0, 1.663587119443694E9, 0.0, 2022-09-19 16:31:59.443
244.0, 13758.169264575155, -92690.49378520178, 9647.214072610626, 3367.2679504475536, -184158.68242486508, 187500.0, 20233.559040255434, 11934.244565277644, 0.618, -0.6900000000000001, 0.44, 192.0, 0.0, 0.0, 0.0, 0.0, 0.0, 0.0, 0.0, 0.0, 0.0, 1.6635871194476967E9, 0.0, 2022-09-19 16:31:59.447
245.0, 13757.454008752586, -92688.19155552288, 9653.114933146828, 3368.5419998815064, -184116.19175865554, 187500.0, 20235.883621678786, 11941.777103159084, 0.618, -0.6900000000000001, 0.44, 192.0, 0.0, 0.0, 0.0, 0.0, 0.0, 0.0, 0.0, 0.0, 0.0, 1.6635871194517078E9, 0.0, 2022-09-19 16:31:59.451
246.0, 13737.71741839855, -92714.16428257994, 9630.405560780235, 3360.964758511157, -184039.94995831847, 187500.0, 20213.397766756745, 11920.610001159906, 0.618, -0.6900000000000001, 0.44, 192.0, 0.0, 0.0, 0.0, 0.0, 0.0, 0.0, 0.0, 0.0, 0.0, 1.6635871194566863E9, 0.0, 2022-09-19 16:31:59.456
247.0, 13738.745598643494, -92723.95434665136, 9626.784578178474, 3361.992938756101, -184060.02182483935, 187500.0, 20215.208258057628, 11918.59834415893, 0.618, -0.6900000000000001, 0.44, 192.0, 0.0, 0.0, 0.0, 0.0, 0.0, 0.0, 0.0, 0.0, 0.0, 1.6635871194607208E9, 0.0, 2022-09-19 16:31:59.460
248.0, 13745.160549302167, -92726.59185249709, 9633.870081170808, 3367.491467892107, -184093.3035723333, 187500.0, 20226.875868663297, 11921.906402338314, 0.618, -0.6900000000000001, 0.44, 192.0, 0.0, 0.0, 0.0, 0.0, 0.0, 0.0, 0.0, 0.0, 0.0, 1.6635871194647431E9, 0.0, 2022-09-19 16:31:59.464
249.0, 13759.756238431482, -92717.65115471497, 9650.991517423572, 3371.6265406163384, -184170.90882908212, 187500.0, 20239.68341823619, 11938.2678792796, 0.618, -0.6900000000000001, 0.44, 192.0, 0.0, 0.0, 0.0, 0.0, 0.0, 0.0, 0.0, 0.0, 0.0, 1.663587119467758E9, 0.0, 2022-09-19 16:31:59.467
250.0, 13753.900081384192, -92721.04861987218, 9652.310270346436, 3371.4700784051515, -184060.4912114729, 187500.0, 20234.989551900573, 11937.753789157128, 0.62, -0.6880000000000001, 0.434, 192.0, 19.0, 96.0, 234.0, 128.0, 13.0, 144.0, 0.0, 0.0, 0.0, 1.663587119471814E9, 0.0, 2022-09-19 16:31:59.471
251.0, 13734.498767196987, -92741.25459685977, 9633.28893581497, 3367.0220812585453, -184016.97236501842, 187500.0, 20212.749566167542, 11922.331085482965, 0.62, -0.6880000000000001, 0.434, 192.0, 0.0, 0.0, 0.0, 0.0, 0.0, 0.0, 0.0, 0.0, 0.0, 1.6635871194757936E9, 0.0, 2022-09-19 16:31:59.475
252.0, 13725.200441503579, -92759.44891684639, 9622.828319409886, 3367.737337081115, -184053.65157766957, 187500.0, 20204.010034085517, 11926.063826807002, 0.62, -0.6880000000000001, 0.434, 192.0, 0.0, 0.0, 0.0, 0.0, 0.0, 0.0, 0.0, 0.0, 0.0, 1.6635871194818292E9, 0.0, 2022-09-19 16:31:59.481
253.0, 13732.420054962642, -92766.91439949446, 9624.86232815532, 3375.4486889181962, -184096.47752004594, 187500.0, 20212.86132488982, 11938.625507190885, 0.62, -0.6880000000000001, 0.434, 192.0, 0.0, 0.0, 0.0, 0.0, 0.0, 0.0, 0.0, 0.0, 0.0, 1.6635871194857862E9, 0.0, 2022-09-19 16:31:59.485
254.0, 13745.495825468997, -92761.77349826974, 9639.189796351171, 3368.117316736855, -184167.0643290358, 187500.0, 20229.602781486843, 11943.721704926695, 0.62, -0.6880000000000001, 0.434, 192.0, 0.0, 0.0, 0.0, 0.0, 0.0, 0.0, 0.0, 0.0, 0.0, 1.6635871194898207E9, 0.0, 2022-09-19 16:31:59.489
255.0, 13746.903985369681, -92760.25357964679, 9642.274337086003, 3365.122182979844, -184100.4114270701, 187500.0, 20228.52989775299, 11946.761542172617, 0.62, -0.6880000000000001, 0.434, 192.0, 0.0, 0.0, 0.0, 0.0, 0.0, 0.0, 0.0, 0.0, 0.0, 1.6635871194937773E9, 0.0, 2022-09-19 16:31:59.493
0.0, 13729.044941549892, -92781.91242002397, 9622.984781621073, 3364.2728166905426, -184019.85574005317, 187500.0, 20210.33557776637, 11930.936507098259, 0.62, -0.6880000000000001, 0.434, 192.0, 0.0, 0.0, 0.0, 0.0, 0.0, 0.0, 0.0, 0.0, 0.0, 1.6635871194967597E9, 0.0, 2022-09-19 16:31:59.496
1.0, 13728.19557526059, -92798.27389696526, 9617.128624573783, 3356.4050026422747, -184052.82456312474, 187500.0, 20206.289912019958, 11920.989980815648, 0.62, -0.6880000000000001, 0.434, 192.0, 0.0, 0.0, 0.0, 0.0, 0.0, 0.0, 0.0, 0.0, 0.0, 1.6635871194998264E9, 0.0, 2022-09-19 16:31:59.499
2.0, 13734.252898007977, -92803.4595016789, 9624.14707233275, 3356.6285200868274, -184103.6077265272, 187500.0, 20214.738871424066, 11920.74411162664, 0.62, -0.6880000000000001, 0.434, 192.0, 0.0, 0.0, 0.0, 0.0, 0.0, 0.0, 0.0, 0.0, 0.0, 1.6635871195039034E9, 0.0, 2022-09-19 16:31:59.503
3.0, 13748.245090037, -92794.87643180805, 9641.559081263433, 3365.7033283356823, -184160.89524756614, 187500.0, 20230.85447917634, 11931.182376287268, 0.62, -0.6880000000000001, 0.434, 192.0, 0.0, 0.0, 0.0, 0.0, 0.0, 0.0, 0.0, 0.0, 0.0, 1.6635871195078044E9, 0.0, 2022-09-19 16:31:59.507
4.0, 13742.545395200897, -92797.08925450913, 9644.308345831436, 3362.4399736452074, -184073.85755465718, 187500.0, 20226.272371563, 11930.109492553413, 0.62, -0.6880000000000001, 0.434, 192.0, 19.0, 96.0, 234.0, 128.0, 13.0, 144.0, 0.0, 0.0, 0.0, 1.6635871195128238E9, 0.0, 2022-09-19 16:31:59.512
5.0, 13721.445348435087, -92822.23496702134, 9624.99643862205, 3361.5682556114502, -184030.0928390137, 187500.0, 20204.94880735264, 11923.292210494545, 0.62, -0.6880000000000001, 0.434, 192.0, 0.0, 0.0, 0.0, 0.0, 0.0, 0.0, 0.0, 0.0, 0.0, 1.6635871195158136E9, 0.0, 2022-09-19 16:31:59.515
6.0, 13714.851583820771, -92841.77039167528, 9616.882755384775, 3358.416659643252, -184063.35223476318, 187500.0, 20201.126659050784, 11916.229059246667, 0.62, -0.6880000000000001, 0.434, 192.0, 0.0, 0.0, 0.0, 0.0, 0.0, 0.0, 0.0, 0.0, 0.0, 1.6635871195187998E9, 0.0, 2022-09-19 16:31:59.518
7.0, 13722.652342635673, -92841.50217074182, 9629.71265670212, 3356.673223575738, -184134.05080247534, 187500.0, 20212.19077255616, 11920.989980815648, 0.62, -0.6880000000000001, 0.434, 192.0, 0.0, 0.0, 0.0, 0.0, 0.0, 0.0, 0.0, 0.0, 0.0, 1.6635871195238633E9, 0.0, 2022-09-19 16:31:59.523
8.0, 13737.00216257598, -92825.47596996737, 9654.81366572543, 3356.8520375313806, -184200.18961431857, 187500.0, 20228.731063453088, 11933.484605966165, 0.62, -0.6880000000000001, 0.434, 192.0, 0.0, 0.0, 0.0, 0.0, 0.0, 0.0, 0.0, 0.0, 0.0, 1.663587119527836E9, 0.0, 2022-09-19 16:31:59.527
9.0, 13727.323857226833, -92824.02310657778, 9658.457000071645, 3359.1095637213666, -184077.41148202558, 187500.0, 20222.42787151669, 11930.064789064501, 0.62, -0.6880000000000001, 0.434, 192.0, 0.0, 0.0, 0.0, 0.0, 0.0, 0.0, 0.0, 0.0, 0.0, 1.6635871195318532E9, 0.0, 2022-09-19 16:31:59.531
10.0, 13712.258781463956, -92843.35736553161, 9640.821473696407, 3365.6362731023164, -184028.192940735, 187500.0, 20210.29087427746, 11925.795605873538, 0.62, -0.6880000000000001, 0.434, 192.0, 0.0, 0.0, 0.0, 0.0, 0.0, 0.0, 0.0, 0.0, 0.0, 1.6635871195359092E9, 0.0, 2022-09-19 16:31:59.535
11.0, 13719.590153645297, -92857.34955756064, 9636.753456205543, 3371.6265406163384, -184097.37158982415, 187500.0, 20210.648502188746, 11933.842233877449, 0.62, -0.6880000000000001, 0.434, 192.0, 0.0, 0.0, 0.0, 0.0, 0.0, 0.0, 0.0, 0.0, 0.0, 1.6635871195399337E9, 0.0, 2022-09-19 16:31:59.539
12.0, 13728.173223516134, -92857.50601977183, 9645.180063865193, 3361.165924211255, -184131.12272395167, 187500.0, 20218.71748193711, 11927.851966363427, 0.62, -0.6880000000000001, 0.434, 192.0, 0.0, 0.0, 0.0, 0.0, 0.0, 0.0, 0.0, 0.0, 0.0, 1.663587119543929E9, 0.0, 2022-09-19 16:31:59.543
13.0, 13736.890403853704, -92845.54783648823, 9661.519189062023, 3361.0988689778887, -184166.39377670214, 187500.0, 20231.18975534317, 11940.704219425228, 0.62, -0.6880000000000001, 0.434, 192.0, 0.0, 0.0, 0.0, 0.0, 0.0, 0.0, 0.0, 0.0, 0.0, 1.663587119546918E9, 0.0, 2022-09-19 16:31:59.546
14.0, 13735.370485230744, -92838.90936838501, 9665.251930386059, 3358.61782534335, -184102.08780790423, 187500.0, 20225.937095396173, 11942.60411770393, 0.62, -0.686, 0.434, 192.0, 19.0, 96.0, 234.0, 144.0, 13.0, 144.0, 0.0, 0.0, 0.0, 1.6635871195519013E9, 0.0, 2022-09-19 16:31:59.551
15.0, 13718.80784258936, -92857.46131628292, 9647.526997033001, 3363.0658224899557, -184048.48832470042, 187500.0, 20210.179115555184, 11934.222213533189, 0.62, -0.686, 0.434, 192.0, 0.0, 0.0, 0.0, 0.0, 0.0, 0.0, 0.0, 0.0, 0.0, 1.6635871195560336E9, 0.0, 2022-09-19 16:31:59.556
16.0, 13712.772871586427, -92876.3261886032, 9636.082903871884, 3351.845246773392, -184056.80317363777, 187500.0, 20206.96046435362, 11920.475890693175, 0.62, -0.686, 0.434, 192.0, 0.0, 0.0, 0.0, 0.0, 0.0, 0.0, 0.0, 0.0, 0.0, 1.6635871195600128E9, 0.0, 2022-09-19 16:31:59.560
17.0, 13723.457005436065, -92875.76739499181, 9643.05664814194, 3357.7908107985036, -184125.19951167103, 187500.0, 20216.90699063623, 11927.74020764115, 0.62, -0.686, 0.434, 192.0, 0.0, 0.0, 0.0, 0.0, 0.0, 0.0, 0.0, 0.0, 0.0, 1.6635871195639012E9, 0.0, 2022-09-19 16:31:59.563
18.0, 13740.846662622293, -92860.79172620675, 9663.508494318545, 3365.90449403578, -184162.9739598005, 187500.0, 20235.34717981186, 11943.632297948874, 0.62, -0.686, 0.434, 192.0, 0.0, 0.0, 0.0, 0.0, 0.0, 0.0, 0.0, 0.0, 0.0, 1.6635871195678985E9, 0.0, 2022-09-19 16:31:59.567
19.0, 13736.063389308858, -92858.42244129449, 9661.698003017666, 3362.28351143402, -184095.71756073448, 187500.0, 20227.5240692525, 11936.189167045257, 0.62, -0.686, 0.434, 192.0, 0.0, 0.0, 0.0, 0.0, 0.0, 0.0, 0.0, 0.0, 0.0, 1.663587119571944E9, 0.0, 2022-09-19 16:31:59.571
20.0, 13715.879764065716, -92881.15416540553, 9636.28406957198, 3357.5672933539504, -184023.52142614382, 187500.0, 20207.251037031536, 11915.133823768358, 0.62, -0.686, 0.434, 192.0, 0.0, 0.0, 0.0, 0.0, 0.0, 0.0, 0.0, 0.0, 0.0, 1.663587119574975E9, 0.0, 2022-09-19 16:31:59.574
21.0, 13716.237391977, -92897.8285667692, 9626.471653756102, 3369.5925318709055, -184047.70601364446, 187500.0, 20208.122755065295, 11922.398140716332, 0.62, -0.686, 0.434, 192.0, 0.0, 0.0, 0.0, 0.0, 0.0, 0.0, 0.0, 0.0, 0.0, 1.6635871195790155E9, 0.0, 2022-09-19 16:31:59.579
22.0, 13726.787415359906, -92896.39805512405, 9636.373476549803, 3365.3457004243974, -184128.23934891695, 187500.0, 20221.399691271745, 11925.63914366235, 0.62, -0.686, 0.434, 192.0, 0.0, 0.0, 0.0, 0.0, 0.0, 0.0, 0.0, 0.0, 0.0, 1.6635871195839682E9, 0.0, 2022-09-19 16:31:59.583
23.0, 13742.657153923174, -92877.75670024833, 9659.48518031659, 3363.870485290347, -184201.8212916638, 187500.0, 20237.604706001843, 11932.41172223231, 0.62, -0.686, 0.434, 192.0, 0.0, 0.0, 0.0, 0.0, 0.0, 0.0, 0.0, 0.0, 0.0, 1.663587119587955E9, 0.0, 2022-09-19 16:31:59.587
24.0, 13738.365618987755, -92878.4719560709, 9659.082848916394, 3363.289339934509, -184078.8866971596, 187500.0, 20232.173232099205, 11927.650800663328, 0.626, -0.6880000000000001, 0.442, 192.0, 19.0, 144.0, 234.0, 128.0, 13.0, 208.0, 0.0, 0.0, 0.0, 1.6635871195920005E9, 0.0, 2022-09-19 16:31:59.592
25.0, 13721.422996690631, -92907.79744479626, 9634.138302104271, 3371.5594853829725, -184024.16962673303, 187500.0, 20215.38707201327, 11921.369960471387, 0.626, -0.6880000000000001, 0.442, 192.0, 0.0, 0.0, 0.0, 0.0, 0.0, 0.0, 0.0, 0.0, 0.0, 1.6635871195959804E9, 0.0, 2022-09-19 16:31:59.595
26.0, 13730.654267150674, -92913.65360184356, 9634.473578271101, 3372.453555161185, -184095.82931945674, 187500.0, 20220.5726767269, 11925.236812262156, 0.626, -0.6880000000000001, 0.442, 192.0, 0.0, 0.0, 0.0, 0.0, 0.0, 0.0, 0.0, 0.0, 0.0, 1.6635871195989673E9, 0.0, 2022-09-19 16:31:59.598
27.0, 13739.237337021512, -92908.49034887437, 9643.458979542134, 3364.183409712721, -184129.82632277327, 187500.0, 20226.42883377419, 11930.377713486876, 0.626, -0.6880000000000001, 0.442, 192.0, 0.0, 0.0, 0.0, 0.0, 0.0, 0.0, 0.0, 0.0, 0.0, 1.6635871196029675E9, 0.0, 2022-09-19 16:31:59.602
28.0, 13750.86024413827, -92899.70611330344, 9657.71939250462, 3366.5303428805287, -184170.26062849292, 187500.0, 20240.331618825392, 11943.162911315312, 0.626, -0.6880000000000001, 0.442, 192.0, 0.0, 0.0, 0.0, 0.0, 0.0, 0.0, 0.0, 0.0, 0.0, 1.6635871196069632E9, 0.0, 2022-09-19 16:31:59.606
29.0, 13739.796130632894, -92905.45051162846, 9653.71843024712, 3354.192179941199, -184071.689435445, 187500.0, 20227.836993674875, 11932.992867588147, 0.626, -0.6880000000000001, 0.442, 192.0, 0.0, 0.0, 0.0, 0.0, 0.0, 0.0, 0.0, 0.0, 0.0, 1.6635871196119866E9, 0.0, 2022-09-19 16:31:59.611
30.0, 13720.797147845882, -92924.36008743764, 9636.462883527623, 3355.689746819705, -184034.9431675605, 187500.0, 20211.184944055673, 11923.292210494545, 0.626, -0.6880000000000001, 0.442, 192.0, 0.0, 0.0, 0.0, 0.0, 0.0, 0.0, 0.0, 0.0, 0.0, 1.663587119616012E9, 0.0, 2022-09-19 16:31:59.616
31.0, 13722.138252513201, -92931.75851485235, 9634.138302104271, 3363.892837034802, -184106.4016945841, 187500.0, 20212.32488302289, 11923.292210494545, 0.626, -0.6880000000000001, 0.442, 192.0, 0.0, 0.0, 0.0, 0.0, 0.0, 0.0, 0.0, 0.0, 0.0, 1.6635871196200209E9, 0.0, 2022-09-19 16:31:59.620
32.0, 13731.14600552869, -92933.1890264975, 9641.559081263433, 3362.99876725659, -184119.56687206827, 187500.0, 20224.372473284304, 11926.533213440563, 0.626, -0.6880000000000001, 0.442, 192.0, 0.0, 0.0, 0.0, 0.0, 0.0, 0.0, 0.0, 0.0, 0.0, 1.6635871196240103E9, 0.0, 2022-09-19 16:31:59.624
33.0, 13738.924412599137, -92930.26094797385, 9651.595014523866, 3357.366127653853, -184130.74274429595, 187500.0, 20235.14601411176, 11926.197937273733, 0.626, -0.6880000000000001, 0.442, 192.0, 0.0, 0.0, 0.0, 0.0, 0.0, 0.0, 0.0, 0.0, 0.0, 1.6635871196280496E9, 0.0, 2022-09-19 16:31:59.628
34.0, 13734.811691619361, -92929.52334040683, 9652.444380813167, 3356.963796253657, -184110.64852603062, 187500.0, 20232.217935588116, 11926.64497216284, 0.626, -0.6880000000000001, 0.442, 192.0, 0.0, 0.0, 0.0, 0.0, 0.0, 0.0, 0.0, 0.0, 0.0, 1.66358711963106E9, 0.0, 2022-09-19 16:31:59.631
35.0, 13718.919601311638, -92951.49510520638, 9630.51731950251, 3362.708194578671, -184016.5253301293, 187500.0, 20216.5717144694, 11921.392312215843, 0.62, -0.6940000000000001, 0.438, 192.0, 19.0, 96.0, 234.0, 80.0, 13.0, 176.0, 0.0, 0.0, 0.0, 1.6635871196350284E9, 0.0, 2022-09-19 16:31:59.635
36.0, 13717.2879239664, -92965.97903561343, 9622.448339754146, 3364.9880725131125, -184066.7496999204, 187500.0, 20214.828278401885, 11918.55364067002, 0.62, -0.6940000000000001, 0.438, 192.0, 0.0, 0.0, 0.0, 0.0, 0.0, 0.0, 0.0, 0.0, 0.0, 1.6635871196411247E9, 0.0, 2022-09-19 16:31:59.641
37.0, 13726.630953148719, -92960.34639601069, 9632.685438714676, 3359.37778465483, -184136.5094943654, 187500.0, 20223.411348272723, 11917.346646469432, 0.62, -0.6940000000000001, 0.438, 192.0, 0.0, 0.0, 0.0, 0.0, 0.0, 0.0, 0.0, 0.0, 0.0, 1.6635871196440852E9, 0.0, 2022-09-19 16:31:59.644
38.0, 13733.247069507488, -92946.0412795593, 9650.253909856548, 3363.3340434234196, -184180.14009954216, 187500.0, 20237.604706001843, 11932.970515843692, 0.62, -0.6940000000000001, 0.438, 192.0, 0.0, 0.0, 0.0, 0.0, 0.0, 0.0, 0.0, 0.0, 0.0, 1.6635871196480727E9, 0.0, 2022-09-19 16:31:59.648
39.0, 13727.167395015646, -92949.55050343878, 9647.057610399439, 3371.581837127428, -184063.06166208527, 187500.0, 20234.85544143384, 11936.03270483407, 0.62, -0.6940000000000001, 0.438, 192.0, 0.0, 0.0, 0.0, 0.0, 0.0, 0.0, 0.0, 0.0, 0.0, 1.6635871196520967E9, 0.0, 2022-09-19 16:31:59.652
40.0, 13707.788432572894, -92981.55820149877, 9621.107235086827, 3376.387462185319, -184021.7779900763, 187500.0, 20221.37733952729, 11922.331085482965, 0.62, -0.6940000000000001, 0.438, 192.0, 0.0, 0.0, 0.0, 0.0, 0.0, 0.0, 0.0, 0.0, 0.0, 1.663587119655131E9, 0.0, 2022-09-19 16:31:59.655
41.0, 13707.52021163943, -92995.97507667245, 9613.731159416577, 3369.771345826548, -184069.20839181048, 187500.0, 20219.633903459777, 11917.033722047057, 0.62, -0.6940000000000001, 0.438, 192.0, 0.0, 0.0, 0.0, 0.0, 0.0, 0.0, 0.0, 0.0, 0.0, 1.663587119659206E9, 0.0, 2022-09-19 16:31:59.659
42.0, 13718.584325144808, -92993.35992257118, 9622.582450220878, 3366.8209155584477, -184139.77284905588, 187500.0, 20227.501717508047, 11922.55460292752, 0.62, -0.6940000000000001, 0.438, 192.0, 0.0, 0.0, 0.0, 0.0, 0.0, 0.0, 0.0, 0.0, 0.0, 1.66358711966304E9, 0.0, 2022-09-19 16:31:59.663
43.0, 13732.755331129472, -92982.07229162125, 9638.653354484244, 3358.8413427879027, -184176.80968961833, 187500.0, 20239.124624624805, 11924.230983761667, 0.62, -0.6940000000000001, 0.438, 192.0, 0.0, 0.0, 0.0, 0.0, 0.0, 0.0, 0.0, 0.0, 0.0, 1.6635871196670835E9, 0.0, 2022-09-19 16:31:59.667
44.0, 13723.457005436065, -92985.62621898964, 9632.685438714676, 3363.199932956688, -184065.7885749088, 187500.0, 20228.641656475265, 11930.154196042324, 0.62, -0.6940000000000001, 0.438, 192.0, 0.0, 0.0, 0.0, 0.0, 0.0, 0.0, 0.0, 0.0, 0.0, 1.6635871196721563E9, 0.0, 2022-09-19 16:31:59.672
45.0, 13708.593095373286, -93005.34045759922, 9610.780729148475, 3375.9180755517577, -184046.63312991062, 187500.0, 20210.89437137775, 11935.160986800312, 0.622, -0.6920000000000001, 0.434, 192.0, 19.0, 112.0, 234.0, 96.0, 13.0, 144.0, 0.0, 0.0, 0.0, 1.6635871196761372E9, 0.0, 2022-09-19 16:31:59.676
46.0, 13706.447327905576, -93019.22089090597, 9601.32594124388, 3374.0852325064225, -184082.46297627248, 187500.0, 20207.56396145391, 11931.607059431919, 0.622, -0.6920000000000001, 0.434, 192.0, 0.0, 0.0, 0.0, 0.0, 0.0, 0.0, 0.0, 0.0, 0.0, 1.6635871196791203E9, 0.0, 2022-09-19 16:31:59.679
47.0, 13717.556144899863, -93016.73984727143, 9609.640790181254, 3371.157153982777, -184137.1129914657, 187500.0, 20218.628074959288, 11938.60315544643, 0.622, -0.6920000000000001, 0.434, 192.0, 0.0, 0.0, 0.0, 0.0, 0.0, 0.0, 0.0, 0.0, 0.0, 1.6635871196831477E9, 0.0, 2022-09-19 16:31:59.683
48.0, 13728.553203171874, -93002.16650988656, 9624.95173513314, 3367.1785434697326, -184170.4841459375, 187500.0, 20230.541554753967, 11949.443751507253, 0.622, -0.6920000000000001, 0.434, 192.0, 0.0, 0.0, 0.0, 0.0, 0.0, 0.0, 0.0, 0.0, 0.0, 1.663587119687143E9, 0.0, 2022-09-19 16:31:59.687
49.0, 13716.505612910463, -93006.18982388852, 9619.922592630695, 3365.7927353135033, -184063.17342080755, 187500.0, 20223.657217461732, 11944.056981093525, 0.622, -0.6920000000000001, 0.434, 192.0, 0.0, 0.0, 0.0, 0.0, 0.0, 0.0, 0.0, 0.0, 0.0, 1.6635871196911178E9, 0.0, 2022-09-19 16:31:59.691
50.0, 13696.724319067516, -93031.08966721174, 9599.493098198545, 3356.4050026422747, -184019.16283597503, 187500.0, 20208.122755065295, 11923.247507005633, 0.622, -0.6920000000000001, 0.434, 192.0, 0.0, 0.0, 0.0, 0.0, 0.0, 0.0, 0.0, 0.0, 0.0, 1.663587119695177E9, 0.0, 2022-09-19 16:31:59.695
51.0, 13702.178144714611, -93042.42200165057, 9597.146165030737, 3365.90449403578, -184074.3939965241, 187500.0, 20215.163554568717, 11928.008428574614, 0.622, -0.6920000000000001, 0.434, 192.0, 0.0, 0.0, 0.0, 0.0, 0.0, 0.0, 0.0, 0.0, 0.0, 1.6635871197001667E9, 0.0, 2022-09-19 16:31:59.700
52.0, 13713.66694136464, -93044.09838248472, 9606.153918046228, 3371.71594759416, -184121.64558430263, 187500.0, 20227.658179719234, 11932.724646654684, 0.622, -0.6920000000000001, 0.434, 192.0, 0.0, 0.0, 0.0, 0.0, 0.0, 0.0, 0.0, 0.0, 0.0, 1.663587119704158E9, 0.0, 2022-09-19 16:31:59.704
53.0, 13726.563897915352, -93030.9108532561, 9625.957563633629, 3368.7878690705147, -184190.57836420278, 187500.0, 20243.81849096042, 11938.781969402073, 0.622, -0.6920000000000001, 0.434, 192.0, 0.0, 0.0, 0.0, 0.0, 0.0, 0.0, 0.0, 0.0, 0.0, 1.663587119707288E9, 0.0, 2022-09-19 16:31:59.707
54.0, 13722.607639146763, -93033.0566207238, 9624.14707233275, 3366.0386045025116, -184077.0538541143, 187500.0, 20236.732987968087, 11933.17168154379, 0.622, -0.6920000000000001, 0.434, 192.0, 0.0, 0.0, 0.0, 0.0, 0.0, 0.0, 0.0, 0.0, 0.0, 1.6635871197111547E9, 0.0, 2022-09-19 16:31:59.711
55.0, 13706.693197094584, -93056.43654542406, 9601.594162177344, 3368.9890347706123, -184013.3290306722, 187500.0, 20217.71165343662, 11927.449634963232, 0.626, -0.6920000000000001, 0.434, 192.0, 19.0, 144.0, 234.0, 96.0, 13.0, 144.0, 0.0, 0.0, 0.0, 1.6635871197161431E9, 0.0, 2022-09-19 16:31:59.716
56.0, 13708.57074362883, -93065.04196703935, 9598.777842375976, 3368.4972963925957, -184114.71654352147, 187500.0, 20219.075109848396, 11926.913193096303, 0.626, -0.6920000000000001, 0.434, 192.0, 0.0, 0.0, 0.0, 0.0, 0.0, 0.0, 0.0, 0.0, 0.0, 1.6635871197202003E9, 0.0, 2022-09-19 16:31:59.720
57.0, 13723.032322291414, -93055.76599309039, 9615.519298973, 3371.5594853829725, -184167.1313842692, 187500.0, 20238.25290659105, 11932.612887932408, 0.626, -0.6920000000000001, 0.434, 192.0, 0.0, 0.0, 0.0, 0.0, 0.0, 0.0, 0.0, 0.0, 0.0, 1.663587119723226E9, 0.0, 2022-09-19 16:31:59.723
58.0, 13731.414226462153, -93042.82433305077, 9636.261717827525, 3373.928770295235, -184189.68429442457, 187500.0, 20253.273278865014, 11947.499149739642, 0.626, -0.6920000000000001, 0.434, 192.0, 0.0, 0.0, 0.0, 0.0, 0.0, 0.0, 0.0, 0.0, 0.0, 1.6635871197291963E9, 0.0, 2022-09-19 16:31:59.729
59.0, 13716.259743721455, -93046.9147022861, 9630.09263635786, 3368.81022081497, -184080.76424369388, 187500.0, 20238.699941480154, 11944.012277604614, 0.626, -0.6920000000000001, 0.434, 192.0, 0.0, 0.0, 0.0, 0.0, 0.0, 0.0, 0.0, 0.0, 0.0, 1.6635871197322268E9, 0.0, 2022-09-19 16:31:59.732
60.0, 13699.674749335618, -93071.54632467584, 9610.020769836996, 3376.186296485221, -184040.4416966965, 187500.0, 20225.780633184986, 11930.958858842714, 0.626, -0.6920000000000001, 0.434, 192.0, 0.0, 0.0, 0.0, 0.0, 0.0, 0.0, 0.0, 0.0, 0.0, 1.66358711973629E9, 0.0, 2022-09-19 16:31:59.736
61.0, 13704.770947071427, -93081.04581606935, 9604.969275590096, 3371.3359679384193, -184093.84001420022, 187500.0, 20227.434662274678, 11927.181414029768, 0.626, -0.6920000000000001, 0.434, 192.0, 0.0, 0.0, 0.0, 0.0, 0.0, 0.0, 0.0, 0.0, 0.0, 1.6635871197392297E9, 0.0, 2022-09-19 16:31:59.739
62.0, 13711.655284363662, -93084.04094982636, 9609.99841809254, 3372.5653138834614, -184144.3102531803, 187500.0, 20238.141147868773, 11937.329106012477, 0.626, -0.6920000000000001, 0.434, 192.0, 0.0, 0.0, 0.0, 0.0, 0.0, 0.0, 0.0, 0.0, 0.0, 1.663587119743234E9, 0.0, 2022-09-19 16:31:59.743
63.0, 13719.746615856484, -93074.47440319949, 9624.281182799481, 3369.614883615361, -184156.6260643752, 187500.0, 20248.91468869623, 11944.526367727085, 0.626, -0.6920000000000001, 0.434, 192.0, 0.0, 0.0, 0.0, 0.0, 0.0, 0.0, 0.0, 0.0, 0.0, 1.6635871197472405E9, 0.0, 2022-09-19 16:31:59.747
64.0, 13706.939066283592, -93081.82812712528, 9618.492080985556, 3367.513819636562, -184087.53682226382, 187500.0, 20241.695075237167, 11943.520539226598, 0.626, -0.6920000000000001, 0.434, 192.0, 0.0, 0.0, 0.0, 0.0, 0.0, 0.0, 0.0, 0.0, 0.0, 1.663587119751282E9, 0.0, 2022-09-19 16:31:59.751
65.0, 13694.556199855353, -93099.7765779229, 9603.650522667233, 3365.18923821321, -184056.26673177085, 187500.0, 20229.468671020113, 11932.45642572122, 0.62, -0.6880000000000001, 0.44, 192.0, 19.0, 96.0, 234.0, 128.0, 13.0, 192.0, 0.0, 0.0, 0.0, 1.6635871197552743E9, 0.0, 2022-09-19 16:31:59.755
66.0, 13697.2831126789, -93109.85721467224, 9601.169479032693, 3366.351528924886, -184094.42115955608, 187500.0, 20231.592086743367, 11932.948164099236, 0.62, -0.6880000000000001, 0.44, 192.0, 0.0, 0.0, 0.0, 0.0, 0.0, 0.0, 0.0, 0.0, 0.0, 1.6635871197602472E9, 0.0, 2022-09-19 16:31:59.760
67.0, 13712.012912274948, -93101.89999364615, 9612.881793127275, 3362.551732367484, -184173.85925935023, 187500.0, 20241.53861302598, 11937.530271712574, 0.62, -0.6880000000000001, 0.44, 192.0, 0.0, 0.0, 0.0, 0.0, 0.0, 0.0, 0.0, 0.0, 0.0, 1.663587119763274E9, 0.0, 2022-09-19 16:31:59.763
68.0, 13716.326798954822, -93085.65027542715, 9627.030447367484, 3351.1076392063665, -184170.64060814865, 187500.0, 20248.445302062668, 11934.959821100214, 0.62, -0.6880000000000001, 0.44, 192.0, 0.0, 0.0, 0.0, 0.0, 0.0, 0.0, 0.0, 0.0, 0.0, 1.6635871197673385E9, 0.0, 2022-09-19 16:31:59.767
69.0, 13701.418185403132, -93094.38980750917, 9616.703941429132, 3359.310729421464, -184077.0538541143, 187500.0, 20239.370493813814, 11930.69063790925, 0.62, -0.6880000000000001, 0.44, 192.0, 0.0, 0.0, 0.0, 0.0, 0.0, 0.0, 0.0, 0.0, 0.0, 1.6635871197712452E9, 0.0, 2022-09-19 16:31:59.771
70.0, 13694.645606833174, -93110.59482223926, 9604.745758145542, 3368.363185925864, -184065.76622316436, 187500.0, 20232.28499082148, 11939.541928713552, 0.62, -0.6880000000000001, 0.44, 192.0, 0.0, 0.0, 0.0, 0.0, 0.0, 0.0, 0.0, 0.0, 0.0, 1.663587119775336E9, 0.0, 2022-09-19 16:31:59.775
71.0, 13699.630045846707, -93118.01560139842, 9601.840031366353, 3359.422488143741, -184098.62328751365, 187500.0, 20228.95458089764, 11934.378675744376, 0.62, -0.6880000000000001, 0.44, 192.0, 0.0, 0.0, 0.0, 0.0, 0.0, 0.0, 0.0, 0.0, 0.0, 1.6635871197792387E9, 0.0, 2022-09-19 16:31:59.779
72.0, 13712.929333797614, -93111.24302282846, 9615.362836761813, 3357.9249212652353, -184178.28490475236, 187500.0, 20238.20820310214, 11934.132806555368, 0.62, -0.6880000000000001, 0.44, 192.0, 0.0, 0.0, 0.0, 0.0, 0.0, 0.0, 0.0, 0.0, 0.0, 1.6635871197834487E9, 0.0, 2022-09-19 16:31:59.783
73.0, 13722.071197279836, -93093.87571738669, 9632.618383481311, 3360.1824474552213, -184173.9263145836, 187500.0, 20251.976877686608, 11942.157082814823, 0.62, -0.6880000000000001, 0.44, 192.0, 0.0, 0.0, 0.0, 0.0, 0.0, 0.0, 0.0, 0.0, 0.0, 1.6635871197882967E9, 0.0, 2022-09-19 16:31:59.788
74.0, 13709.487165151497, -93100.40242676764, 9622.873022898797, 3363.848133545892, -184066.25796154237, 187500.0, 20243.840842704874, 11948.326164284488, 0.62, -0.6880000000000001, 0.44, 192.0, 0.0, 0.0, 0.0, 0.0, 0.0, 0.0, 0.0, 0.0, 0.0, 1.6635871197923577E9, 0.0, 2022-09-19 16:31:59.792
75.0, 13693.595074843774, -93121.25660434445, 9599.649560409733, 3366.0386045025116, -184054.52329570334, 187500.0, 20227.009979130027, 11941.665344436806, 0.614, -0.6920000000000001, 0.438, 192.0, 19.0, 48.0, 234.0, 96.0, 13.0, 176.0, 0.0, 0.0, 0.0, 1.6635871197953491E9, 0.0, 2022-09-19 16:31:59.795
76.0, 13698.400699901666, -93124.09527589027, 9599.18017377617, 3366.105659735878, -184115.87883423315, 187500.0, 20230.76507219852, 11942.559414215018, 0.614, -0.6920000000000001, 0.438, 192.0, 0.0, 0.0, 0.0, 0.0, 0.0, 0.0, 0.0, 0.0, 0.0, 1.66358711980045E9, 0.0, 2022-09-19 16:31:59.800
77.0, 13710.582400629808, -93115.48985427497, 9610.534859959467, 3360.9200550222463, -184179.6707129086, 187500.0, 20239.392845558268, 11947.633260206374, 0.614, -0.6920000000000001, 0.438, 192.0, 0.0, 0.0, 0.0, 0.0, 0.0, 0.0, 0.0, 0.0, 0.0, 1.6635871198033843E9, 0.0, 2022-09-19 16:31:59.803
78.0, 13721.244182734988, -93097.56375522182, 9629.980877635584, 3359.288377677009, -184188.29848626835, 187500.0, 20251.90982245324, 11953.087085853469, 0.614, -0.6920000000000001, 0.438, 192.0, 0.0, 0.0, 0.0, 0.0, 0.0, 0.0, 0.0, 0.0, 0.0, 1.663587119807386E9, 0.0, 2022-09-19 16:31:59.807
79.0, 13708.168412228635, -93100.84946165675, 9623.185947321172, 3364.7869068130144, -184062.8381446407, 187500.0, 20240.53278452549, 11948.1697020733, 0.614, -0.6920000000000001, 0.438, 192.0, 0.0, 0.0, 0.0, 0.0, 0.0, 0.0, 0.0, 0.0, 0.0, 1.663587119812319E9, 0.0, 2022-09-19 16:31:59.812
80.0, 13695.114993466736, -93114.66283973012, 9609.819604136897, 3369.033738259523, -184054.63505442563, 187500.0, 20224.707749451132, 11939.608983946919, 0.614, -0.6920000000000001, 0.438, 192.0, 0.0, 0.0, 0.0, 0.0, 0.0, 0.0, 0.0, 0.0, 0.0, 1.6635871198154027E9, 0.0, 2022-09-19 16:31:59.815
81.0, 13701.976979014515, -93123.06709564533, 9607.606781435821, 3364.228113201632, -184102.02075267085, 187500.0, 20226.29472330746, 11934.624544933386, 0.614, -0.6920000000000001, 0.438, 192.0, 0.0, 0.0, 0.0, 0.0, 0.0, 0.0, 0.0, 0.0, 0.0, 1.66358711981838E9, 0.0, 2022-09-19 16:31:59.818
82.0, 13715.253915220967, -93117.12153162021, 9614.692284428154, 3357.8578660318694, -184174.21688726151, 187500.0, 20238.074092635405, 11932.545832699041, 0.614, -0.6920000000000001, 0.438, 192.0, 0.0, 0.0, 0.0, 0.0, 0.0, 0.0, 0.0, 0.0, 0.0, 1.6635871198233933E9, 0.0, 2022-09-19 16:31:59.823
83.0, 13731.749502628983, -93099.21778431152, 9635.591165493866, 3362.574084111939, -184181.88353560967, 187500.0, 20255.86608122183, 11952.12596084189, 0.614, -0.6920000000000001, 0.438, 192.0, 0.0, 0.0, 0.0, 0.0, 0.0, 0.0, 0.0, 0.0, 0.0, 1.6635871198273969E9, 0.0, 2022-09-19 16:31:59.827
84.0, 13713.778700086916, -93111.89122341767, 9624.23647931057, 3364.898665535291, -184034.51848441584, 187500.0, 20243.14793862676, 11948.013239862114, 0.614, -0.6920000000000001, 0.438, 192.0, 0.0, 0.0, 0.0, 0.0, 0.0, 0.0, 0.0, 0.0, 0.0, 1.6635871198314264E9, 0.0, 2022-09-19 16:31:59.831
85.0, 13695.539676611386, -93136.09816266278, 9602.734101144564, 3369.838401059914, -184050.67879565703, 187500.0, 20230.943886154164, 11935.585669944963, 0.62, -0.6940000000000001, 0.44, 192.0, 19.0, 96.0, 234.0, 80.0, 13.0, 192.0, 0.0, 0.0, 0.0, 1.6635871198354287E9, 0.0, 2022-09-19 16:31:59.835
86.0, 13700.255894691456, -93136.38873534069, 9604.879868612274, 3363.1775812122323, -184122.00321221392, 187500.0, 20235.3248280674, 11929.707161153217, 0.62, -0.6940000000000001, 0.44, 192.0, 0.0, 0.0, 0.0, 0.0, 0.0, 0.0, 0.0, 0.0, 0.0, 1.6635871198394346E9, 0.0, 2022-09-19 16:31:59.839
87.0, 13710.068310507335, -93132.47718006102, 9613.820566394397, 3356.3379474089083, -184143.77381131338, 187500.0, 20241.91859268172, 11930.869451864894, 0.62, -0.6940000000000001, 0.44, 192.0, 0.0, 0.0, 0.0, 0.0, 0.0, 0.0, 0.0, 0.0, 0.0, 1.6635871198434658E9, 0.0, 2022-09-19 16:31:59.843
88.0, 13718.00317978897, -93122.97768866751, 9630.00322938004, 3357.1426102092996, -184163.6668638786, 187500.0, 20253.76501724303, 11940.83832989196, 0.62, -0.6940000000000001, 0.44, 192.0, 0.0, 0.0, 0.0, 0.0, 0.0, 0.0, 0.0, 0.0, 0.0, 1.6635871198464537E9, 0.0, 2022-09-19 16:31:59.846
89.0, 13705.486202893997, -93131.15842713814, 9622.671857198698, 3361.612959100361, -184054.59035093672, 187500.0, 20243.036179904484, 11934.333972255467, 0.62, -0.6940000000000001, 0.44, 192.0, 0.0, 0.0, 0.0, 0.0, 0.0, 0.0, 0.0, 0.0, 0.0, 1.66358711985139E9, 0.0, 2022-09-19 16:31:59.851
90.0, 13696.076118478313, -93149.15158142467, 9606.28802851296, 3361.277682933531, -184035.5913681497, 187500.0, 20227.322903552402, 11922.845175605438, 0.62, -0.6940000000000001, 0.44, 192.0, 0.0, 0.0, 0.0, 0.0, 0.0, 0.0, 0.0, 0.0, 0.0, 1.6635871198554192E9, 0.0, 2022-09-19 16:31:59.855
91.0, 13698.668920835129, -93152.70550879306, 9607.696188413644, 3358.4613631321627, -184096.1645956236, 187500.0, 20225.53476399598, 11920.74411162664, 0.62, -0.6940000000000001, 0.44, 192.0, 0.0, 0.0, 0.0, 0.0, 0.0, 0.0, 0.0, 0.0, 0.0, 1.6635871198593864E9, 0.0, 2022-09-19 16:31:59.859
92.0, 13704.279208693411, -93150.1350581807, 9619.050874596938, 3363.4681538901514, -184147.8194770598, 187500.0, 20236.28595307898, 11923.940411083748, 0.62, -0.6940000000000001, 0.44, 192.0, 0.0, 0.0, 0.0, 0.0, 0.0, 0.0, 0.0, 0.0, 0.0, 1.663587119863453E9, 0.0, 2022-09-19 16:31:59.863
93.0, 13715.164508243146, -93136.61225278524, 9636.395828294257, 3362.641139345305, -184170.3276837263, 187500.0, 20250.211089874636, 11932.545832699041, 0.62, -0.6940000000000001, 0.44, 192.0, 0.0, 0.0, 0.0, 0.0, 0.0, 0.0, 0.0, 0.0, 0.0, 1.663587119867493E9, 0.0, 2022-09-19 16:31:59.867
94.0, 13700.52411562492, -93146.89405523469, 9626.561060733922, 3364.518685879551, -184067.01792085386, 187500.0, 20239.48225253609, 11931.674114665284, 0.62, -0.6940000000000001, 0.44, 192.0, 0.0, 0.0, 0.0, 0.0, 0.0, 0.0, 0.0, 0.0, 0.0, 1.6635871198714314E9, 0.0, 2022-09-19 16:31:59.871
95.0, 13684.810839272839, -93169.82694504583, 9607.070339568894, 3359.4895433771067, -184028.6399756241, 187500.0, 20227.166441341215, 11918.196012758734, 0.616, -0.686, 0.432, 192.0, 19.0, 64.0, 234.0, 144.0, 13.0, 128.0, 0.0, 0.0, 0.0, 1.6635871198744788E9, 0.0, 2022-09-19 16:31:59.874
96.0, 13680.742821781972, -93186.56840164286, 9599.157822031715, 3365.6809765912267, -184064.02278709685, 187500.0, 20227.94875239715, 11924.74507388414, 0.616, -0.686, 0.432, 192.0, 0.0, 0.0, 0.0, 0.0, 0.0, 0.0, 0.0, 0.0, 0.0, 1.6635871198785017E9, 0.0, 2022-09-19 16:31:59.878
97.0, 13690.197609686567, -93184.80261383088, 9609.75254890353, 3359.1766189547325, -184157.9671690425, 187500.0, 20235.615400745322, 11928.656629163817, 0.616, -0.686, 0.432, 192.0, 0.0, 0.0, 0.0, 0.0, 0.0, 0.0, 0.0, 0.0, 0.0, 1.6635871198834605E9, 0.0, 2022-09-19 16:31:59.883
98.0, 13706.112051738746, -93169.35755841227, 9628.080979356882, 3361.255331189076, -184151.8651428062, 187500.0, 20249.361723585334, 11936.524443212085, 0.616, -0.686, 0.432, 192.0, 0.0, 0.0, 0.0, 0.0, 0.0, 0.0, 0.0, 0.0, 0.0, 1.6635871198885007E9, 0.0, 2022-09-19 16:31:59.888
99.0, 13690.085850964291, -93181.00281727349, 9617.508604229522, 3362.216456200654, -184050.38822297912, 187500.0, 20239.81752870292, 11926.68967565175, 0.616, -0.686, 0.432, 192.0, 0.0, 0.0, 0.0, 0.0, 0.0, 0.0, 0.0, 0.0, 0.0, 1.6635871198925045E9, 0.0, 2022-09-19 16:31:59.892
100.0, 13676.004251957447, -93200.78411111643, 9597.906124342218, 3360.4283166442297, -184051.90814160206, 187500.0, 20223.724272695097, 11913.055111534013, 0.616, -0.686, 0.432, 192.0, 0.0, 0.0, 0.0, 0.0, 0.0, 0.0, 0.0, 0.0, 0.0, 1.6635871198955324E9, 0.0, 2022-09-19 16:31:59.895
101.0, 13681.793353771372, -93201.34290472782, 9599.023711564983, 3357.5896450984055, -184111.0061539419, 187500.0, 20229.58042974239, 11915.223230746178, 0.616, -0.686, 0.432, 192.0, 0.0, 0.0, 0.0, 0.0, 0.0, 0.0, 0.0, 0.0, 0.0, 1.6635871198994997E9, 0.0, 2022-09-19 16:31:59.899
102.0, 13685.883723006693, -93204.248631507, 9605.013979079005, 3358.2378456876095, -184118.02460170086, 187500.0, 20241.560964770433, 11923.001637816626, 0.616, -0.686, 0.432, 192.0, 0.0, 0.0, 0.0, 0.0, 0.0, 0.0, 0.0, 0.0, 0.0, 1.663587119902542E9, 0.0, 2022-09-19 16:31:59.902
103.0, 13696.411394645143, -93195.28558198042, 9619.09557808585, 3353.1416479517998, -184145.42784040308, 187500.0, 20251.48513930859, 11927.092007051946, 0.616, -0.686, 0.432, 192.0, 0.0, 0.0, 0.0, 0.0, 0.0, 0.0, 0.0, 0.0, 0.0, 1.6635871199065547E9, 0.0, 2022-09-19 16:31:59.906
104.0, 13683.268568905421, -93207.91431759768, 9607.584429691367, 3348.80540952747, -184068.15785982108, 187500.0, 20239.48225253609, 11911.44578593323, 0.616, -0.686, 0.432, 192.0, 0.0, 0.0, 0.0, 0.0, 0.0, 0.0, 0.0, 0.0, 0.0, 1.6635871199115112E9, 0.0, 2022-09-19 16:31:59.911
105.0, 13668.56112105383, -93230.55663473089, 9586.618493392289, 3348.3807263828194, -184019.945147031, 187500.0, 20224.797156428955, 11906.30488470851, 0.62, -0.686, 0.436, 192.0, 19.0, 96.0, 234.0, 144.0, 13.0, 160.0, 0.0, 0.0, 0.0, 1.6635871199155345E9, 0.0, 2022-09-19 16:31:59.915
106.0, 13674.886664734682, -93237.26215806749, 9585.679720125167, 3348.4254298717296, -184074.66221745758, 187500.0, 20227.300551807948, 11905.142593996834, 0.62, -0.686, 0.436, 192.0, 0.0, 0.0, 0.0, 0.0, 0.0, 0.0, 0.0, 0.0, 0.0, 1.663587119919543E9, 0.0, 2022-09-19 16:31:59.919
107.0, 13692.857467276748, -93233.752934188, 9597.570848175388, 3355.801505541981, -184115.6106132997, 187500.0, 20243.371456071312, 11915.06676853499, 0.62, -0.686, 0.436, 192.0, 0.0, 0.0, 0.0, 0.0, 0.0, 0.0, 0.0, 0.0, 0.0, 1.6635871199236271E9, 0.0, 2022-09-19 16:31:59.923
108.0, 13704.502726137964, -93224.4546084946, 9609.372569247791, 3355.2203601861434, -184145.38313691417, 187500.0, 20248.847633462865, 11919.447710448232, 0.62, -0.686, 0.436, 192.0, 0.0, 0.0, 0.0, 0.0, 0.0, 0.0, 0.0, 0.0, 0.0, 1.6635871199265487E9, 0.0, 2022-09-19 16:31:59.926
109.0, 13693.818592288328, -93239.11735285728, 9596.274446996982, 3363.937540523713, -184046.5437229328, 187500.0, 20233.983723400084, 11916.743149369138, 0.62, -0.686, 0.436, 192.0, 0.0, 0.0, 0.0, 0.0, 0.0, 0.0, 0.0, 0.0, 0.0, 1.6635871199305248E9, 0.0, 2022-09-19 16:31:59.930
110.0, 13683.939121239082, -93261.60320777932, 9578.527161899467, 3361.8588282893693, -184021.7332865874, 187500.0, 20220.10329009334, 11906.30488470851, 0.62, -0.686, 0.436, 192.0, 0.0, 0.0, 0.0, 0.0, 0.0, 0.0, 0.0, 0.0, 0.0, 1.663587119934522E9, 0.0, 2022-09-19 16:31:59.934
111.0, 13684.27439740591, -93270.43214683917, 9576.582560131856, 3360.383613155319, -184073.0528918568, 187500.0, 20221.354987782837, 11906.30488470851, 0.62, -0.686, 0.436, 192.0, 0.0, 0.0, 0.0, 0.0, 0.0, 0.0, 0.0, 0.0, 0.0, 1.6635871199396565E9, 0.0, 2022-09-19 16:31:59.939
112.0, 13692.477487621009, -93269.5157253165, 9587.691377126142, 3364.898665535291, -184137.49297112145, 187500.0, 20233.04495013296, 11921.906402338314, 0.62, -0.686, 0.436, 192.0, 0.0, 0.0, 0.0, 0.0, 0.0, 0.0, 0.0, 0.0, 0.0, 1.6635871199435823E9, 0.0, 2022-09-19 16:31:59.943
113.0, 13697.707795823551, -93258.27279785548, 9603.561115689412, 3357.4778863761294, -184143.77381131338, 187500.0, 20244.801967716452, 11928.544870441541, 0.62, -0.686, 0.436, 192.0, 0.0, 0.0, 0.0, 0.0, 0.0, 0.0, 0.0, 0.0, 0.0, 1.6635871199475973E9, 0.0, 2022-09-19 16:31:59.947
114.0, 13677.971205469514, -93275.14836491924, 9589.770089360487, 3357.366127653853, -184033.55735940425, 187500.0, 20230.34038905387, 11918.799509859027, 0.62, -0.686, 0.436, 192.0, 0.0, 0.0, 0.0, 0.0, 0.0, 0.0, 0.0, 0.0, 0.0, 1.6635871199516141E9, 0.0, 2022-09-19 16:31:59.951
115.0, 13670.75159201045, -93291.68865581616, 9577.476629910068, 3365.748031824593, -184019.20753946397, 187500.0, 20221.19852557165, 11914.284457479056, 0.626, -0.682, 0.436, 192.0, 19.0, 144.0, 234.0, 176.0, 13.0, 160.0, 0.0, 0.0, 0.0, 1.6635871199545743E9, 0.0, 2022-09-19 16:31:59.954
116.0, 13673.836132745282, -93298.90826927523, 9577.23076072106, 3367.089136491911, -184084.8099094403, 187500.0, 20225.937095396173, 11917.12312902488, 0.626, -0.682, 0.436, 192.0, 0.0, 0.0, 0.0, 0.0, 0.0, 0.0, 0.0, 0.0, 0.0, 1.6635871199606206E9, 0.0, 2022-09-19 16:31:59.960
117.0, 13695.89730452267, -93286.05601621342, 9594.575714418377, 3362.3952701562966, -184190.31014326934, 187500.0, 20241.426854303703, 11926.466158207199, 0.626, -0.682, 0.436, 192.0, 0.0, 0.0, 0.0, 0.0, 0.0, 0.0, 0.0, 0.0, 0.0, 1.6635871199635785E9, 0.0, 2022-09-19 16:31:59.963
118.0, 13703.049862748368, -93272.73437651806, 9610.825432637386, 3361.0988689778887, -184108.458055074, 187500.0, 20249.33937184088, 11933.283440266066, 0.626, -0.682, 0.436, 192.0, 0.0, 0.0, 0.0, 0.0, 0.0, 0.0, 0.0, 0.0, 0.0, 1.6635871199686189E9, 0.0, 2022-09-19 16:31:59.968
119.0, 13689.147077697167, -93286.88303075827, 9602.175307533182, 3370.2630842045646, -184035.30079547176, 187500.0, 20237.6270577463, 11934.244565277644, 0.626, -0.682, 0.436, 192.0, 0.0, 0.0, 0.0, 0.0, 0.0, 0.0, 0.0, 0.0, 0.0, 1.6635871199716349E9, 0.0, 2022-09-19 16:31:59.971
120.0, 13681.078097948803, -93305.47968214509, 9591.37941496127, 3374.0852325064225, -184056.95963584897, 187500.0, 20226.92057215221, 11937.194995545746, 0.626, -0.682, 0.436, 192.0, 0.0, 0.0, 0.0, 0.0, 0.0, 0.0, 0.0, 0.0, 0.0, 1.6635871199756656E9, 0.0, 2022-09-19 16:31:59.975
121.0, 13693.103336465758, -93305.50203388954, 9594.016920806995, 3376.298055207498, -184105.7534939949, 187500.0, 20234.810737944932, 11939.050190335536, 0.626, -0.682, 0.436, 192.0, 0.0, 0.0, 0.0, 0.0, 0.0, 0.0, 0.0, 0.0, 0.0, 1.663587119978684E9, 0.0, 2022-09-19 16:31:59.978
122.0, 13703.295731937378, -93302.48454838808, 9602.912915100207, 3367.0220812585453, -184141.67274733458, 187500.0, 20245.539575283477, 11939.608983946919, 0.626, -0.682, 0.436, 192.0, 0.0, 0.0, 0.0, 0.0, 0.0, 0.0, 0.0, 0.0, 0.0, 1.6635871199826407E9, 0.0, 2022-09-19 16:31:59.982
123.0, 13704.368615671232, -93298.39417915276, 9609.976066348085, 3362.99876725659, -184104.0100579274, 187500.0, 20247.081845650893, 11934.065751322003, 0.626, -0.682, 0.436, 192.0, 0.0, 0.0, 0.0, 0.0, 0.0, 0.0, 0.0, 0.0, 0.0, 1.6635871199866045E9, 0.0, 2022-09-19 16:31:59.986
124.0, 13693.885647521693, -93304.83148155588, 9604.388130234258, 3377.549752896995, -184062.16759230706, 187500.0, 20239.124624624805, 11940.503053725131, 0.626, -0.682, 0.436, 192.0, 0.0, 0.0, 0.0, 0.0, 0.0, 0.0, 0.0, 0.0, 0.0, 1.66358711999063E9, 0.0, 2022-09-19 16:31:59.990
125.0, 13682.866237505226, -93324.50101667656, 9590.507696927512, 3381.506011665584, -184042.22983625293, 187500.0, 20231.703845465643, 11938.69256242425, 0.624, -0.686, 0.436, 192.0, 19.0, 128.0, 234.0, 144.0, 13.0, 160.0, 0.0, 0.0, 0.0, 1.6635871199956644E9, 0.0, 2022-09-19 16:31:59.995
126.0, 13683.425031116609, -93331.09478129087, 9589.792441104943, 3374.956950540179, -184083.4911565174, 187500.0, 20234.408406544735, 11934.870414122393, 0.624, -0.686, 0.436, 192.0, 0.0, 0.0, 0.0, 0.0, 0.0, 0.0, 0.0, 0.0, 0.0, 1.6635871199996672E9, 0.0, 2022-09-19 16:31:59.999
127.0, 13687.403641629655, -93325.95388006615, 9600.588333676855, 3370.2183807156543, -184148.0653462488, 187500.0, 20245.18194737219, 11939.497225224643, 0.624, -0.686, 0.436, 192.0, 0.0, 0.0, 0.0, 0.0, 0.0, 0.0, 0.0, 0.0, 0.0, 1.6635871200036697E9, 0.0, 2022-09-19 16:32:00.003
128.0, 13691.337548653788, -93320.0306677855, 9611.09365357085, 3357.7237555651377, -184139.14700021115, 187500.0, 20249.808758474443, 11935.74213215615, 0.624, -0.686, 0.436, 192.0, 0.0, 0.0, 0.0, 0.0, 0.0, 0.0, 0.0, 0.0, 0.0, 1.6635871200066428E9, 0.0, 2022-09-19 16:32:00.006
129.0, 13678.686461292084, -93333.91110109224, 9600.387167976758, 3360.897703277791, -184059.12775506114, 187500.0, 20235.5259937675, 11926.399102973832, 0.624, -0.686, 0.436, 192.0, 0.0, 0.0, 0.0, 0.0, 0.0, 0.0, 0.0, 0.0, 0.0, 1.6635871200106652E9, 0.0, 2022-09-19 16:32:00.010
130.0, 13663.487275062476, -93357.02280485902, 9582.192847990138, 3359.5565986104725, -184021.4874173984, 187500.0, 20224.81950817341, 11911.937524311248, 0.624, -0.686, 0.436, 192.0, 0.0, 0.0, 0.0, 0.0, 0.0, 0.0, 0.0, 0.0, 0.0, 1.6635871200147936E9, 0.0, 2022-09-19 16:32:00.014
131.0, 13669.745763509962, -93361.94018863919, 9585.903237569719, 3359.71306082166, -184069.56601972177, 187500.0, 20234.29664782246, 11919.26889649259, 0.624, -0.686, 0.436, 192.0, 0.0, 0.0, 0.0, 0.0, 0.0, 0.0, 0.0, 0.0, 0.0, 1.663587120018662E9, 0.0, 2022-09-19 16:32:00.018
132.0, 13683.201513672057, -93351.61368270084, 9600.275409254482, 3359.5118951215622, -184144.6678810916, 187500.0, 20248.892336951772, 11928.187242530257, 0.624, -0.686, 0.436, 192.0, 0.0, 0.0, 0.0, 0.0, 0.0, 0.0, 0.0, 0.0, 0.0, 1.6635871200226972E9, 0.0, 2022-09-19 16:32:00.022
133.0, 13686.576627084807, -93345.51165646454, 9609.305514014426, 3356.360299153364, -184121.71263953598, 187500.0, 20253.832072476398, 11931.338838498456, 0.624, -0.686, 0.436, 192.0, 0.0, 0.0, 0.0, 0.0, 0.0, 0.0, 0.0, 0.0, 0.0, 1.6635871200276823E9, 0.0, 2022-09-19 16:32:00.027
134.0, 13667.46588557552, -93362.76720318403, 9591.84880159483, 3352.068764217945, -184039.70408912946, 187500.0, 20231.592086743367, 11913.569201656486, 0.624, -0.686, 0.436, 192.0, 0.0, 0.0, 0.0, 0.0, 0.0, 0.0, 0.0, 0.0, 0.0, 1.6635871200317657E9, 0.0, 2022-09-19 16:32:00.031
135.0, 13656.759399981429, -93382.07911039343, 9575.84495256483, 3356.293243919998, -184031.0316122808, 187500.0, 20217.354025525336, 11908.316541709488, 0.624, -0.686, 0.436, 192.0, 0.0, 0.0, 0.0, 0.0, 0.0, 0.0, 0.0, 0.0, 0.0, 1.663587120034688E9, 0.0, 2022-09-19 16:32:00.034
136.0, 13669.365783854222, -93382.4367383047, 9581.70110961212, 3357.5672933539504, -184102.49013930443, 187500.0, 20227.680531463688, 11918.061902292002, 0.624, -0.6900000000000001, 0.436, 192.0, 19.0, 128.0, 234.0, 112.0, 13.0, 160.0, 0.0, 0.0, 0.0, 1.6635871200387485E9, 0.0, 2022-09-19 16:32:00.038
137.0, 13680.385193870688, -93375.95473241268, 9594.061624295906, 3353.163999696255, -184141.24806418995, 187500.0, 20237.67176123521, 11923.627486661373, 0.624, -0.6900000000000001, 0.436, 192.0, 0.0, 0.0, 0.0, 0.0, 0.0, 0.0, 0.0, 0.0, 0.0, 1.663587120042714E9, 0.0, 2022-09-19 16:32:00.042
138.0, 13686.464868362531, -93364.33182529591, 9608.210278536115, 3350.5935490838947, -184145.24902644742, 187500.0, 20240.979819414595, 11926.779082629571, 0.624, -0.6900000000000001, 0.436, 192.0, 0.0, 0.0, 0.0, 0.0, 0.0, 0.0, 0.0, 0.0, 0.0, 1.6635871200467174E9, 0.0, 2022-09-19 16:32:00.046
139.0, 13664.761324496429, -93380.82741270393, 9591.781746361465, 3359.8918747773023, -184047.191923522, 187500.0, 20224.551287239945, 11921.146443026835, 0.624, -0.6900000000000001, 0.436, 192.0, 0.0, 0.0, 0.0, 0.0, 0.0, 0.0, 0.0, 0.0, 0.0, 1.6635871200507715E9, 0.0, 2022-09-19 16:32:00.050
140.0, 13650.500911533942, -93408.11889268385, 9571.03932750694, 3360.227150944132, -184021.15214123158, 187500.0, 20214.00126385704, 11917.2125360027, 0.624, -0.6900000000000001, 0.436, 192.0, 0.0, 0.0, 0.0, 0.0, 0.0, 0.0, 0.0, 0.0, 0.0, 1.663587120056779E9, 0.0, 2022-09-19 16:32:00.056
141.0, 13662.481446561987, -93412.36572413036, 9575.912007798197, 3359.5342468660174, -184089.9955141539, 187500.0, 20224.5736389844, 11921.727588382673, 0.624, -0.6900000000000001, 0.436, 192.0, 0.0, 0.0, 0.0, 0.0, 0.0, 0.0, 0.0, 0.0, 0.0, 1.6635871200597663E9, 0.0, 2022-09-19 16:32:00.059
142.0, 13678.105315936247, -93404.72142752665, 9591.535877172457, 3360.0483369884896, -184155.64258761914, 187500.0, 20241.806833959443, 11930.914155353805, 0.624, -0.6900000000000001, 0.436, 192.0, 0.0, 0.0, 0.0, 0.0, 0.0, 0.0, 0.0, 0.0, 0.0, 1.663587120063798E9, 0.0, 2022-09-19 16:32:00.063
143.0, 13681.122801437712, -93395.13252915532, 9601.32594124388, 3353.5663310964505, -184131.9050350076, 187500.0, 20245.897203194763, 11926.64497216284, 0.624, -0.6900000000000001, 0.436, 192.0, 0.0, 0.0, 0.0, 0.0, 0.0, 0.0, 0.0, 0.0, 0.0, 1.6635871200668063E9, 0.0, 2022-09-19 16:32:00.066
144.0, 13657.049972659348, -93412.03044796354, 9584.204504991116, 3354.125124707833, -184056.22202828195, 187500.0, 20224.327769795393, 11922.196975016233, 0.624, -0.6900000000000001, 0.436, 192.0, 0.0, 0.0, 0.0, 0.0, 0.0, 0.0, 0.0, 0.0, 0.0, 1.6635871200707867E9, 0.0, 2022-09-19 16:32:00.070
145.0, 13647.148149865647, -93429.66597433877, 9572.983929274551, 3368.3408341814084, -184040.59815890767, 187500.0, 20219.34333078186, 11929.863623364405, 0.624, -0.6900000000000001, 0.436, 192.0, 0.0, 0.0, 0.0, 0.0, 0.0, 0.0, 0.0, 0.0, 0.0, 1.6635871200748012E9, 0.0, 2022-09-19 16:32:00.074
146.0, 13654.926556936092, -93427.8554830379, 9575.956711287106, 3362.4399736452074, -184122.62906105866, 187500.0, 20226.875868663297, 11927.516690196597, 0.622, -0.684, 0.434, 192.0, 19.0, 112.0, 234.0, 160.0, 13.0, 144.0, 0.0, 0.0, 0.0, 1.6635871200788E9, 0.0, 2022-09-19 16:32:00.078
147.0, 13671.176275155101, -93414.98087823164, 9591.424118450179, 3357.2096654426655, -184168.76306161442, 187500.0, 20244.600802016354, 11932.277611765578, 0.622, -0.684, 0.434, 192.0, 0.0, 0.0, 0.0, 0.0, 0.0, 0.0, 0.0, 0.0, 0.0, 1.6635871200828643E9, 0.0, 2022-09-19 16:32:00.082
148.0, 13678.574702569807, -93407.91772698375, 9602.152955788726, 3362.484677134118, -184120.86327324668, 187500.0, 20254.323810854414, 11939.497225224643, 0.622, -0.684, 0.434, 192.0, 0.0, 0.0, 0.0, 0.0, 0.0, 0.0, 0.0, 0.0, 0.0, 1.6635871200878212E9, 0.0, 2022-09-19 16:32:00.087
149.0, 13663.04024017337, -93419.07124746696, 9590.41828994969, 3361.9482352671907, -184051.88578985762, 187500.0, 20242.6785519932, 11933.104626310424, 0.622, -0.684, 0.434, 192.0, 0.0, 0.0, 0.0, 0.0, 0.0, 0.0, 0.0, 0.0, 0.0, 1.663587120090804E9, 0.0, 2022-09-19 16:32:00.090
150.0, 13657.966394182014, -93435.76800057507, 9578.303644454914, 3361.8588282893693, -184033.37854544862, 187500.0, 20237.515299024024, 11928.299001252533, 0.622, -0.684, 0.434, 192.0, 0.0, 0.0, 0.0, 0.0, 0.0, 0.0, 0.0, 0.0, 0.0, 1.663587120094828E9, 0.0, 2022-09-19 16:32:00.094
151.0, 13666.482408819487, -93439.97012853267, 9581.008205534006, 3360.875351533336, -184121.46677034697, 187500.0, 20244.95842992764, 11929.394236730843, 0.622, -0.684, 0.434, 192.0, 0.0, 0.0, 0.0, 0.0, 0.0, 0.0, 0.0, 0.0, 0.0, 1.6635871200989215E9, 0.0, 2022-09-19 16:32:00.098
152.0, 13682.799182271861, -93427.67666908226, 9598.151993531226, 3360.1824474552213, -184176.56382042932, 187500.0, 20259.084732423395, 11936.479739723176, 0.622, -0.684, 0.434, 192.0, 0.0, 0.0, 0.0, 0.0, 0.0, 0.0, 0.0, 0.0, 0.0, 1.663587120102828E9, 0.0, 2022-09-19 16:32:00.102
153.0, 13689.124725952714, -93417.43957012171, 9610.825432637386, 3353.2757584185315, -184138.67761357757, 187500.0, 20265.14205517078, 11934.579841444474, 0.622, -0.684, 0.434, 192.0, 0.0, 0.0, 0.0, 0.0, 0.0, 0.0, 0.0, 0.0, 0.0, 1.66358712010701E9, 0.0, 2022-09-19 16:32:00.107
154.0, 13667.108257664235, -93437.69025059823, 9592.385243461758, 3358.3719561543417, -184054.7915166368, 187500.0, 20246.05366540595, 11918.128957525369, 0.622, -0.684, 0.434, 192.0, 0.0, 0.0, 0.0, 0.0, 0.0, 0.0, 0.0, 0.0, 0.0, 1.6635871201108847E9, 0.0, 2022-09-19 16:32:00.110
155.0, 13658.122856393202, -93454.8563903399, 9580.717632856087, 3363.8257818014363, -184028.8858448131, 187500.0, 20233.983723400084, 11914.21740224569, 0.622, -0.684, 0.434, 192.0, 0.0, 0.0, 0.0, 0.0, 0.0, 0.0, 0.0, 0.0, 0.0, 1.6635871201159232E9, 0.0, 2022-09-19 16:32:00.115
156.0, 13664.783676240884, -93455.92927407376, 9585.769127102987, 3363.3340434234196, -184117.37640111166, 187500.0, 20241.024522903506, 11923.06869304999, 0.622, -0.686, 0.44, 192.0, 19.0, 112.0, 234.0, 144.0, 13.0, 192.0, 0.0, 0.0, 0.0, 1.6635871201190057E9, 0.0, 2022-09-19 16:32:00.119
157.0, 13681.301615393355, -93446.2062652357, 9603.494060456045, 3366.418584158252, -184172.6746168941, 187500.0, 20259.10708416785, 11934.870414122393, 0.622, -0.686, 0.44, 192.0, 0.0, 0.0, 0.0, 0.0, 0.0, 0.0, 0.0, 0.0, 0.0, 1.6635871201229248E9, 0.0, 2022-09-19 16:32:00.122
158.0, 13689.23648467499, -93430.26947143907, 9619.5202612305, 3363.6246161013387, -184155.2626079634, 187500.0, 20265.34322087088, 11936.949126356736, 0.622, -0.686, 0.44, 192.0, 0.0, 0.0, 0.0, 0.0, 0.0, 0.0, 0.0, 0.0, 0.0, 1.663587120126945E9, 0.0, 2022-09-19 16:32:00.126
159.0, 13667.957623953536, -93449.04493678153, 9600.834202865864, 3369.480773148629, -184030.3834116916, 187500.0, 20244.086711893884, 11931.964687343203, 0.622, -0.686, 0.44, 192.0, 0.0, 0.0, 0.0, 0.0, 0.0, 0.0, 0.0, 0.0, 0.0, 1.663587120130928E9, 0.0, 2022-09-19 16:32:00.130
160.0, 13662.79437098436, -93467.66393991279, 9585.389147447248, 3371.224209216143, -184034.80905709375, 187500.0, 20234.85544143384, 11928.813091375005, 0.622, -0.686, 0.44, 192.0, 0.0, 0.0, 0.0, 0.0, 0.0, 0.0, 0.0, 0.0, 0.0, 1.6635871201369529E9, 0.0, 2022-09-19 16:32:00.136
