%OpenBCI Raw EEG Data
%Number of channels = 8
%Sample Rate = 250 Hz
%Board = OpenBCI_GUI$BoardCytonSerial
Sample Index, EXG Channel 0, EXG Channel 1, EXG Channel 2, EXG Channel 3, EXG Channel 4, EXG Channel 5, EXG Channel 6, EXG Channel 7, Accel Channel 0, Accel Channel 1, Accel Channel 2, Other, Other, Other, Other, Other, Other, Other, Analog Channel 0, Analog Channel 1, Analog Channel 2, Timestamp, Other, Timestamp (Formatted)
225.0, 15805.432594470096, 59492.61003644586, 6485.42570894071, 94107.16970052359, 187500.0, 187500.0, -16627.507403791835, 22444.817119218962, 0.59, -0.638, 0.532, 192.0, 18.0, 112.0, 236.0, 16.0, 16.0, 160.0, 0.0, 0.0, 0.0, 1.6635888381446304E9, 0.0, 2022-09-19 17:00:38.144
226.0, 15798.302387988853, 59509.03856862051, 6484.397528695766, 94123.73234316497, 187500.0, 187500.0, -16632.402435827546, 22441.285543595022, 0.59, -0.638, 0.532, 192.0, 0.0, 0.0, 0.0, 0.0, 0.0, 0.0, 0.0, 0.0, 0.0, 1.6635888381446607E9, 0.0, 2022-09-19 17:00:38.144
227.0, 15809.522963705418, 59506.57987673043, 6483.7046246176515, 94120.24547102994, 187500.0, 187500.0, -16638.750331252853, 22431.026092890035, 0.59, -0.638, 0.532, 192.0, 0.0, 0.0, 0.0, 0.0, 0.0, 0.0, 0.0, 0.0, 0.0, 1.6635888381446748E9, 0.0, 2022-09-19 17:00:38.144
0.0, 0.0, 0.0, 0.0, 0.0, 0.0, 0.0, 0.0, 0.0, 0.59, -0.638, 0.532, 192.0, 0.0, 0.0, 0.0, 0.0, 0.0, 0.0, 0.0, 0.0, 0.0, 1.6635888382539575E9, 0.0, 2022-09-19 17:00:38.253
1.0, 18674.390754031036, 17040.3217721369, 11554.577833959798, 83882.58771688792, 187500.0, 187500.0, -7324.241974859474, 22252.033323291937, 0.612, -0.646, 0.51, 192.0, 19.0, 32.0, 235.0, 208.0, 15.0, 240.0, 0.0, 0.0, 0.0, 1.66358883827203E9, 0.0, 2022-09-19 17:00:38.272
2.0, 18679.822227933673, 17074.29642370897, 11571.028717878904, 83896.51285368358, 187500.0, 187500.0, -7305.734730450479, 22246.758311600486, 0.612, -0.646, 0.51, 192.0, 0.0, 0.0, 0.0, 0.0, 0.0, 0.0, 0.0, 0.0, 0.0, 1.6635888382749853E9, 0.0, 2022-09-19 17:00:38.274
3.0, 18712.47812658288, 17105.745328157584, 11575.05203188086, 83908.98512708965, 187500.0, 187500.0, -7305.466509517016, 22246.713608111575, 0.612, -0.646, 0.51, 192.0, 0.0, 0.0, 0.0, 0.0, 0.0, 0.0, 0.0, 0.0, 0.0, 1.6635888382779312E9, 0.0, 2022-09-19 17:00:38.277
4.0, 18703.313911356203, 17108.785165403508, 11569.106467855749, 83892.33307747044, 187500.0, 187500.0, -7326.343038838272, 22254.134387270737, 0.612, -0.646, 0.51, 192.0, 0.0, 0.0, 0.0, 0.0, 0.0, 0.0, 0.0, 0.0, 0.0, 1.6635888382810037E9, 0.0, 2022-09-19 17:00:38.281
5.0, 18708.99125444785, 17108.785165403508, 11570.29111031188, 83876.61980111836, 187500.0, 187500.0, -7324.152567881652, 22257.397741961213, 0.612, -0.646, 0.51, 192.0, 0.0, 0.0, 0.0, 0.0, 0.0, 0.0, 0.0, 0.0, 0.0, 1.6635888382849915E9, 0.0, 2022-09-19 17:00:38.284
6.0, 18726.827946523186, 17127.605334234875, 11585.713813986042, 83878.36323718587, 187500.0, 187500.0, -7303.946590894055, 22267.567785688378, 0.612, -0.646, 0.51, 192.0, 0.0, 0.0, 0.0, 0.0, 0.0, 0.0, 0.0, 0.0, 0.0, 1.663588838288128E9, 0.0, 2022-09-19 17:00:38.288
7.0, 18703.023338678282, 17150.985258935125, 11581.95872091755, 83886.61103088988, 187500.0, 187500.0, -7298.6715792026025, 22264.595003675822, 0.612, -0.646, 0.51, 192.0, 0.0, 0.0, 0.0, 0.0, 0.0, 0.0, 0.0, 0.0, 0.0, 1.6635888382920933E9, 0.0, 2022-09-19 17:00:38.292
8.0, 18727.5208506013, 17185.83162854095, 11595.05684316836, 83904.51477819857, 187500.0, 187500.0, -7292.100166332742, 22278.117809071282, 0.622, -0.65, 0.496, 192.0, 19.0, 112.0, 235.0, 176.0, 15.0, 128.0, 0.0, 0.0, 0.0, 1.6635888382970674E9, 0.0, 2022-09-19 17:00:38.297
9.0, 18761.361391706632, 17192.246579199622, 11604.243410139492, 83894.34473447141, 187500.0, 187500.0, -7294.983541367476, 22284.197483563126, 0.622, -0.65, 0.496, 192.0, 0.0, 0.0, 0.0, 0.0, 0.0, 0.0, 0.0, 0.0, 0.0, 1.6635888383010547E9, 0.0, 2022-09-19 17:00:38.301
10.0, 18730.33717040267, 17190.078459987457, 11597.739052502997, 83877.31270519647, 187500.0, 187500.0, -7300.4373670145715, 22273.26748052448, 0.622, -0.65, 0.496, 192.0, 0.0, 0.0, 0.0, 0.0, 0.0, 0.0, 0.0, 0.0, 0.0, 1.663588838305036E9, 0.0, 2022-09-19 17:00:38.305
11.0, 18715.227391150882, 17210.910285819806, 11595.146250146181, 83881.89481280981, 187500.0, 187500.0, -7294.089471589265, 22274.78739914744, 0.622, -0.65, 0.496, 192.0, 0.0, 0.0, 0.0, 0.0, 0.0, 0.0, 0.0, 0.0, 0.0, 1.6635888383090289E9, 0.0, 2022-09-19 17:00:38.309
12.0, 18743.167071720014, 17244.437902502767, 11600.220096137537, 83901.8996240973, 187500.0, 187500.0, -7276.185724280564, 22275.569710203377, 0.622, -0.65, 0.496, 192.0, 0.0, 0.0, 0.0, 0.0, 0.0, 0.0, 0.0, 0.0, 0.0, 1.663588838313056E9, 0.0, 2022-09-19 17:00:38.313
13.0, 18743.636458353576, 17265.090914379467, 11593.603979778765, 83908.42633347826, 187500.0, 187500.0, -7279.24791327094, 22268.685372911143, 0.622, -0.65, 0.496, 192.0, 0.0, 0.0, 0.0, 0.0, 0.0, 0.0, 0.0, 0.0, 0.0, 1.6635888383171422E9, 0.0, 2022-09-19 17:00:38.317
14.0, 18709.862972481606, 17265.627356246398, 11584.462116296545, 83891.39430420332, 187500.0, 187500.0, -7299.833869914279, 22261.465759452076, 0.622, -0.65, 0.496, 192.0, 0.0, 0.0, 0.0, 0.0, 0.0, 0.0, 0.0, 0.0, 0.0, 1.663588838321118E9, 0.0, 2022-09-19 17:00:38.321
15.0, 18707.27017012479, 17265.292080079565, 11579.790601705385, 83874.8987167953, 187500.0, 187500.0, -7304.706550205536, 22260.616393162774, 0.622, -0.65, 0.496, 192.0, 0.0, 0.0, 0.0, 0.0, 0.0, 0.0, 0.0, 0.0, 0.0, 1.6635888383241131E9, 0.0, 2022-09-19 17:00:38.324
16.0, 18742.362408919624, 17276.93733894078, 11579.343566816278, 83871.12127198235, 187500.0, 187500.0, -7303.700721705047, 22261.465759452076, 0.622, -0.65, 0.496, 192.0, 0.0, 0.0, 0.0, 0.0, 0.0, 0.0, 0.0, 0.0, 0.0, 1.6635888383280995E9, 0.0, 2022-09-19 17:00:38.328
17.0, 18735.27690592729, 17307.80509803356, 11586.898456442173, 83887.84037683492, 187500.0, 187500.0, -7295.743500678957, 22271.971079346073, 0.622, -0.65, 0.496, 192.0, 0.0, 0.0, 0.0, 0.0, 0.0, 0.0, 0.0, 0.0, 0.0, 1.6635888383320813E9, 0.0, 2022-09-19 17:00:38.332
18.0, 18715.048577195237, 17333.2413832237, 11592.978130934016, 83902.14549328631, 187500.0, 187500.0, -7296.592866968259, 22285.203312063615, 0.624, -0.648, 0.49, 192.0, 19.0, 128.0, 235.0, 192.0, 15.0, 80.0, 0.0, 0.0, 0.0, 1.6635888383360784E9, 0.0, 2022-09-19 17:00:38.336
19.0, 18714.13215567257, 17338.024656537134, 11593.96160769005, 83891.08137978094, 187500.0, 187500.0, -7305.801785683845, 22288.60077722082, 0.624, -0.648, 0.49, 192.0, 0.0, 0.0, 0.0, 0.0, 0.0, 0.0, 0.0, 0.0, 0.0, 1.6635888383411157E9, 0.0, 2022-09-19 17:00:38.341
20.0, 18712.567533560697, 17346.20539500778, 11601.181221149114, 83884.17469074424, 187500.0, 187500.0, -7299.699759447546, 22296.423887780176, 0.624, -0.648, 0.49, 192.0, 0.0, 0.0, 0.0, 0.0, 0.0, 0.0, 0.0, 0.0, 0.0, 1.6635888383451235E9, 0.0, 2022-09-19 17:00:38.345
21.0, 18703.55978054521, 17362.410409737877, 11599.370729848235, 83884.04058027752, 187500.0, 187500.0, -7290.826116898789, 22289.78541967695, 0.624, -0.648, 0.49, 192.0, 0.0, 0.0, 0.0, 0.0, 0.0, 0.0, 0.0, 0.0, 0.0, 1.6635888383490796E9, 0.0, 2022-09-19 17:00:38.349
22.0, 18690.439306549946, 17384.96331989328, 11585.266779096935, 83891.52841467004, 187500.0, 187500.0, -7292.256628543929, 22272.485169468542, 0.624, -0.648, 0.49, 192.0, 0.0, 0.0, 0.0, 0.0, 0.0, 0.0, 0.0, 0.0, 0.0, 1.663588838352164E9, 0.0, 2022-09-19 17:00:38.352
23.0, 18705.146754401536, 17404.185820124843, 11587.569008775832, 83896.73637112814, 187500.0, 187500.0, -7292.770718666401, 22277.626070693266, 0.624, -0.648, 0.49, 192.0, 0.0, 0.0, 0.0, 0.0, 0.0, 0.0, 0.0, 0.0, 0.0, 1.6635888383561351E9, 0.0, 2022-09-19 17:00:38.356
24.0, 18715.249742895336, 17406.711567248294, 11607.05972994086, 83884.26409772207, 187500.0, 187500.0, -7296.548163479348, 22291.908835400205, 0.624, -0.648, 0.49, 192.0, 0.0, 0.0, 0.0, 0.0, 0.0, 0.0, 0.0, 0.0, 0.0, 1.6635888383601365E9, 0.0, 2022-09-19 17:00:38.360
25.0, 18720.502402842332, 17419.139137165446, 11621.230735925525, 83881.09015000942, 187500.0, 187500.0, -7284.299407517839, 22299.97781514857, 0.624, -0.648, 0.49, 192.0, 0.0, 0.0, 0.0, 0.0, 0.0, 0.0, 0.0, 0.0, 0.0, 1.6635888383641632E9, 0.0, 2022-09-19 17:00:38.364
26.0, 18746.76570257732, 17441.714399065306, 11624.896422016194, 83886.38751344533, 187500.0, 187500.0, -7271.335395733762, 22298.74846920353, 0.624, -0.648, 0.49, 192.0, 0.0, 0.0, 0.0, 0.0, 0.0, 0.0, 0.0, 0.0, 0.0, 1.6635888383691616E9, 0.0, 2022-09-19 17:00:38.369
27.0, 18740.395455407557, 17464.379067942988, 11609.876049742228, 83891.7966356035, 187500.0, 187500.0, -7276.252779513929, 22279.83889339434, 0.624, -0.648, 0.49, 192.0, 0.0, 0.0, 0.0, 0.0, 0.0, 0.0, 0.0, 0.0, 0.0, 1.66358883837318E9, 0.0, 2022-09-19 17:00:38.373
28.0, 18707.448984080434, 17480.27115825071, 11590.027700665916, 83890.25436523609, 187500.0, 187500.0, -7304.125404849698, 22264.371486231266, 0.622, -0.654, 0.484, 192.0, 19.0, 112.0, 235.0, 144.0, 15.0, 32.0, 0.0, 0.0, 0.0, 1.6635888383771503E9, 0.0, 2022-09-19 17:00:38.377
29.0, 18713.88628648356, 17484.74150714177, 11593.335758845302, 83878.8996790528, 187500.0, 187500.0, -7314.6977799770575, 22274.74269565853, 0.622, -0.654, 0.484, 192.0, 0.0, 0.0, 0.0, 0.0, 0.0, 0.0, 0.0, 0.0, 0.0, 1.6635888383801503E9, 0.0, 2022-09-19 17:00:38.380
30.0, 18705.124402657082, 17490.08357406659, 11596.397947835678, 83867.56734461396, 187500.0, 187500.0, -7307.098186862253, 22283.102248084815, 0.622, -0.654, 0.484, 192.0, 0.0, 0.0, 0.0, 0.0, 0.0, 0.0, 0.0, 0.0, 0.0, 1.663588838384344E9, 0.0, 2022-09-19 17:00:38.384
31.0, 18692.048632150727, 17507.294417297177, 11599.035453681405, 83869.69076033721, 187500.0, 187500.0, -7301.465547259516, 22288.198445820624, 0.622, -0.654, 0.484, 192.0, 0.0, 0.0, 0.0, 0.0, 0.0, 0.0, 0.0, 0.0, 0.0, 1.6635888383882675E9, 0.0, 2022-09-19 17:00:38.388
32.0, 18736.50625187233, 17539.212708379353, 11609.29490438639, 83886.90160356779, 187500.0, 187500.0, -7293.6871401890685, 22287.952576631615, 0.622, -0.654, 0.484, 192.0, 0.0, 0.0, 0.0, 0.0, 0.0, 0.0, 0.0, 0.0, 0.0, 1.6635888383922207E9, 0.0, 2022-09-19 17:00:38.392
33.0, 18732.862917526116, 17555.596537065096, 11615.77691027843, 83886.45456867869, 187500.0, 187500.0, -7301.353788537239, 22285.739753930542, 0.622, -0.654, 0.484, 192.0, 0.0, 0.0, 0.0, 0.0, 0.0, 0.0, 0.0, 0.0, 0.0, 1.6635888383971698E9, 0.0, 2022-09-19 17:00:38.397
34.0, 18726.537373845265, 17559.32927838913, 11633.725361076042, 83867.03090274704, 187500.0, 187500.0, -7301.01851237041, 22300.782477948964, 0.622, -0.654, 0.484, 192.0, 0.0, 0.0, 0.0, 0.0, 0.0, 0.0, 0.0, 0.0, 0.0, 1.6635888384012375E9, 0.0, 2022-09-19 17:00:38.401
35.0, 18752.174824735503, 17571.309813417174, 11646.644669371208, 83856.07854796393, 187500.0, 187500.0, -7289.932047120577, 22306.683338485163, 0.622, -0.654, 0.484, 192.0, 0.0, 0.0, 0.0, 0.0, 0.0, 0.0, 0.0, 0.0, 0.0, 1.6635888384051619E9, 0.0, 2022-09-19 17:00:38.405
36.0, 18748.732656089385, 17587.268958958266, 11640.654401857186, 83851.7423095396, 187500.0, 187500.0, -7284.67938717358, 22300.69307097114, 0.622, -0.654, 0.484, 192.0, 0.0, 0.0, 0.0, 0.0, 0.0, 0.0, 0.0, 0.0, 0.0, 1.6635888384082325E9, 0.0, 2022-09-19 17:00:38.408
37.0, 18739.277868184792, 17613.755776137805, 11640.63205011273, 83860.45948987718, 187500.0, 187500.0, -7272.743555634446, 22303.196466350135, 0.622, -0.654, 0.484, 192.0, 0.0, 0.0, 0.0, 0.0, 0.0, 0.0, 0.0, 0.0, 0.0, 1.6635888384122553E9, 0.0, 2022-09-19 17:00:38.412
38.0, 18722.223487165393, 17625.468090232385, 11638.709800089575, 83853.79867002949, 187500.0, 187500.0, -7282.623026683692, 22293.45110576762, 0.622, -0.654, 0.482, 192.0, 19.0, 112.0, 235.0, 144.0, 15.0, 16.0, 0.0, 0.0, 0.0, 1.663588838416191E9, 0.0, 2022-09-19 17:00:38.416
39.0, 18716.233219651367, 17618.002607584312, 11635.20057621009, 83825.09903014888, 187500.0, 187500.0, -7297.196364068552, 22282.945785873628, 0.622, -0.654, 0.482, 192.0, 0.0, 0.0, 0.0, 0.0, 0.0, 0.0, 0.0, 0.0, 0.0, 1.6635888384201906E9, 0.0, 2022-09-19 17:00:38.420
40.0, 18735.209850693926, 17623.34467450913, 11635.49114888801, 83809.87749217481, 187500.0, 187500.0, -7289.2838465313735, 22291.97589063357, 0.622, -0.654, 0.482, 192.0, 0.0, 0.0, 0.0, 0.0, 0.0, 0.0, 0.0, 0.0, 0.0, 1.6635888384252524E9, 0.0, 2022-09-19 17:00:38.425
41.0, 18723.072853454694, 17636.44279675994, 11628.092721473304, 83805.27303281701, 187500.0, 187500.0, -7287.607465697225, 22291.6629662112, 0.622, -0.654, 0.482, 192.0, 0.0, 0.0, 0.0, 0.0, 0.0, 0.0, 0.0, 0.0, 0.0, 1.6635888384292731E9, 0.0, 2022-09-19 17:00:38.429
42.0, 18717.686083040964, 17662.10259939463, 11621.051921969882, 83811.57622475341, 187500.0, 187500.0, -7279.8290586267785, 22293.384050534256, 0.622, -0.654, 0.482, 192.0, 0.0, 0.0, 0.0, 0.0, 0.0, 0.0, 0.0, 0.0, 0.0, 1.6635888384321988E9, 0.0, 2022-09-19 17:00:38.432
43.0, 18729.063120968716, 17676.586529801672, 11618.548526590888, 83804.7365909501, 187500.0, 187500.0, -7289.417956998105, 22281.470570739577, 0.622, -0.654, 0.482, 192.0, 0.0, 0.0, 0.0, 0.0, 0.0, 0.0, 0.0, 0.0, 0.0, 1.663588838436273E9, 0.0, 2022-09-19 17:00:38.436
44.0, 18718.13311793007, 17671.11035241012, 11618.079139957326, 83777.60157318134, 187500.0, 187500.0, -7302.739596693468, 22275.860282881295, 0.622, -0.654, 0.482, 192.0, 0.0, 0.0, 0.0, 0.0, 0.0, 0.0, 0.0, 0.0, 0.0, 1.6635888384402733E9, 0.0, 2022-09-19 17:00:38.440
45.0, 18698.620045020587, 17678.821704247202, 11622.325971403834, 83767.83386085437, 187500.0, 187500.0, -7293.217753555507, 22284.39864926322, 0.622, -0.654, 0.482, 192.0, 0.0, 0.0, 0.0, 0.0, 0.0, 0.0, 0.0, 0.0, 0.0, 1.663588838444326E9, 0.0, 2022-09-19 17:00:38.444
46.0, 18712.098146927136, 17697.574817845205, 11627.980962751028, 83772.1253957898, 187500.0, 187500.0, -7283.4723929729935, 22288.958405132104, 0.622, -0.654, 0.482, 192.0, 0.0, 0.0, 0.0, 0.0, 0.0, 0.0, 0.0, 0.0, 0.0, 1.6635888384483147E9, 0.0, 2022-09-19 17:00:38.448
47.0, 18708.99125444785, 17719.479527411404, 11628.562108106866, 83782.56366045043, 187500.0, 187500.0, -7276.29748300284, 22290.724192944075, 0.622, -0.654, 0.482, 192.0, 0.0, 0.0, 0.0, 0.0, 0.0, 0.0, 0.0, 0.0, 0.0, 1.6635888384522777E9, 0.0, 2022-09-19 17:00:38.452
48.0, 18710.488821326355, 17725.7827193478, 11629.478529629532, 83779.54617494896, 187500.0, 187500.0, -7284.455869729027, 22284.59981496332, 0.62, -0.656, 0.47800000000000004, 192.0, 19.0, 96.0, 235.0, 128.0, 14.0, 240.0, 0.0, 0.0, 0.0, 1.6635888384573345E9, 0.0, 2022-09-19 17:00:38.457
49.0, 18741.37893216359, 17725.290980969785, 11644.320087947857, 83766.00101780905, 187500.0, 187500.0, -7285.3499395072395, 22293.764030189996, 0.62, -0.656, 0.47800000000000004, 192.0, 0.0, 0.0, 0.0, 0.0, 0.0, 0.0, 0.0, 0.0, 0.0, 1.6635888384603066E9, 0.0, 2022-09-19 17:00:38.460
50.0, 18725.062158711215, 17724.396911191572, 11643.82834956984, 83752.67937811368, 187500.0, 187500.0, -7281.572494694293, 22299.17315234818, 0.62, -0.656, 0.47800000000000004, 192.0, 0.0, 0.0, 0.0, 0.0, 0.0, 0.0, 0.0, 0.0, 0.0, 1.6635888384642868E9, 0.0, 2022-09-19 17:00:38.464
51.0, 18708.767737003298, 17730.923620572525, 11629.076198229337, 83749.39367167874, 187500.0, 187500.0, -7285.864029629712, 22285.538588230444, 0.62, -0.656, 0.47800000000000004, 192.0, 0.0, 0.0, 0.0, 0.0, 0.0, 0.0, 0.0, 0.0, 0.0, 1.6635888384683344E9, 0.0, 2022-09-19 17:00:38.468
52.0, 18705.772603246285, 17750.615507437647, 11625.499919116488, 83763.4752706856, 187500.0, 187500.0, -7280.454907471527, 22286.11973358628, 0.62, -0.656, 0.47800000000000004, 192.0, 0.0, 0.0, 0.0, 0.0, 0.0, 0.0, 0.0, 0.0, 0.0, 1.6635888384723434E9, 0.0, 2022-09-19 17:00:38.472
53.0, 18700.94462644394, 17756.248147040387, 11625.008180738472, 83762.69295962965, 187500.0, 187500.0, -7289.149736064642, 22282.96813761808, 0.62, -0.656, 0.47800000000000004, 192.0, 0.0, 0.0, 0.0, 0.0, 0.0, 0.0, 0.0, 0.0, 0.0, 1.6635888384763348E9, 0.0, 2022-09-19 17:00:38.476
54.0, 18710.265303881803, 17742.121844544632, 11623.175337693136, 83741.1682297192, 187500.0, 187500.0, -7302.024340870898, 22273.64746018022, 0.62, -0.656, 0.47800000000000004, 192.0, 0.0, 0.0, 0.0, 0.0, 0.0, 0.0, 0.0, 0.0, 0.0, 1.6635888384803555E9, 0.0, 2022-09-19 17:00:38.480
55.0, 18726.202097678437, 17741.764216633346, 11633.25597444248, 83733.32276741539, 187500.0, 187500.0, -7291.407262254627, 22271.83696887934, 0.62, -0.656, 0.47800000000000004, 192.0, 0.0, 0.0, 0.0, 0.0, 0.0, 0.0, 0.0, 0.0, 0.0, 1.6635888384853773E9, 0.0, 2022-09-19 17:00:38.485
56.0, 18732.929972759484, 17751.71074291596, 11645.549433892898, 83739.31303492941, 187500.0, 187500.0, -7276.521000447393, 22275.636765436742, 0.62, -0.656, 0.47800000000000004, 192.0, 0.0, 0.0, 0.0, 0.0, 0.0, 0.0, 0.0, 0.0, 0.0, 1.6635888384883611E9, 0.0, 2022-09-19 17:00:38.488
57.0, 18741.691856585963, 17768.7427721909, 11647.494035660511, 83750.60066587933, 187500.0, 187500.0, -7271.089526544753, 22269.802960133908, 0.62, -0.656, 0.47800000000000004, 192.0, 0.0, 0.0, 0.0, 0.0, 0.0, 0.0, 0.0, 0.0, 0.0, 1.6635888384923563E9, 0.0, 2022-09-19 17:00:38.492
58.0, 18696.429574063968, 17761.43375175402, 11637.905137289184, 83737.05550873942, 187500.0, 187500.0, -7296.011721612421, 22264.997335076016, 0.614, -0.656, 0.47600000000000003, 192.0, 19.0, 48.0, 235.0, 128.0, 14.0, 224.0, 0.0, 0.0, 0.0, 1.66358883849644E9, 0.0, 2022-09-19 17:00:38.496
59.0, 18673.250815063813, 17746.636896924603, 11643.4483699141, 83713.72028752808, 187500.0, 187500.0, -7298.984503624976, 22273.759218902498, 0.614, -0.656, 0.47600000000000003, 192.0, 0.0, 0.0, 0.0, 0.0, 0.0, 0.0, 0.0, 0.0, 0.0, 1.663588838500444E9, 0.0, 2022-09-19 17:00:38.500
60.0, 18731.052426225237, 17754.258841783863, 11654.601890397298, 83710.27811888196, 187500.0, 187500.0, -7270.396622466639, 22289.964233632592, 0.614, -0.656, 0.47600000000000003, 192.0, 0.0, 0.0, 0.0, 0.0, 0.0, 0.0, 0.0, 0.0, 0.0, 1.663588838504371E9, 0.0, 2022-09-19 17:00:38.504
61.0, 18751.3254584462, 17765.03238261132, 11653.484303174533, 83713.78734276144, 187500.0, 187500.0, -7252.5375786468485, 22288.623128965275, 0.614, -0.656, 0.47600000000000003, 192.0, 0.0, 0.0, 0.0, 0.0, 0.0, 0.0, 0.0, 0.0, 0.0, 1.6635888385083387E9, 0.0, 2022-09-19 17:00:38.508
62.0, 18728.191402934957, 17781.483266530427, 11651.807922340384, 83751.67354961319, 187500.0, 187500.0, -7248.715430344991, 22278.140160815736, 0.614, -0.656, 0.47600000000000003, 192.0, 0.0, 0.0, 0.0, 0.0, 0.0, 0.0, 0.0, 0.0, 0.0, 1.663588838513425E9, 0.0, 2022-09-19 17:00:38.513
63.0, 18716.926123729485, 17787.65234800009, 11654.490131675022, 83837.30308262147, 187500.0, 187500.0, -7259.891302572644, 22275.525006714466, 0.614, -0.656, 0.47600000000000003, 192.0, 0.0, 0.0, 0.0, 0.0, 0.0, 0.0, 0.0, 0.0, 0.0, 1.6635888385163524E9, 0.0, 2022-09-19 17:00:38.516
64.0, 18722.447004609945, 17780.90212117459, 11653.976041552549, 83928.05116511002, 187500.0, 187500.0, -7268.049689298831, 22275.770875903472, 0.614, -0.656, 0.47600000000000003, 192.0, 0.0, 0.0, 0.0, 0.0, 0.0, 0.0, 0.0, 0.0, 0.0, 1.6635888385194247E9, 0.0, 2022-09-19 17:00:38.519
65.0, 18726.939705245462, 17780.544493263304, 11642.420189669156, 84022.39787845587, 187500.0, 187500.0, -7270.061346299809, 22274.54152995843, 0.614, -0.656, 0.47600000000000003, 192.0, 0.0, 0.0, 0.0, 0.0, 0.0, 0.0, 0.0, 0.0, 0.0, 1.663588838524414E9, 0.0, 2022-09-19 17:00:38.524
66.0, 18729.733673302373, 17794.91666494807, 11641.704933846586, 84128.92629252987, 187500.0, 187500.0, -7258.930177561067, 22282.699916684618, 0.614, -0.656, 0.47600000000000003, 192.0, 0.0, 0.0, 0.0, 0.0, 0.0, 0.0, 0.0, 0.0, 0.0, 1.6635888385284302E9, 0.0, 2022-09-19 17:00:38.528
67.0, 18708.767737003298, 17815.726139035956, 11635.535852376921, 84242.45080261836, 187500.0, 187500.0, -7256.315023459795, 22279.011878849495, 0.614, -0.656, 0.47600000000000003, 192.0, 0.0, 0.0, 0.0, 0.0, 0.0, 0.0, 0.0, 0.0, 0.0, 1.6635888385323863E9, 0.0, 2022-09-19 17:00:38.532
68.0, 18667.796989416718, 17814.38503436864, 11623.175337693136, 84331.90248392851, 187500.0, 187500.0, -7283.695910417547, 22263.432712964146, 0.614, -0.656, 0.47600000000000003, 192.0, 0.0, 0.0, 0.0, 0.0, 0.0, 0.0, 0.0, 0.0, 0.0, 1.663588838536414E9, 0.0, 2022-09-19 17:00:38.536
69.0, 18649.848538619106, 17802.806830740792, 11621.476605114533, 84409.2171679994, 187500.0, 187500.0, -7295.229410556485, 22258.336515228333, 0.628, -0.654, 0.484, 192.0, 19.0, 160.0, 235.0, 144.0, 15.0, 32.0, 0.0, 0.0, 0.0, 1.6635888385404637E9, 0.0, 2022-09-19 17:00:38.540
70.0, 18657.515186967277, 17805.82431624226, 11628.360942406767, 84496.59013707521, 187500.0, 187500.0, -7285.148773807142, 22258.850605350806, 0.628, -0.654, 0.484, 192.0, 0.0, 0.0, 0.0, 0.0, 0.0, 0.0, 0.0, 0.0, 0.0, 1.6635888385454607E9, 0.0, 2022-09-19 17:00:38.545
71.0, 18723.497536599345, 17823.9068775066, 11645.549433892898, 84596.34597257925, 187500.0, 187500.0, -7261.500628173427, 22264.103265297803, 0.628, -0.654, 0.484, 192.0, 0.0, 0.0, 0.0, 0.0, 0.0, 0.0, 0.0, 0.0, 0.0, 1.663588838548396E9, 0.0, 2022-09-19 17:00:38.548
72.0, 18798.800563669272, 17850.751322597425, 11659.183998010636, 84707.99293613351, 187500.0, 187500.0, -7241.495816885927, 22267.612489177285, 0.628, -0.654, 0.484, 192.0, 0.0, 0.0, 0.0, 0.0, 0.0, 0.0, 0.0, 0.0, 0.0, 1.6635888385524547E9, 0.0, 2022-09-19 17:00:38.552
73.0, 18745.31283918772, 17850.550156897327, 11654.914814819673, 84792.52723366348, 187500.0, 187500.0, -7258.013756038399, 22256.414265205178, 0.628, -0.654, 0.484, 192.0, 0.0, 0.0, 0.0, 0.0, 0.0, 0.0, 0.0, 0.0, 0.0, 1.6635888385564904E9, 0.0, 2022-09-19 17:00:38.556
74.0, 18709.438289336955, 17834.926287523067, 11654.870111330762, 84859.023673418, 187500.0, 187500.0, -7267.356785220717, 22258.26945999497, 0.628, -0.654, 0.484, 192.0, 0.0, 0.0, 0.0, 0.0, 0.0, 0.0, 0.0, 0.0, 0.0, 1.6635888385604787E9, 0.0, 2022-09-19 17:00:38.560
75.0, 18729.04076922426, 17835.060397989797, 11663.989623068526, 84939.93698834622, 187500.0, 187500.0, -7256.806761837812, 22269.311221755892, 0.628, -0.654, 0.484, 192.0, 0.0, 0.0, 0.0, 0.0, 0.0, 0.0, 0.0, 0.0, 0.0, 1.663588838564541E9, 0.0, 2022-09-19 17:00:38.564
76.0, 18743.368237420113, 17847.77854058487, 11673.109134806293, 85035.33423368147, 187500.0, 187500.0, -7242.278127941862, 22276.84375963733, 0.628, -0.654, 0.484, 192.0, 0.0, 0.0, 0.0, 0.0, 0.0, 0.0, 0.0, 0.0, 0.0, 1.663588838568588E9, 0.0, 2022-09-19 17:00:38.568
77.0, 18757.405132938045, 17867.962165828012, 11682.943902366627, 85137.1464296754, 187500.0, 187500.0, -7229.090598713232, 22283.21400680709, 0.628, -0.654, 0.484, 192.0, 0.0, 0.0, 0.0, 0.0, 0.0, 0.0, 0.0, 0.0, 0.0, 1.6635888385715573E9, 0.0, 2022-09-19 17:00:38.571
78.0, 18792.497371732876, 17867.559834427815, 11680.418155243178, 85216.02573585817, 187500.0, 187500.0, -7241.317002930285, 22280.911777128196, 0.628, -0.654, 0.484, 192.0, 0.0, 0.0, 0.0, 0.0, 0.0, 0.0, 0.0, 0.0, 0.0, 1.663588838575559E9, 0.0, 2022-09-19 17:00:38.575
79.0, 18738.964943762418, 17843.799930071822, 11665.800114369407, 85274.52025109771, 187500.0, 187500.0, -7261.210055495508, 22269.132407800247, 0.622, -0.642, 0.482, 192.0, 19.0, 112.0, 235.0, 240.0, 15.0, 16.0, 0.0, 0.0, 0.0, 1.6635888385806117E9, 0.0, 2022-09-19 17:00:38.580
80.0, 18688.762925715797, 17841.318886437286, 11669.912835349183, 85353.98070263633, 187500.0, 187500.0, -7253.118724002687, 22274.54152995843, 0.622, -0.642, 0.482, 192.0, 0.0, 0.0, 0.0, 0.0, 0.0, 0.0, 0.0, 0.0, 0.0, 1.6635888385845673E9, 0.0, 2022-09-19 17:00:38.584
81.0, 18754.99114453687, 17860.9660698135, 11678.630015686753, 85448.72974738237, 187500.0, 187500.0, -7229.492930113427, 22281.828198650863, 0.622, -0.642, 0.482, 192.0, 0.0, 0.0, 0.0, 0.0, 0.0, 0.0, 0.0, 0.0, 0.0, 1.6635888385885682E9, 0.0, 2022-09-19 17:00:38.588
82.0, 18798.95702588046, 17888.83869514927, 11678.07122207537, 85547.63621659711, 187500.0, 187500.0, -7217.959429974489, 22289.383088276754, 0.622, -0.642, 0.482, 192.0, 0.0, 0.0, 0.0, 0.0, 0.0, 0.0, 0.0, 0.0, 0.0, 1.6635888385925453E9, 0.0, 2022-09-19 17:00:38.592
83.0, 18798.465287502444, 17888.749288171446, 11678.585312197842, 85613.73032495145, 187500.0, 187500.0, -7230.565813847282, 22290.45597201061, 0.622, -0.642, 0.482, 192.0, 0.0, 0.0, 0.0, 0.0, 0.0, 0.0, 0.0, 0.0, 0.0, 1.6635888385965767E9, 0.0, 2022-09-19 17:00:38.596
84.0, 18760.95906030644, 17870.756133884923, 11664.816637613374, 85659.10436619572, 187500.0, 187500.0, -7243.663936098092, 22280.241224794536, 0.622, -0.642, 0.482, 192.0, 0.0, 0.0, 0.0, 0.0, 0.0, 0.0, 0.0, 0.0, 0.0, 1.663588838599546E9, 0.0, 2022-09-19 17:00:38.599
85.0, 18744.3740659206, 17869.459732706517, 11659.094591032816, 85720.01286983644, 187500.0, 187500.0, -7238.165406962086, 22281.291756783936, 0.622, -0.642, 0.482, 192.0, 0.0, 0.0, 0.0, 0.0, 0.0, 0.0, 0.0, 0.0, 0.0, 1.6635888386035628E9, 0.0, 2022-09-19 17:00:38.603
86.0, 18737.668542584008, 17885.821209647802, 11661.93326257864, 85794.6006410838, 187500.0, 187500.0, -7225.447264367016, 22290.903006899716, 0.622, -0.642, 0.482, 192.0, 0.0, 0.0, 0.0, 0.0, 0.0, 0.0, 0.0, 0.0, 0.0, 1.663588838608562E9, 0.0, 2022-09-19 17:00:38.608
87.0, 18743.47999614239, 17897.68998595357, 11656.88176833174, 85861.61117096081, 187500.0, 187500.0, -7227.682438812547, 22286.27619579747, 0.622, -0.642, 0.482, 192.0, 0.0, 0.0, 0.0, 0.0, 0.0, 0.0, 0.0, 0.0, 0.0, 1.663588838612564E9, 0.0, 2022-09-19 17:00:38.612
88.0, 18738.89788852905, 17893.621968462703, 11657.977003810049, 85909.5780145619, 187500.0, 187500.0, -7242.076962241765, 22284.309242285402, 0.622, -0.642, 0.482, 192.0, 0.0, 0.0, 0.0, 0.0, 0.0, 0.0, 0.0, 0.0, 0.0, 1.663588838616556E9, 0.0, 2022-09-19 17:00:38.616
89.0, 18728.66078956852, 17885.10595382523, 11660.301585233401, 85948.85002956988, 187500.0, 187500.0, -7241.987555263943, 22285.918567886183, 0.622, -0.634, 0.48, 192.0, 19.0, 112.0, 236.0, 48.0, 15.0, 0.0, 0.0, 0.0, 0.0, 1.6635888386206152E9, 0.0, 2022-09-19 17:00:38.620
90.0, 18715.27209463979, 17885.463581736516, 11651.137370006725, 85993.28529754703, 187500.0, 187500.0, -7235.505549371905, 22281.962309117593, 0.622, -0.634, 0.48, 192.0, 0.0, 0.0, 0.0, 0.0, 0.0, 0.0, 0.0, 0.0, 0.0, 1.6635888386235704E9, 0.0, 2022-09-19 17:00:38.623
91.0, 18711.248780637834, 17894.20311381854, 11635.513500632465, 86041.96739697068, 187500.0, 187500.0, -7234.678534827058, 22271.27817526796, 0.622, -0.634, 0.48, 192.0, 0.0, 0.0, 0.0, 0.0, 0.0, 0.0, 0.0, 0.0, 0.0, 1.6635888386276295E9, 0.0, 2022-09-19 17:00:38.627
92.0, 18732.170013448, 17914.654959995147, 11631.423131397145, 86097.13150228639, 187500.0, 187500.0, -7228.174177190564, 22274.16155030269, 0.622, -0.634, 0.48, 192.0, 0.0, 0.0, 0.0, 0.0, 0.0, 0.0, 0.0, 0.0, 0.0, 1.663588838631616E9, 0.0, 2022-09-19 17:00:38.631
93.0, 18734.584001849176, 17914.140869872674, 11626.125767961237, 86126.34523228947, 187500.0, 187500.0, -7238.47833138446, 22273.26748052448, 0.622, -0.634, 0.48, 192.0, 0.0, 0.0, 0.0, 0.0, 0.0, 0.0, 0.0, 0.0, 0.0, 1.663588838636773E9, 0.0, 2022-09-19 17:00:38.636
94.0, 18714.579190561675, 17903.16616334512, 11613.385273621712, 86142.12556387491, 187500.0, 187500.0, -7248.067229755787, 22268.21598627758, 0.622, -0.634, 0.48, 192.0, 0.0, 0.0, 0.0, 0.0, 0.0, 0.0, 0.0, 0.0, 0.0, 1.6635888386406674E9, 0.0, 2022-09-19 17:00:38.640
95.0, 18732.393530892557, 17912.73270997199, 11621.700122559087, 86175.38495962441, 187500.0, 187500.0, -7227.928308001556, 22264.147968786714, 0.622, -0.634, 0.48, 192.0, 0.0, 0.0, 0.0, 0.0, 0.0, 0.0, 0.0, 0.0, 0.0, 1.6635888386446695E9, 0.0, 2022-09-19 17:00:38.644
96.0, 18723.74340578835, 17923.64036126618, 11617.743863790496, 86209.62783212995, 187500.0, 187500.0, -7222.519185843371, 22246.15481450019, 0.622, -0.634, 0.48, 192.0, 0.0, 0.0, 0.0, 0.0, 0.0, 0.0, 0.0, 0.0, 0.0, 1.6635888386486485E9, 0.0, 2022-09-19 17:00:38.648
97.0, 18701.79399273324, 17939.823024251822, 11617.29682890139, 86246.48585873675, 187500.0, 187500.0, -7218.518223585871, 22252.055675036394, 0.622, -0.634, 0.48, 192.0, 0.0, 0.0, 0.0, 0.0, 0.0, 0.0, 0.0, 0.0, 0.0, 1.6635888386516476E9, 0.0, 2022-09-19 17:00:38.651
98.0, 18738.540260617767, 17938.59367830678, 11617.118014945749, 86261.2603618217, 187500.0, 187500.0, -7224.4190841220725, 22260.392875718222, 0.622, -0.634, 0.48, 192.0, 0.0, 0.0, 0.0, 0.0, 0.0, 0.0, 0.0, 0.0, 0.0, 1.6635888386556537E9, 0.0, 2022-09-19 17:00:38.655
99.0, 18752.845377069163, 17934.45860558255, 11614.72637828903, 86271.05042589313, 187500.0, 187500.0, -7220.149900931108, 22269.735904900543, 0.632, -0.646, 0.482, 192.0, 19.0, 192.0, 235.0, 208.0, 15.0, 16.0, 0.0, 0.0, 0.0, 1.6635888386596663E9, 0.0, 2022-09-19 17:00:38.659
100.0, 18762.4789789294, 17941.767626019435, 11616.82744226783, 86289.42355983538, 187500.0, 187500.0, -7202.715540255969, 22278.07310558237, 0.632, -0.646, 0.482, 192.0, 0.0, 0.0, 0.0, 0.0, 0.0, 0.0, 0.0, 0.0, 0.0, 1.6635888386636653E9, 0.0, 2022-09-19 17:00:38.663
101.0, 18761.42844694, 17957.525605860425, 11620.336666147312, 86314.81514153662, 187500.0, 187500.0, -7186.957560414978, 22284.711573685596, 0.632, -0.646, 0.482, 192.0, 0.0, 0.0, 0.0, 0.0, 0.0, 0.0, 0.0, 0.0, 0.0, 1.6635888386687176E9, 0.0, 2022-09-19 17:00:38.668
102.0, 18758.835644583185, 17975.518760146948, 11621.588363836809, 86343.06774652812, 187500.0, 187500.0, -7180.542609756304, 22282.230530051056, 0.632, -0.646, 0.482, 192.0, 0.0, 0.0, 0.0, 0.0, 0.0, 0.0, 0.0, 0.0, 0.0, 1.6635888386727161E9, 0.0, 2022-09-19 17:00:38.672
103.0, 18747.391551422068, 17972.098943245288, 11622.527137103933, 86347.60515065255, 187500.0, 187500.0, -7190.690301739014, 22280.97883236156, 0.632, -0.646, 0.482, 192.0, 0.0, 0.0, 0.0, 0.0, 0.0, 0.0, 0.0, 0.0, 0.0, 1.6635888386766636E9, 0.0, 2022-09-19 17:00:38.676
104.0, 18740.66367634102, 17968.83558855481, 11617.185070179114, 86348.56627566412, 187500.0, 187500.0, -7191.941999428511, 22282.31993702888, 0.632, -0.646, 0.482, 192.0, 0.0, 0.0, 0.0, 0.0, 0.0, 0.0, 0.0, 0.0, 0.0, 1.663588838679828E9, 0.0, 2022-09-19 17:00:38.679
105.0, 18746.698647343954, 17979.586777637815, 11615.642799811698, 86362.73728164879, 187500.0, 187500.0, -7180.654368478581, 22277.98369860455, 0.632, -0.646, 0.482, 192.0, 0.0, 0.0, 0.0, 0.0, 0.0, 0.0, 0.0, 0.0, 0.0, 1.6635888386837857E9, 0.0, 2022-09-19 17:00:38.683
106.0, 18734.80751929373, 17997.93755983562, 11613.429977110622, 86384.10554934807, 187500.0, 187500.0, -7171.020766618343, 22262.806864119397, 0.632, -0.646, 0.482, 192.0, 0.0, 0.0, 0.0, 0.0, 0.0, 0.0, 0.0, 0.0, 0.0, 1.6635888386877048E9, 0.0, 2022-09-19 17:00:38.687
107.0, 18750.05140901225, 18021.51865023597, 11611.731244532019, 86409.67594500494, 187500.0, 187500.0, -7167.444487505494, 22258.73884662853, 0.632, -0.646, 0.482, 192.0, 0.0, 0.0, 0.0, 0.0, 0.0, 0.0, 0.0, 0.0, 0.0, 1.6635888386917171E9, 0.0, 2022-09-19 17:00:38.691
108.0, 18758.835644583185, 18024.357321781794, 11605.159831662158, 86413.900424707, 187500.0, 187500.0, -7178.352138799684, 22259.342343728822, 0.632, -0.646, 0.482, 192.0, 0.0, 0.0, 0.0, 0.0, 0.0, 0.0, 0.0, 0.0, 0.0, 1.6635888386966789E9, 0.0, 2022-09-19 17:00:38.696
109.0, 18751.414865424023, 18024.89376364872, 11600.510668815456, 86417.74492475331, 187500.0, 187500.0, -7173.904141653078, 22273.803922391406, 0.64, -0.656, 0.47800000000000004, 192.0, 20.0, 0.0, 235.0, 128.0, 14.0, 240.0, 0.0, 0.0, 0.0, 1.6635888387007675E9, 0.0, 2022-09-19 17:00:38.700
110.0, 18750.252574712347, 18037.99188589953, 11595.369767590735, 86431.24537840432, 187500.0, 187500.0, -7164.337595026207, 22282.74462017353, 0.64, -0.656, 0.47800000000000004, 192.0, 0.0, 0.0, 0.0, 0.0, 0.0, 0.0, 0.0, 0.0, 0.0, 1.6635888387047243E9, 0.0, 2022-09-19 17:00:38.704
111.0, 18764.982374308394, 18061.438865833148, 11598.163735647648, 86453.79828855972, 187500.0, 187500.0, -7148.892539607589, 22283.817503907383, 0.64, -0.656, 0.47800000000000004, 192.0, 0.0, 0.0, 0.0, 0.0, 0.0, 0.0, 0.0, 0.0, 0.0, 1.6635888387077649E9, 0.0, 2022-09-19 17:00:38.707
112.0, 18773.05135405676, 18081.91306375421, 11596.599113535776, 86472.01496029079, 187500.0, 187500.0, -7148.110228551654, 22279.12363757177, 0.64, -0.656, 0.47800000000000004, 192.0, 0.0, 0.0, 0.0, 0.0, 0.0, 0.0, 0.0, 0.0, 0.0, 1.6635888387118292E9, 0.0, 2022-09-19 17:00:38.711
113.0, 18754.18648173648, 18077.71093579661, 11590.519439043932, 86460.41440491848, 187500.0, 187500.0, -7167.332728783218, 22272.12754155726, 0.64, -0.656, 0.47800000000000004, 192.0, 0.0, 0.0, 0.0, 0.0, 0.0, 0.0, 0.0, 0.0, 0.0, 1.6635888387157989E9, 0.0, 2022-09-19 17:00:38.715
114.0, 18727.05146396774, 18074.38052587277, 11592.419337322634, 86446.5563233562, 187500.0, 187500.0, -7167.824467161235, 22271.814617134885, 0.64, -0.656, 0.47800000000000004, 192.0, 0.0, 0.0, 0.0, 0.0, 0.0, 0.0, 0.0, 0.0, 0.0, 1.6635888387197924E9, 0.0, 2022-09-19 17:00:38.719
115.0, 18731.722978558897, 18086.562226600912, 11593.536924545399, 86448.0091867458, 187500.0, 187500.0, -7158.660251934559, 22265.10909379829, 0.64, -0.656, 0.47800000000000004, 192.0, 0.0, 0.0, 0.0, 0.0, 0.0, 0.0, 0.0, 0.0, 0.0, 1.663588838723883E9, 0.0, 2022-09-19 17:00:38.723
116.0, 18761.361391706632, 18112.11027051333, 11599.728357759519, 86465.60000963212, 187500.0, 187500.0, -7139.1918825139865, 22263.16449203068, 0.64, -0.656, 0.47800000000000004, 192.0, 0.0, 0.0, 0.0, 0.0, 0.0, 0.0, 0.0, 0.0, 0.0, 1.6635888387288744E9, 0.0, 2022-09-19 17:00:38.728
117.0, 18772.62667091211, 18139.915840615733, 11608.57964856382, 86485.917745342, 187500.0, 187500.0, -7128.440693430984, 22277.536663715444, 0.64, -0.656, 0.47800000000000004, 192.0, 0.0, 0.0, 0.0, 0.0, 0.0, 0.0, 0.0, 0.0, 0.0, 1.6635888387317667E9, 0.0, 2022-09-19 17:00:38.731
118.0, 18752.308935202236, 18133.43383472369, 11603.550506061376, 86470.04800677873, 187500.0, 187500.0, -7151.485341964405, 22276.508483470498, 0.64, -0.656, 0.47800000000000004, 192.0, 0.0, 0.0, 0.0, 0.0, 0.0, 0.0, 0.0, 0.0, 0.0, 1.663588838735854E9, 0.0, 2022-09-19 17:00:38.735
119.0, 18764.557691163744, 18131.9809713341, 11606.322122373835, 86457.75454732831, 187500.0, 187500.0, -7151.977080342422, 22270.4064572342, 0.636, -0.666, 0.47000000000000003, 192.0, 19.0, 224.0, 235.0, 48.0, 14.0, 176.0, 0.0, 0.0, 0.0, 1.6635888387397861E9, 0.0, 2022-09-19 17:00:38.739
120.0, 18775.599452924664, 18148.968297120133, 11611.217154409547, 86461.08495725214, 187500.0, 187500.0, -7138.387219713595, 22263.388009475235, 0.636, -0.666, 0.47000000000000003, 192.0, 0.0, 0.0, 0.0, 0.0, 0.0, 0.0, 0.0, 0.0, 0.0, 1.6635888387438343E9, 0.0, 2022-09-19 17:00:38.743
121.0, 18772.49256044538, 18171.07417238643, 11612.53590733241, 86468.37162594458, 187500.0, 187500.0, -7126.4513881744615, 22259.565861173378, 0.636, -0.666, 0.47000000000000003, 192.0, 0.0, 0.0, 0.0, 0.0, 0.0, 0.0, 0.0, 0.0, 0.0, 1.6635888387478268E9, 0.0, 2022-09-19 17:00:38.747
122.0, 18767.888101087585, 18189.626120284334, 11607.819689252341, 86474.65246613651, 187500.0, 187500.0, -7125.154986996054, 22261.890442596727, 0.636, -0.666, 0.47000000000000003, 192.0, 0.0, 0.0, 0.0, 0.0, 0.0, 0.0, 0.0, 0.0, 0.0, 1.663588838751851E9, 0.0, 2022-09-19 17:00:38.751
123.0, 18744.821100809706, 18180.08192540192, 11598.834287981306, 86454.31237868218, 187500.0, 187500.0, -7144.153969783065, 22257.73301812804, 0.636, -0.666, 0.47000000000000003, 192.0, 0.0, 0.0, 0.0, 0.0, 0.0, 0.0, 0.0, 0.0, 0.0, 1.6635888387568393E9, 0.0, 2022-09-19 17:00:38.756
124.0, 18738.696722828954, 18177.310309089462, 11593.380462334211, 86440.18607618644, 187500.0, 187500.0, -7141.628222659615, 22255.40843670469, 0.636, -0.666, 0.47000000000000003, 192.0, 0.0, 0.0, 0.0, 0.0, 0.0, 0.0, 0.0, 0.0, 0.0, 1.6635888387598252E9, 0.0, 2022-09-19 17:00:38.759
125.0, 18742.407112408535, 18188.68734701721, 11592.396985578178, 86441.14720119801, 187500.0, 187500.0, -7131.815806843735, 22255.989582060527, 0.636, -0.666, 0.47000000000000003, 192.0, 0.0, 0.0, 0.0, 0.0, 0.0, 0.0, 0.0, 0.0, 0.0, 1.663588838763786E9, 0.0, 2022-09-19 17:00:38.763
126.0, 18745.491653143366, 18212.693120562213, 11585.847924452773, 86452.47953563686, 187500.0, 187500.0, -7122.495129405872, 22263.522119941965, 0.636, -0.666, 0.47000000000000003, 192.0, 0.0, 0.0, 0.0, 0.0, 0.0, 0.0, 0.0, 0.0, 0.0, 1.6635888387678957E9, 0.0, 2022-09-19 17:00:38.767
127.0, 18744.15054847605, 18235.335437695438, 11593.20164837857, 86460.99555027433, 187500.0, 187500.0, -7122.539832894783, 22281.336460272847, 0.636, -0.666, 0.47000000000000003, 192.0, 0.0, 0.0, 0.0, 0.0, 0.0, 0.0, 0.0, 0.0, 0.0, 1.663588838771874E9, 0.0, 2022-09-19 17:00:38.771
128.0, 18740.395455407557, 18229.36752192587, 11603.997540950482, 86442.77887854325, 187500.0, 187500.0, -7135.995583056878, 22280.576500961364, 0.636, -0.666, 0.47000000000000003, 192.0, 0.0, 0.0, 0.0, 0.0, 0.0, 0.0, 0.0, 0.0, 0.0, 1.6635888387758641E9, 0.0, 2022-09-19 17:00:38.775
129.0, 18734.919278016005, 18224.919524779263, 11613.139404432703, 86426.46210509088, 187500.0, 187500.0, -7129.044190531277, 22283.079896340358, 0.634, -0.658, 0.468, 192.0, 19.0, 208.0, 235.0, 112.0, 14.0, 160.0, 0.0, 0.0, 0.0, 1.6635888387798388E9, 0.0, 2022-09-19 17:00:38.779
130.0, 18735.03103673828, 18236.967115040676, 11611.239506154003, 86423.80224750069, 187500.0, 187500.0, -7115.208460713442, 22282.923434129174, 0.634, -0.658, 0.468, 192.0, 0.0, 0.0, 0.0, 0.0, 0.0, 0.0, 0.0, 0.0, 0.0, 1.66358883878491E9, 0.0, 2022-09-19 17:00:38.784
131.0, 18735.992161749862, 18259.43061821826, 11608.356131119268, 86432.34061388262, 187500.0, 187500.0, -7100.5680680952155, 22277.89429162673, 0.634, -0.658, 0.468, 192.0, 0.0, 0.0, 0.0, 0.0, 0.0, 0.0, 0.0, 0.0, 0.0, 1.6635888387878764E9, 0.0, 2022-09-19 17:00:38.787
132.0, 18736.170975705503, 18278.876635894376, 11605.718625273541, 86438.42028837446, 187500.0, 187500.0, -7104.256105930342, 22268.908890355695, 0.634, -0.658, 0.468, 192.0, 0.0, 0.0, 0.0, 0.0, 0.0, 0.0, 0.0, 0.0, 0.0, 1.6635888387918737E9, 0.0, 2022-09-19 17:00:38.791
133.0, 18765.04942954176, 18278.72017368319, 11611.708892787563, 86424.56220681217, 187500.0, 187500.0, -7119.276478204308, 22271.814617134885, 0.634, -0.658, 0.468, 192.0, 0.0, 0.0, 0.0, 0.0, 0.0, 0.0, 0.0, 0.0, 0.0, 1.6635888387959585E9, 0.0, 2022-09-19 17:00:38.795
134.0, 18763.775380107807, 18276.686164937757, 11614.927543989128, 86408.98304092682, 187500.0, 187500.0, -7116.817786314224, 22280.241224794536, 0.634, -0.658, 0.468, 192.0, 0.0, 0.0, 0.0, 0.0, 0.0, 0.0, 0.0, 0.0, 0.0, 1.6635888387998526E9, 0.0, 2022-09-19 17:00:38.799
135.0, 18739.769606562808, 18289.560769744014, 11608.132613674714, 86407.28430834821, 187500.0, 187500.0, -7113.867356046124, 22279.056582338406, 0.634, -0.658, 0.468, 192.0, 0.0, 0.0, 0.0, 0.0, 0.0, 0.0, 0.0, 0.0, 0.0, 1.6635888388038735E9, 0.0, 2022-09-19 17:00:38.803
136.0, 18751.839548568674, 18313.745357244654, 11611.798299765385, 86416.33676485262, 187500.0, 187500.0, -7101.685655317981, 22277.871939882272, 0.634, -0.658, 0.468, 192.0, 0.0, 0.0, 0.0, 0.0, 0.0, 0.0, 0.0, 0.0, 0.0, 1.6635888388079555E9, 0.0, 2022-09-19 17:00:38.807
137.0, 18759.506196916842, 18328.6763225408, 11611.68654104311, 86414.59332878511, 187500.0, 187500.0, -7105.59721059766, 22272.194596790625, 0.634, -0.658, 0.468, 192.0, 0.0, 0.0, 0.0, 0.0, 0.0, 0.0, 0.0, 0.0, 0.0, 1.6635888388130224E9, 0.0, 2022-09-19 17:00:38.813
138.0, 18778.2816622593, 18318.528630558092, 11616.380407378723, 86386.83246217162, 187500.0, 187500.0, -7117.3542281811515, 22276.016745092482, 0.634, -0.658, 0.468, 192.0, 0.0, 0.0, 0.0, 0.0, 0.0, 0.0, 0.0, 0.0, 0.0, 1.6635888388159819E9, 0.0, 2022-09-19 17:00:38.815
139.0, 18789.05520308676, 18317.478098568692, 11625.611677838764, 86364.65953167195, 187500.0, 187500.0, -7106.6700943315145, 22291.774724933475, 0.63, -0.656, 0.462, 192.0, 19.0, 176.0, 235.0, 128.0, 14.0, 112.0, 0.0, 0.0, 0.0, 1.6635888388199327E9, 0.0, 2022-09-19 17:00:38.819
140.0, 18770.19033076648, 18322.261371882127, 11620.157852191669, 86352.634293155, 187500.0, 187500.0, -7102.132690207088, 22281.73879167304, 0.63, -0.656, 0.462, 192.0, 0.0, 0.0, 0.0, 0.0, 0.0, 0.0, 0.0, 0.0, 0.0, 1.6635888388239896E9, 0.0, 2022-09-19 17:00:38.823
141.0, 18738.875536784595, 18342.355590147446, 11614.704026544576, 86357.86460135753, 187500.0, 187500.0, -7097.707044804936, 22271.2558235235, 0.63, -0.656, 0.462, 192.0, 0.0, 0.0, 0.0, 0.0, 0.0, 0.0, 0.0, 0.0, 0.0, 1.6635888388279707E9, 0.0, 2022-09-19 17:00:38.827
142.0, 18720.055367953228, 18359.700543844767, 11610.546602075889, 86358.49045020228, 187500.0, 187500.0, -7103.585553596682, 22269.914718856184, 0.63, -0.656, 0.462, 192.0, 0.0, 0.0, 0.0, 0.0, 0.0, 0.0, 0.0, 0.0, 0.0, 1.6635888388319335E9, 0.0, 2022-09-19 17:00:38.831
143.0, 18764.021249296817, 18355.67722984281, 11618.839099268807, 86332.40596442294, 187500.0, 187500.0, -7103.943181507967, 22275.435599736644, 0.63, -0.656, 0.462, 192.0, 0.0, 0.0, 0.0, 0.0, 0.0, 0.0, 0.0, 0.0, 0.0, 1.6635888388359725E9, 0.0, 2022-09-19 17:00:38.835
144.0, 18789.926921120517, 18356.72776183221, 11626.796320294896, 86314.23399618077, 187500.0, 187500.0, -7088.833402256179, 22275.54735845892, 0.63, -0.656, 0.462, 192.0, 0.0, 0.0, 0.0, 0.0, 0.0, 0.0, 0.0, 0.0, 0.0, 1.663588838841018E9, 0.0, 2022-09-19 17:00:38.841
145.0, 18760.892005073074, 18367.12132300393, 11619.599058580287, 86308.71311530031, 187500.0, 187500.0, -7082.463155086417, 22274.49682646952, 0.63, -0.656, 0.462, 192.0, 0.0, 0.0, 0.0, 0.0, 0.0, 0.0, 0.0, 0.0, 0.0, 1.6635888388440058E9, 0.0, 2022-09-19 17:00:38.844
146.0, 18712.522830071786, 18384.108648789963, 11620.91781150315, 86312.31174615762, 187500.0, 187500.0, -7077.076384672688, 22278.676602682663, 0.63, -0.656, 0.462, 192.0, 0.0, 0.0, 0.0, 0.0, 0.0, 0.0, 0.0, 0.0, 0.0, 1.663588838846928E9, 0.0, 2022-09-19 17:00:38.846
147.0, 18715.652074295533, 18397.452640229778, 11623.890593515705, 86312.55761534662, 187500.0, 187500.0, -7086.017082454811, 22280.621204450275, 0.63, -0.656, 0.462, 192.0, 0.0, 0.0, 0.0, 0.0, 0.0, 0.0, 0.0, 0.0, 0.0, 1.6635888388511772E9, 0.0, 2022-09-19 17:00:38.851
148.0, 18743.10001648665, 18390.054212815074, 11628.338590662312, 86289.20004239083, 187500.0, 187500.0, -7092.566143580216, 22286.052678352917, 0.63, -0.656, 0.462, 192.0, 0.0, 0.0, 0.0, 0.0, 0.0, 0.0, 0.0, 0.0, 0.0, 1.6635888388560104E9, 0.0, 2022-09-19 17:00:38.856
149.0, 18759.10386551665, 18390.188323281804, 11621.923640003639, 86273.75498697221, 187500.0, 187500.0, -7088.632236556082, 22279.391858505234, 0.632, -0.658, 0.462, 192.0, 19.0, 192.0, 235.0, 112.0, 14.0, 112.0, 0.0, 0.0, 0.0, 1.6635888388599615E9, 0.0, 2022-09-19 17:00:38.859
150.0, 18756.019324781817, 18403.331149021524, 11617.408587623668, 86270.64809449294, 187500.0, 187500.0, -7084.743033020858, 22270.31705025638, 0.632, -0.658, 0.462, 192.0, 0.0, 0.0, 0.0, 0.0, 0.0, 0.0, 0.0, 0.0, 0.0, 1.663588838863978E9, 0.0, 2022-09-19 17:00:38.863
151.0, 18783.064935572736, 18431.717864479764, 11621.945991748094, 86284.10384465502, 187500.0, 187500.0, -7069.230922368875, 22271.367582245777, 0.632, -0.658, 0.462, 192.0, 0.0, 0.0, 0.0, 0.0, 0.0, 0.0, 0.0, 0.0, 0.0, 1.663588838868054E9, 0.0, 2022-09-19 17:00:38.868
152.0, 18786.216531540937, 18448.638135032434, 11626.885727272716, 86285.22143187778, 187500.0, 187500.0, -7070.683785758471, 22274.6085851918, 0.632, -0.658, 0.462, 192.0, 0.0, 0.0, 0.0, 0.0, 0.0, 0.0, 0.0, 0.0, 0.0, 1.6635888388710248E9, 0.0, 2022-09-19 17:00:38.871
153.0, 18765.585871408686, 18444.525414052656, 11631.803111052885, 86265.75306245721, 187500.0, 187500.0, -7085.5923993101605, 22286.611471964297, 0.632, -0.658, 0.462, 192.0, 0.0, 0.0, 0.0, 0.0, 0.0, 0.0, 0.0, 0.0, 0.0, 1.6635888388750665E9, 0.0, 2022-09-19 17:00:38.875
154.0, 18767.306955731747, 18446.671181520367, 11639.268593700957, 86251.87262915047, 187500.0, 187500.0, -7080.384442852073, 22291.37239353328, 0.632, -0.658, 0.462, 192.0, 0.0, 0.0, 0.0, 0.0, 0.0, 0.0, 0.0, 0.0, 0.0, 1.6635888388801548E9, 0.0, 2022-09-19 17:00:38.880
155.0, 18774.437162212987, 18463.14441718393, 11644.320087947857, 86252.38671927294, 187500.0, 187500.0, -7064.738221733359, 22293.160533089704, 0.632, -0.658, 0.462, 192.0, 0.0, 0.0, 0.0, 0.0, 0.0, 0.0, 0.0, 0.0, 0.0, 1.6635888388841286E9, 0.0, 2022-09-19 17:00:38.884
156.0, 18774.70538314645, 18492.13462974246, 11647.963422294071, 86262.9590944003, 187500.0, 187500.0, -7056.646890240538, 22296.73681220255, 0.632, -0.658, 0.462, 192.0, 0.0, 0.0, 0.0, 0.0, 0.0, 0.0, 0.0, 0.0, 0.0, 1.6635888388881085E9, 0.0, 2022-09-19 17:00:38.888
157.0, 18753.09124625817, 18513.23467650827, 11648.16458799417, 86265.7083589683, 187500.0, 187500.0, -7069.722660746892, 22293.182884834157, 0.632, -0.658, 0.462, 192.0, 0.0, 0.0, 0.0, 0.0, 0.0, 0.0, 0.0, 0.0, 0.0, 1.6635888388920891E9, 0.0, 2022-09-19 17:00:38.892
158.0, 18707.94072245845, 18500.494182168746, 11646.73407634903, 86241.99315810122, 187500.0, 187500.0, -7087.849925500146, 22283.862207396294, 0.632, -0.658, 0.462, 192.0, 0.0, 0.0, 0.0, 0.0, 0.0, 0.0, 0.0, 0.0, 0.0, 1.6635888388951576E9, 0.0, 2022-09-19 17:00:38.895
159.0, 18726.42561512299, 18501.924693813886, 11654.065448530371, 86224.71525963728, 187500.0, 187500.0, -7082.239637641864, 22278.4083817492, 0.64, -0.658, 0.464, 192.0, 20.0, 0.0, 235.0, 112.0, 14.0, 128.0, 0.0, 0.0, 0.0, 1.6635888388990839E9, 0.0, 2022-09-19 17:00:38.899
160.0, 18761.897833573563, 18520.29782775615, 11657.172341009658, 86224.11176253698, 187500.0, 187500.0, -7066.101678145133, 22278.63189919375, 0.64, -0.658, 0.464, 192.0, 0.0, 0.0, 0.0, 0.0, 0.0, 0.0, 0.0, 0.0, 0.0, 1.6635888389031107E9, 0.0, 2022-09-19 17:00:38.903
161.0, 18804.612017227653, 18549.399799036957, 11661.553282922898, 86240.47323947826, 187500.0, 187500.0, -7052.78003844977, 22276.709649170596, 0.64, -0.658, 0.464, 192.0, 0.0, 0.0, 0.0, 0.0, 0.0, 0.0, 0.0, 0.0, 0.0, 1.6635888389082203E9, 0.0, 2022-09-19 17:00:38.908
162.0, 18811.071671375237, 18565.560110278144, 11667.387088225734, 86242.64135869042, 187500.0, 187500.0, -7059.820837953191, 22280.64355619473, 0.64, -0.658, 0.464, 192.0, 0.0, 0.0, 0.0, 0.0, 0.0, 0.0, 0.0, 0.0, 0.0, 1.6635888389120812E9, 0.0, 2022-09-19 17:00:38.912
163.0, 18797.10183109067, 18559.189863108382, 11668.683489404142, 86218.47912293424, 187500.0, 187500.0, -7071.555503792228, 22278.90012012722, 0.64, -0.658, 0.464, 192.0, 0.0, 0.0, 0.0, 0.0, 0.0, 0.0, 0.0, 0.0, 0.0, 1.6635888389161432E9, 0.0, 2022-09-19 17:00:38.916
164.0, 18779.24278727088, 18558.96634566383, 11663.408477712688, 86201.51414889266, 187500.0, 187500.0, -7068.068631657199, 22273.714515413587, 0.64, -0.658, 0.464, 192.0, 0.0, 0.0, 0.0, 0.0, 0.0, 0.0, 0.0, 0.0, 0.0, 1.6635888389201624E9, 0.0, 2022-09-19 17:00:38.920
165.0, 18753.09124625817, 18577.719459261833, 11663.11790503477, 86205.60451812799, 187500.0, 187500.0, -7058.815009452702, 22275.54735845892, 0.64, -0.658, 0.464, 192.0, 0.0, 0.0, 0.0, 0.0, 0.0, 0.0, 0.0, 0.0, 0.0, 1.6635888389232297E9, 0.0, 2022-09-19 17:00:38.923
166.0, 18746.18455722148, 18607.268465431745, 11662.4026492122, 86220.49077993522, 187500.0, 187500.0, -7049.047297125733, 22280.75531491701, 0.64, -0.658, 0.464, 192.0, 0.0, 0.0, 0.0, 0.0, 0.0, 0.0, 0.0, 0.0, 0.0, 1.663588838927143E9, 0.0, 2022-09-19 17:00:38.927
167.0, 18771.218511011426, 18624.88164006253, 11672.393878983723, 86221.60836715798, 187500.0, 187500.0, -7046.521550002283, 22292.199408078126, 0.64, -0.658, 0.464, 192.0, 0.0, 0.0, 0.0, 0.0, 0.0, 0.0, 0.0, 0.0, 0.0, 1.6635888389311228E9, 0.0, 2022-09-19 17:00:38.931
168.0, 18800.543999736787, 18620.076015004637, 11675.277254018458, 86201.6929628483, 187500.0, 187500.0, -7054.031736139266, 22292.758201689507, 0.64, -0.658, 0.464, 192.0, 0.0, 0.0, 0.0, 0.0, 0.0, 0.0, 0.0, 0.0, 0.0, 1.6635888389351695E9, 0.0, 2022-09-19 17:00:38.935
169.0, 18812.77040395384, 18625.954523796383, 11678.87588487576, 86191.70173307678, 187500.0, 187500.0, -7044.711058701403, 22293.65227146772, 0.64, -0.658, 0.464, 192.0, 0.0, 0.0, 0.0, 0.0, 0.0, 0.0, 0.0, 0.0, 0.0, 1.6635888389410968E9, 0.0, 2022-09-19 17:00:38.941
170.0, 18801.10279334817, 18643.098311793605, 11669.152876037702, 86193.15459646638, 187500.0, 187500.0, -7037.245576053331, 22287.438486509145, 0.638, -0.658, 0.462, 192.0, 19.0, 240.0, 235.0, 112.0, 14.0, 112.0, 0.0, 0.0, 0.0, 1.663588838944186E9, 0.0, 2022-09-19 17:00:38.944
171.0, 18782.729659405908, 18669.473370250867, 11665.241320758025, 86202.78819832661, 187500.0, 187500.0, -7034.071628340677, 22279.12363757177, 0.638, -0.658, 0.462, 192.0, 0.0, 0.0, 0.0, 0.0, 0.0, 0.0, 0.0, 0.0, 0.0, 1.6635888389481816E9, 0.0, 2022-09-19 17:00:38.948
172.0, 18765.988202808883, 18682.616195990588, 11659.54162592192, 86198.094331991, 187500.0, 187500.0, -7047.817951180691, 22274.206253791603, 0.638, -0.658, 0.462, 192.0, 0.0, 0.0, 0.0, 0.0, 0.0, 0.0, 0.0, 0.0, 0.0, 1.66358883895115E9, 0.0, 2022-09-19 17:00:38.951
173.0, 18753.828853825195, 18675.865969165083, 11655.741829364519, 86175.85434625797, 187500.0, 187500.0, -7057.630366996571, 22272.798093890917, 0.638, -0.658, 0.462, 192.0, 0.0, 0.0, 0.0, 0.0, 0.0, 0.0, 0.0, 0.0, 0.0, 1.6635888389551826E9, 0.0, 2022-09-19 17:00:38.955
174.0, 18775.5323976913, 18684.717259969388, 11658.759314865985, 86167.15951766486, 187500.0, 187500.0, -7046.409791280007, 22281.627032950764, 0.638, -0.658, 0.462, 192.0, 0.0, 0.0, 0.0, 0.0, 0.0, 0.0, 0.0, 0.0, 0.0, 1.6635888389591784E9, 0.0, 2022-09-19 17:00:38.959
175.0, 18791.80446765476, 18703.760946245307, 11653.283137474435, 86171.339293878, 187500.0, 187500.0, -7035.748009174826, 22286.45500975311, 0.638, -0.658, 0.462, 192.0, 0.0, 0.0, 0.0, 0.0, 0.0, 0.0, 0.0, 0.0, 0.0, 1.6635888389632328E9, 0.0, 2022-09-19 17:00:38.963
176.0, 18799.80639216976, 18734.18167044898, 11657.954652065595, 86186.09144521851, 187500.0, 187500.0, -7022.3816659905515, 22295.619224979786, 0.638, -0.658, 0.462, 192.0, 0.0, 0.0, 0.0, 0.0, 0.0, 0.0, 0.0, 0.0, 0.0, 1.6635888389682913E9, 0.0, 2022-09-19 17:00:38.968
177.0, 18787.3341187637, 18741.513042630322, 11651.383239195733, 86179.25181141518, 187500.0, 187500.0, -7034.004573107311, 22286.209140564104, 0.638, -0.658, 0.462, 192.0, 0.0, 0.0, 0.0, 0.0, 0.0, 0.0, 0.0, 0.0, 0.0, 1.6635888389722402E9, 0.0, 2022-09-19 17:00:38.972
178.0, 18780.494484960378, 18733.019379737303, 11646.532910648932, 86153.86022971394, 187500.0, 187500.0, -7042.006497622311, 22283.12459982927, 0.638, -0.658, 0.462, 192.0, 0.0, 0.0, 0.0, 0.0, 0.0, 0.0, 0.0, 0.0, 0.0, 1.6635888389762485E9, 0.0, 2022-09-19 17:00:38.976
179.0, 18774.90654884655, 18734.740464060364, 11641.637878613219, 86138.16930510632, 187500.0, 187500.0, -7042.073552855677, 22276.35202125931, 0.638, -0.658, 0.462, 192.0, 0.0, 0.0, 0.0, 0.0, 0.0, 0.0, 0.0, 0.0, 0.0, 1.6635888389792728E9, 0.0, 2022-09-19 17:00:38.979
180.0, 18762.791903351772, 18751.03488576828, 11638.508634389476, 86137.31993881702, 187500.0, 187500.0, -7039.480750498861, 22272.149893301714, 0.638, -0.652, 0.468, 192.0, 19.0, 240.0, 235.0, 160.0, 14.0, 160.0, 0.0, 0.0, 0.0, 1.663588838983224E9, 0.0, 2022-09-19 17:00:38.983
181.0, 18758.187443993982, 18777.99108958138, 11637.703971589086, 86147.333520333, 187500.0, 187500.0, -7036.575023719672, 22271.009954334495, 0.638, -0.652, 0.468, 192.0, 0.0, 0.0, 0.0, 0.0, 0.0, 0.0, 0.0, 0.0, 0.0, 1.6635888389872065E9, 0.0, 2022-09-19 17:00:38.987
182.0, 18765.71998187542, 18791.849171143673, 11643.649535614197, 86144.9865871652, 187500.0, 187500.0, -7039.994840621333, 22280.800018405916, 0.638, -0.652, 0.468, 192.0, 0.0, 0.0, 0.0, 0.0, 0.0, 0.0, 0.0, 0.0, 0.0, 1.6635888389912188E9, 0.0, 2022-09-19 17:00:38.991
183.0, 18753.80650208074, 18784.227226284413, 11637.97219252255, 86119.01386010813, 187500.0, 187500.0, -7045.962756390901, 22280.487093983545, 0.638, -0.652, 0.468, 192.0, 0.0, 0.0, 0.0, 0.0, 0.0, 0.0, 0.0, 0.0, 0.0, 1.6635888389962192E9, 0.0, 2022-09-19 17:00:38.996
184.0, 18748.732656089385, 18787.512932719343, 11642.107265246781, 86103.79232213406, 187500.0, 187500.0, -7043.638174967548, 22273.73686715804, 0.638, -0.652, 0.468, 192.0, 0.0, 0.0, 0.0, 0.0, 0.0, 0.0, 0.0, 0.0, 0.0, 1.6635888390002956E9, 0.0, 2022-09-19 17:00:39.000
185.0, 18756.064028270725, 18808.411813785056, 11644.051867014394, 86107.2791942691, 187500.0, 187500.0, -7033.334020773652, 22267.388971732733, 0.638, -0.652, 0.468, 192.0, 0.0, 0.0, 0.0, 0.0, 0.0, 0.0, 0.0, 0.0, 0.0, 1.6635888390032244E9, 0.0, 2022-09-19 17:00:39.003
186.0, 18763.082476029693, 18835.993866442903, 11641.30260244639, 86116.64457519587, 187500.0, 187500.0, -7028.0590090822, 22269.490035711533, 0.638, -0.652, 0.468, 192.0, 0.0, 0.0, 0.0, 0.0, 0.0, 0.0, 0.0, 0.0, 0.0, 1.6635888390072927E9, 0.0, 2022-09-19 17:00:39.007
187.0, 18770.14562727757, 18842.72174152395, 11634.30650643188, 86104.93226110128, 187500.0, 187500.0, -7040.933613888456, 22276.508483470498, 0.638, -0.652, 0.468, 192.0, 0.0, 0.0, 0.0, 0.0, 0.0, 0.0, 0.0, 0.0, 0.0, 1.663588839011284E9, 0.0, 2022-09-19 17:00:39.011
188.0, 18783.310804761746, 18834.25043037539, 11632.697180831097, 86078.55720264402, 187500.0, 187500.0, -7045.336907546152, 22278.810713149396, 0.638, -0.652, 0.468, 192.0, 0.0, 0.0, 0.0, 0.0, 0.0, 0.0, 0.0, 0.0, 0.0, 1.663588839015293E9, 0.0, 2022-09-19 17:00:39.015
189.0, 18802.600360226676, 18839.525442066843, 11630.618468596753, 86063.40271990332, 187500.0, 187500.0, -7036.016230108289, 22268.752428144508, 0.638, -0.652, 0.468, 192.0, 0.0, 0.0, 0.0, 0.0, 0.0, 0.0, 0.0, 0.0, 0.0, 1.663588839019271E9, 0.0, 2022-09-19 17:00:39.019
190.0, 18809.372938796634, 18859.932584754537, 11641.280250701935, 86065.10145248193, 187500.0, 187500.0, -7017.15135778801, 22276.486131726044, 0.634, -0.65, 0.468, 192.0, 19.0, 208.0, 235.0, 176.0, 14.0, 160.0, 0.0, 0.0, 0.0, 1.6635888390233064E9, 0.0, 2022-09-19 17:00:39.023
191.0, 18788.205836797457, 18883.983061788447, 11641.30260244639, 86069.95178102872, 187500.0, 187500.0, -7012.39043621903, 22278.050753837917, 0.634, -0.65, 0.468, 192.0, 0.0, 0.0, 0.0, 0.0, 0.0, 0.0, 0.0, 0.0, 0.0, 1.6635888390292506E9, 0.0, 2022-09-19 17:00:39.029
192.0, 18757.248670726858, 18888.006375790403, 11633.457140142578, 86053.43384187625, 187500.0, 187500.0, -7036.083285341655, 22274.943861358628, 0.634, -0.65, 0.468, 192.0, 0.0, 0.0, 0.0, 0.0, 0.0, 0.0, 0.0, 0.0, 0.0, 1.6635888390322967E9, 0.0, 2022-09-19 17:00:39.032
193.0, 18732.75115880384, 18874.59532911722, 11619.554355091377, 86020.33090833794, 187500.0, 187500.0, -7052.958852405412, 22262.091608296825, 0.634, -0.65, 0.468, 192.0, 0.0, 0.0, 0.0, 0.0, 0.0, 0.0, 0.0, 0.0, 0.0, 1.6635888390363476E9, 0.0, 2022-09-19 17:00:39.036
194.0, 18761.786074851283, 18882.507846654396, 11621.990695237006, 86006.6516407313, 187500.0, 187500.0, -7039.860730154602, 22262.851567608308, 0.634, -0.65, 0.468, 192.0, 0.0, 0.0, 0.0, 0.0, 0.0, 0.0, 0.0, 0.0, 0.0, 1.6635888390393572E9, 0.0, 2022-09-19 17:00:39.039
195.0, 18807.160116095558, 18902.870285853183, 11633.390084909212, 86006.80810294248, 187500.0, 187500.0, -7019.654753167004, 22268.573614188866, 0.634, -0.65, 0.468, 192.0, 0.0, 0.0, 0.0, 0.0, 0.0, 0.0, 0.0, 0.0, 0.0, 1.6635888390433536E9, 0.0, 2022-09-19 17:00:39.043
196.0, 18780.136857049092, 18922.56217271831, 11635.871128543751, 86008.46213203217, 187500.0, 187500.0, -7013.329209486153, 22266.98664033254, 0.634, -0.65, 0.468, 192.0, 0.0, 0.0, 0.0, 0.0, 0.0, 0.0, 0.0, 0.0, 0.0, 1.6635888390473473E9, 0.0, 2022-09-19 17:00:39.047
197.0, 18766.4799411869, 18921.154012817624, 11630.238488941013, 85990.15605332328, 187500.0, 187500.0, -7028.930727115957, 22263.767989130974, 0.634, -0.65, 0.468, 192.0, 0.0, 0.0, 0.0, 0.0, 0.0, 0.0, 0.0, 0.0, 0.0, 1.6635888390513513E9, 0.0, 2022-09-19 17:00:39.051
198.0, 18762.501330673855, 18915.29785577033, 11631.601945352788, 85964.92093383324, 187500.0, 187500.0, -7035.904471386012, 22270.898195612215, 0.634, -0.65, 0.468, 192.0, 0.0, 0.0, 0.0, 0.0, 0.0, 0.0, 0.0, 0.0, 0.0, 1.6635888390564735E9, 0.0, 2022-09-19 17:00:39.056
199.0, 18775.934729091496, 18925.17732681958, 11639.000372767494, 85953.49919241658, 187500.0, 187500.0, -7022.292259012731, 22280.285928283447, 0.634, -0.65, 0.468, 192.0, 0.0, 0.0, 0.0, 0.0, 0.0, 0.0, 0.0, 0.0, 0.0, 1.6635888390593662E9, 0.0, 2022-09-19 17:00:39.059
200.0, 18796.788906668295, 18949.496024786953, 11645.951765293094, 85956.49432617359, 187500.0, 187500.0, -7006.444872193918, 22284.97979461906, 0.63, -0.648, 0.47200000000000003, 192.0, 19.0, 176.0, 235.0, 192.0, 14.0, 192.0, 0.0, 0.0, 0.0, 1.6635888390633793E9, 0.0, 2022-09-19 17:00:39.063
201.0, 18793.05616534426, 18973.300632631854, 11643.515425147465, 85964.67506464424, 187500.0, 187500.0, -7003.941476814924, 22276.55318695941, 0.63, -0.648, 0.47200000000000003, 192.0, 0.0, 0.0, 0.0, 0.0, 0.0, 0.0, 0.0, 0.0, 0.0, 1.6635888390673473E9, 0.0, 2022-09-19 17:00:39.067
202.0, 18774.99595582437, 18971.579548308797, 11637.569861122354, 85946.52544814652, 187500.0, 187500.0, -7024.348619502619, 22268.439503722133, 0.63, -0.648, 0.47200000000000003, 192.0, 0.0, 0.0, 0.0, 0.0, 0.0, 0.0, 0.0, 0.0, 0.0, 1.6635888390713732E9, 0.0, 2022-09-19 17:00:39.071
203.0, 18772.604319167654, 18966.930385462092, 11636.608736110777, 85922.09499145688, 187500.0, 187500.0, -7030.450645738918, 22270.048829322914, 0.63, -0.648, 0.47200000000000003, 192.0, 0.0, 0.0, 0.0, 0.0, 0.0, 0.0, 0.0, 0.0, 0.0, 1.6635888390754158E9, 0.0, 2022-09-19 17:00:39.075
204.0, 18784.696612917975, 18975.80402801085, 11637.882785544729, 85912.99783146357, 187500.0, 187500.0, -7018.470110710873, 22272.3063555129, 0.63, -0.648, 0.47200000000000003, 192.0, 0.0, 0.0, 0.0, 0.0, 0.0, 0.0, 0.0, 0.0, 0.0, 1.663588839079418E9, 0.0, 2022-09-19 17:00:39.079
205.0, 18789.166961809035, 18993.79718229737, 11636.96636402206, 85914.33893613088, 187500.0, 187500.0, -7006.131947771543, 22269.69120141163, 0.63, -0.648, 0.47200000000000003, 192.0, 0.0, 0.0, 0.0, 0.0, 0.0, 0.0, 0.0, 0.0, 0.0, 1.6635888390844898E9, 0.0, 2022-09-19 17:00:39.084
206.0, 18790.172790309523, 19014.450194174075, 11635.91583203266, 85917.93756698818, 187500.0, 187500.0, -7003.762662859281, 22258.06829429487, 0.63, -0.648, 0.47200000000000003, 192.0, 0.0, 0.0, 0.0, 0.0, 0.0, 0.0, 0.0, 0.0, 0.0, 1.6635888390874748E9, 0.0, 2022-09-19 17:00:39.087
207.0, 18775.040659313283, 19018.808784342862, 11639.626221612243, 85903.8783197258, 187500.0, 187500.0, -7018.648924666515, 22253.41913144817, 0.63, -0.648, 0.47200000000000003, 192.0, 0.0, 0.0, 0.0, 0.0, 0.0, 0.0, 0.0, 0.0, 0.0, 1.663588839091411E9, 0.0, 2022-09-19 17:00:39.091
208.0, 18754.544109647766, 19015.344263952287, 11644.208329225581, 85882.75592121553, 187500.0, 187500.0, -7020.3253055006635, 22270.540567700933, 0.63, -0.648, 0.47200000000000003, 192.0, 0.0, 0.0, 0.0, 0.0, 0.0, 0.0, 0.0, 0.0, 0.0, 1.6635888390954416E9, 0.0, 2022-09-19 17:00:39.095
209.0, 18747.23508921088, 19022.407415200167, 11642.084913502325, 85872.18354608817, 187500.0, 187500.0, -7013.619782164072, 22275.480303225555, 0.63, -0.648, 0.47200000000000003, 192.0, 0.0, 0.0, 0.0, 0.0, 0.0, 0.0, 0.0, 0.0, 0.0, 1.6635888390994492E9, 0.0, 2022-09-19 17:00:39.099
210.0, 18777.14172329208, 19040.46762472005, 11640.743808835008, 85872.56352574391, 187500.0, 187500.0, -7005.5284506712505, 22278.07310558237, 0.624, -0.646, 0.47200000000000003, 192.0, 19.0, 128.0, 235.0, 208.0, 14.0, 192.0, 0.0, 0.0, 0.0, 1.66358883910352E9, 0.0, 2022-09-19 17:00:39.103
211.0, 18776.024136069314, 19060.226566818546, 11637.055770999881, 85874.95516240063, 187500.0, 187500.0, -7009.238840250831, 22275.59206194783, 0.624, -0.646, 0.47200000000000003, 192.0, 0.0, 0.0, 0.0, 0.0, 0.0, 0.0, 0.0, 0.0, 0.0, 1.6635888391075077E9, 0.0, 2022-09-19 17:00:39.107
212.0, 18777.81227562574, 19060.338325540823, 11640.050904756894, 85857.07376683639, 187500.0, 187500.0, -7025.712075914393, 22271.367582245777, 0.624, -0.646, 0.47200000000000003, 192.0, 0.0, 0.0, 0.0, 0.0, 0.0, 0.0, 0.0, 0.0, 0.0, 1.663588839112508E9, 0.0, 2022-09-19 17:00:39.112
213.0, 18764.356525463645, 19052.20229055909, 11642.196672224603, 85829.60347290081, 187500.0, 187500.0, -7030.562404461194, 22267.321916499368, 0.624, -0.646, 0.47200000000000003, 192.0, 0.0, 0.0, 0.0, 0.0, 0.0, 0.0, 0.0, 0.0, 0.0, 1.6635888391156297E9, 0.0, 2022-09-19 17:00:39.115
214.0, 18745.782225821284, 19058.974869129048, 11641.30260244639, 85815.81244657189, 187500.0, 187500.0, -7026.829663137158, 22269.065352566882, 0.624, -0.646, 0.47200000000000003, 192.0, 0.0, 0.0, 0.0, 0.0, 0.0, 0.0, 0.0, 0.0, 0.0, 1.6635888391185968E9, 0.0, 2022-09-19 17:00:39.118
215.0, 18760.310859717236, 19083.382974074244, 11649.125713005747, 85821.62390013026, 187500.0, 187500.0, -7010.62464840706, 22270.518215956476, 0.624, -0.646, 0.47200000000000003, 192.0, 0.0, 0.0, 0.0, 0.0, 0.0, 0.0, 0.0, 0.0, 0.0, 1.6635888391235068E9, 0.0, 2022-09-19 17:00:39.123
216.0, 18793.704365933463, 19108.953369731113, 11653.618413641265, 85830.87752233476, 187500.0, 187500.0, -7001.326322713652, 22266.4054949767, 0.624, -0.646, 0.47200000000000003, 192.0, 0.0, 0.0, 0.0, 0.0, 0.0, 0.0, 0.0, 0.0, 0.0, 1.6635888391284852E9, 0.0, 2022-09-19 17:00:39.128
217.0, 18773.029002312305, 19096.4587445806, 11639.514462889965, 85800.38974289772, 187500.0, 187500.0, -7027.522567215272, 22245.998352289003, 0.624, -0.646, 0.47200000000000003, 192.0, 0.0, 0.0, 0.0, 0.0, 0.0, 0.0, 0.0, 0.0, 0.0, 1.6635888391324868E9, 0.0, 2022-09-19 17:00:39.132
218.0, 18761.56255740673, 19089.082668910345, 11630.976096508039, 85772.40535883968, 187500.0, 187500.0, -7029.467168982884, 22243.36084644328, 0.624, -0.646, 0.47200000000000003, 192.0, 0.0, 0.0, 0.0, 0.0, 0.0, 0.0, 0.0, 0.0, 0.0, 1.663588839135504E9, 0.0, 2022-09-19 17:00:39.135
219.0, 18787.71409841944, 19101.73375627205, 11639.626221612243, 85766.07981515882, 187500.0, 187500.0, -7013.418616463973, 22238.15288998519, 0.624, -0.646, 0.47200000000000003, 192.0, 0.0, 0.0, 0.0, 0.0, 0.0, 0.0, 0.0, 0.0, 0.0, 1.6635888391395252E9, 0.0, 2022-09-19 17:00:39.139
220.0, 18803.382671282612, 19125.516012372496, 11656.568843909365, 85770.21488788306, 187500.0, 187500.0, -6992.542087142717, 22247.182994745137, 0.63, -0.654, 0.47400000000000003, 192.0, 19.0, 176.0, 235.0, 144.0, 14.0, 208.0, 0.0, 0.0, 0.0, 1.6635888391436367E9, 0.0, 2022-09-19 17:00:39.143
221.0, 18802.510953248853, 19148.73947486156, 11662.648518401209, 85772.49476581751, 187500.0, 187500.0, -6983.601389360594, 22249.909907568683, 0.63, -0.654, 0.47400000000000003, 192.0, 0.0, 0.0, 0.0, 0.0, 0.0, 0.0, 0.0, 0.0, 0.0, 1.663588839146507E9, 0.0, 2022-09-19 17:00:39.146
222.0, 18788.831685642206, 19145.99021029356, 11659.251053244001, 85749.49482077299, 187500.0, 187500.0, -6996.900677311502, 22246.713608111575, 0.63, -0.654, 0.47400000000000003, 192.0, 0.0, 0.0, 0.0, 0.0, 0.0, 0.0, 0.0, 0.0, 0.0, 1.663588839151667E9, 0.0, 2022-09-19 17:00:39.151
223.0, 18775.77826688031, 19142.302172458432, 11660.189826511125, 85727.85833214025, 187500.0, 187500.0, -6998.822927334658, 22250.803977346895, 0.63, -0.654, 0.47400000000000003, 192.0, 0.0, 0.0, 0.0, 0.0, 0.0, 0.0, 0.0, 0.0, 0.0, 1.6635888391555269E9, 0.0, 2022-09-19 17:00:39.155
224.0, 18768.223377254413, 19149.320620217397, 11655.719477620063, 85720.14698030317, 187500.0, 187500.0, -6993.726729598848, 22252.36859945877, 0.63, -0.654, 0.47400000000000003, 192.0, 0.0, 0.0, 0.0, 0.0, 0.0, 0.0, 0.0, 0.0, 0.0, 1.6635888391595144E9, 0.0, 2022-09-19 17:00:39.159
225.0, 18779.86863611563, 19172.45467572864, 11661.754448622996, 85726.47252398402, 187500.0, 187500.0, -6984.830735305636, 22261.756332129997, 0.63, -0.654, 0.47400000000000003, 192.0, 0.0, 0.0, 0.0, 0.0, 0.0, 0.0, 0.0, 0.0, 0.0, 1.6635888391635091E9, 0.0, 2022-09-19 17:00:39.163
226.0, 18789.90456937606, 19198.002719641056, 11663.319070734868, 85735.07794559932, 187500.0, 187500.0, -6980.159220714477, 22270.942899101126, 0.63, -0.654, 0.47400000000000003, 192.0, 0.0, 0.0, 0.0, 0.0, 0.0, 0.0, 0.0, 0.0, 0.0, 1.6635888391665068E9, 0.0, 2022-09-19 17:00:39.166
227.0, 18783.422563484022, 19197.823905685415, 11661.977966067549, 85718.11297155774, 187500.0, 187500.0, -6991.513906897772, 22271.233471779047, 0.63, -0.654, 0.47400000000000003, 192.0, 0.0, 0.0, 0.0, 0.0, 0.0, 0.0, 0.0, 0.0, 0.0, 1.6635888391705203E9, 0.0, 2022-09-19 17:00:39.170
228.0, 18755.706400359442, 19187.385641024786, 11646.667021115663, 85691.35793344474, 187500.0, 187500.0, -7007.4730524388615, 22263.365657730777, 0.63, -0.654, 0.47400000000000003, 192.0, 0.0, 0.0, 0.0, 0.0, 0.0, 0.0, 0.0, 0.0, 0.0, 1.6635888391746402E9, 0.0, 2022-09-19 17:00:39.174
229.0, 18767.66458364303, 19195.432269028697, 11648.298698460902, 85682.976029274, 187500.0, 187500.0, -7001.639247136027, 22265.89140485423, 0.63, -0.654, 0.47400000000000003, 192.0, 0.0, 0.0, 0.0, 0.0, 0.0, 0.0, 0.0, 0.0, 0.0, 1.6635888391795213E9, 0.0, 2022-09-19 17:00:39.179
230.0, 18797.258293301857, 19221.896734463782, 11655.272442730957, 85692.92255555661, 187500.0, 187500.0, -6984.38370041653, 22279.391858505234, 0.632, -0.644, 0.47600000000000003, 192.0, 19.0, 192.0, 235.0, 224.0, 14.0, 224.0, 0.0, 0.0, 0.0, 1.663588839183525E9, 0.0, 2022-09-19 17:00:39.183
231.0, 18784.67426117352, 19242.348580640388, 11651.763218851474, 85696.6776486251, 187500.0, 187500.0, -6987.132964984533, 22274.586233447342, 0.632, -0.644, 0.47600000000000003, 192.0, 0.0, 0.0, 0.0, 0.0, 0.0, 0.0, 0.0, 0.0, 0.0, 1.663588839187519E9, 0.0, 2022-09-19 17:00:39.187
232.0, 18769.56448192173, 19241.789787029003, 11662.268538745468, 85678.88566003868, 187500.0, 187500.0, -6998.711168612382, 22275.79322764793, 0.632, -0.644, 0.47600000000000003, 192.0, 0.0, 0.0, 0.0, 0.0, 0.0, 0.0, 0.0, 0.0, 0.0, 1.663588839191572E9, 0.0, 2022-09-19 17:00:39.191
233.0, 18770.793827866775, 19238.504080594073, 11673.667928417675, 85657.62915106167, 187500.0, 187500.0, -6993.100880754099, 22277.44725673762, 0.632, -0.644, 0.47600000000000003, 192.0, 0.0, 0.0, 0.0, 0.0, 0.0, 0.0, 0.0, 0.0, 0.0, 1.6635888391946096E9, 0.0, 2022-09-19 17:00:39.194
234.0, 18781.366202994133, 19247.578888842927, 11672.84091387283, 85651.14714516964, 187500.0, 187500.0, -6980.829773048136, 22269.065352566882, 0.632, -0.644, 0.47600000000000003, 192.0, 0.0, 0.0, 0.0, 0.0, 0.0, 0.0, 0.0, 0.0, 0.0, 1.6635888391985726E9, 0.0, 2022-09-19 17:00:39.198
235.0, 18778.706345403953, 19273.37280194435, 11667.431791714644, 85661.11602319671, 187500.0, 187500.0, -6972.090240966111, 22264.036210064438, 0.632, -0.644, 0.47600000000000003, 192.0, 0.0, 0.0, 0.0, 0.0, 0.0, 0.0, 0.0, 0.0, 0.0, 1.6635888392025871E9, 0.0, 2022-09-19 17:00:39.202
236.0, 18758.52272016081, 19294.271683010065, 11657.574672409854, 85667.19569768856, 187500.0, 187500.0, -6986.2835986952305, 22258.11299778378, 0.632, -0.644, 0.47600000000000003, 192.0, 0.0, 0.0, 0.0, 0.0, 0.0, 0.0, 0.0, 0.0, 0.0, 1.6635888392065728E9, 0.0, 2022-09-19 17:00:39.206
237.0, 18763.551862663255, 19291.589473675427, 11652.322012462857, 85649.40370910213, 187500.0, 187500.0, -7001.460433180384, 22256.45896869409, 0.632, -0.644, 0.47600000000000003, 192.0, 0.0, 0.0, 0.0, 0.0, 0.0, 0.0, 0.0, 0.0, 0.0, 1.663588839211599E9, 0.0, 2022-09-19 17:00:39.211
238.0, 18770.525606933308, 19292.327081242453, 11651.249128729001, 85633.06458390529, 187500.0, 187500.0, -6994.95607554389, 22256.950707072105, 0.632, -0.644, 0.47600000000000003, 192.0, 0.0, 0.0, 0.0, 0.0, 0.0, 0.0, 0.0, 0.0, 0.0, 1.6635888392156694E9, 0.0, 2022-09-19 17:00:39.215
239.0, 18760.243804483867, 19313.762404175093, 11663.050849801404, 85637.95961594101, 187500.0, 187500.0, -6973.721918311348, 22271.769913645974, 0.632, -0.644, 0.47600000000000003, 192.0, 0.0, 0.0, 0.0, 0.0, 0.0, 0.0, 0.0, 0.0, 0.0, 1.6635888392195945E9, 0.0, 2022-09-19 17:00:39.219
240.0, 18772.783133123296, 19348.38525633636, 11667.208274270091, 85654.65636904912, 187500.0, 187500.0, -6961.651976305482, 22281.761143417498, 0.638, -0.648, 0.47600000000000003, 192.0, 19.0, 240.0, 235.0, 192.0, 14.0, 224.0, 0.0, 0.0, 0.0, 1.6635888392226346E9, 0.0, 2022-09-19 17:00:39.222
241.0, 18783.37785999511, 19374.715611304717, 11667.07416380336, 85665.65342732113, 187500.0, 187500.0, -6969.1398106980105, 22278.341326515834, 0.638, -0.648, 0.47600000000000003, 192.0, 0.0, 0.0, 0.0, 0.0, 0.0, 0.0, 0.0, 0.0, 0.0, 1.6635888392266393E9, 0.0, 2022-09-19 17:00:39.226
242.0, 18804.254389316367, 19382.27050093061, 11671.723326650063, 85652.0635666923, 187500.0, 187500.0, -6977.90169452449, 22277.000221848517, 0.638, -0.648, 0.47600000000000003, 192.0, 0.0, 0.0, 0.0, 0.0, 0.0, 0.0, 0.0, 0.0, 0.0, 1.6635888392306256E9, 0.0, 2022-09-19 17:00:39.230
243.0, 18773.587795923686, 19382.516370119618, 11663.944919579617, 85633.89159845014, 187500.0, 187500.0, -6979.689834080915, 22267.523082199466, 0.638, -0.648, 0.47600000000000003, 192.0, 0.0, 0.0, 0.0, 0.0, 0.0, 0.0, 0.0, 0.0, 0.0, 1.6635888392347236E9, 0.0, 2022-09-19 17:00:39.234
244.0, 18788.3846507531, 19400.84480057297, 11660.838027100328, 85634.31628159479, 187500.0, 187500.0, -6972.38081364403, 22263.767989130974, 0.638, -0.648, 0.47600000000000003, 192.0, 0.0, 0.0, 0.0, 0.0, 0.0, 0.0, 0.0, 0.0, 0.0, 1.6635888392396388E9, 0.0, 2022-09-19 17:00:39.239
245.0, 18823.72275873694, 19430.21499278724, 11664.123733535258, 85644.79924974433, 187500.0, 187500.0, -6955.66170879146, 22272.93220435765, 0.638, -0.648, 0.47600000000000003, 192.0, 0.0, 0.0, 0.0, 0.0, 0.0, 0.0, 0.0, 0.0, 0.0, 1.6635888392436178E9, 0.0, 2022-09-19 17:00:39.243
246.0, 18824.996808170894, 19458.84757743449, 11669.64461441572, 85653.3152643818, 187500.0, 187500.0, -6951.817208745148, 22276.88846312624, 0.638, -0.648, 0.47600000000000003, 192.0, 0.0, 0.0, 0.0, 0.0, 0.0, 0.0, 0.0, 0.0, 0.0, 1.6635888392476606E9, 0.0, 2022-09-19 17:00:39.247
247.0, 18808.00948238486, 19459.272260579142, 11662.02266955646, 85633.39986007212, 187500.0, 187500.0, -6970.995005487801, 22272.46281772409, 0.638, -0.648, 0.47600000000000003, 192.0, 0.0, 0.0, 0.0, 0.0, 0.0, 0.0, 0.0, 0.0, 0.0, 1.6635888392506835E9, 0.0, 2022-09-19 17:00:39.250
248.0, 18783.601377439663, 19459.272260579142, 11661.799152111907, 85617.4630662755, 187500.0, 187500.0, -6981.477973637339, 22265.198500776114, 0.638, -0.648, 0.47600000000000003, 192.0, 0.0, 0.0, 0.0, 0.0, 0.0, 0.0, 0.0, 0.0, 0.0, 1.663588839254692E9, 0.0, 2022-09-19 17:00:39.254
249.0, 18760.668487628518, 19469.777580473135, 11661.754448622996, 85617.03838313084, 187500.0, 187500.0, -6978.751060813793, 22269.110056055793, 0.638, -0.648, 0.47600000000000003, 192.0, 0.0, 0.0, 0.0, 0.0, 0.0, 0.0, 0.0, 0.0, 0.0, 1.6635888392586682E9, 0.0, 2022-09-19 17:00:39.258
250.0, 18756.309897459734, 19492.129324928443, 11661.39682071171, 85628.05779314731, 187500.0, 187500.0, -6967.597540330594, 22278.721306171574, 0.636, -0.65, 0.47000000000000003, 192.0, 19.0, 224.0, 235.0, 176.0, 14.0, 176.0, 0.0, 0.0, 0.0, 1.6635888392626567E9, 0.0, 2022-09-19 17:00:39.262
251.0, 18768.893929588074, 19519.130232230455, 11665.286024246934, 85638.60781653022, 187500.0, 187500.0, -6962.926025739435, 22285.136256830247, 0.636, -0.65, 0.47000000000000003, 192.0, 0.0, 0.0, 0.0, 0.0, 0.0, 0.0, 0.0, 0.0, 0.0, 1.6635888392676506E9, 0.0, 2022-09-19 17:00:39.267
252.0, 18788.608168197654, 19524.740520088737, 11672.416230728179, 85626.3590605687, 187500.0, 187500.0, -6967.66459556396, 22291.819428422383, 0.636, -0.65, 0.47000000000000003, 192.0, 0.0, 0.0, 0.0, 0.0, 0.0, 0.0, 0.0, 0.0, 0.0, 1.6635888392716942E9, 0.0, 2022-09-19 17:00:39.271
253.0, 18778.4828279594, 19530.082587013556, 11666.73888763653, 85613.23858657344, 187500.0, 187500.0, -6970.145639198499, 22283.4598759961, 0.636, -0.65, 0.47000000000000003, 192.0, 0.0, 0.0, 0.0, 0.0, 0.0, 0.0, 0.0, 0.0, 0.0, 1.663588839275672E9, 0.0, 2022-09-19 17:00:39.275
254.0, 18761.85313008465, 19551.026171568177, 11663.810809112885, 85614.98202264095, 187500.0, 187500.0, -6964.892979251502, 22275.83793113684, 0.636, -0.65, 0.47000000000000003, 192.0, 0.0, 0.0, 0.0, 0.0, 0.0, 0.0, 0.0, 0.0, 0.0, 1.6635888392786808E9, 0.0, 2022-09-19 17:00:39.278
255.0, 18766.14466502007, 19576.998898625243, 11664.660175402187, 85626.40376405761, 187500.0, 187500.0, -6950.56551105565, 22274.094495069327, 0.636, -0.65, 0.47000000000000003, 192.0, 0.0, 0.0, 0.0, 0.0, 0.0, 0.0, 0.0, 0.0, 0.0, 1.6635888392826865E9, 0.0, 2022-09-19 17:00:39.282
0.0, 18752.778321835794, 19599.104773891544, 11662.916739334672, 85636.14912464013, 187500.0, 187500.0, -6953.895920979491, 22273.043963079926, 0.636, -0.65, 0.47000000000000003, 192.0, 0.0, 0.0, 0.0, 0.0, 0.0, 0.0, 0.0, 0.0, 0.0, 1.6635888392867727E9, 0.0, 2022-09-19 17:00:39.286
1.0, 18764.84826384166, 19602.68105300439, 11677.087745319337, 85623.09570587822, 187500.0, 187500.0, -6958.343918126097, 22279.4589137386, 0.636, -0.65, 0.47000000000000003, 192.0, 0.0, 0.0, 0.0, 0.0, 0.0, 0.0, 0.0, 0.0, 0.0, 1.6635888392908669E9, 0.0, 2022-09-19 17:00:39.290
2.0, 18785.747144907375, 19609.341872852074, 11682.653329688708, 85612.5009790064, 187500.0, 187500.0, -6950.409048844463, 22284.376297518767, 0.636, -0.65, 0.47000000000000003, 192.0, 0.0, 0.0, 0.0, 0.0, 0.0, 0.0, 0.0, 0.0, 0.0, 1.663588839294778E9, 0.0, 2022-09-19 17:00:39.294
3.0, 18789.032851342305, 19625.971570726822, 11678.02651858646, 85615.25024357441, 187500.0, 187500.0, -6940.909557450957, 22282.252881795514, 0.636, -0.65, 0.47000000000000003, 192.0, 0.0, 0.0, 0.0, 0.0, 0.0, 0.0, 0.0, 0.0, 0.0, 1.663588839299768E9, 0.0, 2022-09-19 17:00:39.299
4.0, 18780.494484960378, 19652.74896058428, 11672.12565805026, 85626.20259835751, 187500.0, 187500.0, -6936.3274498376195, 22269.244166522523, 0.628, -0.648, 0.47600000000000003, 192.0, 19.0, 160.0, 235.0, 192.0, 14.0, 224.0, 0.0, 0.0, 0.0, 1.6635888393037708E9, 0.0, 2022-09-19 17:00:39.303
5.0, 18765.362353964134, 19676.21829226235, 11659.899253833206, 85631.56701702678, 187500.0, 187500.0, -6945.759885997759, 22256.12369252726, 0.628, -0.648, 0.47600000000000003, 192.0, 0.0, 0.0, 0.0, 0.0, 0.0, 0.0, 0.0, 0.0, 0.0, 1.6635888393068416E9, 0.0, 2022-09-19 17:00:39.306
6.0, 18759.774417850305, 19681.336841742617, 11654.758352608485, 85617.84304593124, 187500.0, 187500.0, -6958.656842548471, 22258.13534952824, 0.628, -0.648, 0.47600000000000003, 192.0, 0.0, 0.0, 0.0, 0.0, 0.0, 0.0, 0.0, 0.0, 0.0, 1.663588839310858E9, 0.0, 2022-09-19 17:00:39.310
7.0, 18747.480958399887, 19685.673080166947, 11656.077105531349, 85603.91790913558, 187500.0, 187500.0, -6955.751115769282, 22257.822425105864, 0.628, -0.648, 0.47600000000000003, 192.0, 0.0, 0.0, 0.0, 0.0, 0.0, 0.0, 0.0, 0.0, 0.0, 1.6635888393148086E9, 0.0, 2022-09-19 17:00:39.314
8.0, 18731.94649600345, 19703.66623445347, 11657.619375898765, 85604.47670274696, 187500.0, 187500.0, -6949.0902959216, 22258.11299778378, 0.628, -0.648, 0.47600000000000003, 192.0, 0.0, 0.0, 0.0, 0.0, 0.0, 0.0, 0.0, 0.0, 0.0, 1.6635888393188293E9, 0.0, 2022-09-19 17:00:39.318
9.0, 18746.296315943757, 19739.406673837504, 11666.649480658709, 85626.3590605687, 187500.0, 187500.0, -6935.567490526139, 22262.02455306346, 0.628, -0.648, 0.47600000000000003, 192.0, 0.0, 0.0, 0.0, 0.0, 0.0, 0.0, 0.0, 0.0, 0.0, 1.6635888393247733E9, 0.0, 2022-09-19 17:00:39.324
10.0, 18755.035848025782, 19764.23946192735, 11670.896312105217, 85636.08206940677, 187500.0, 187500.0, -6936.3274498376195, 22271.21112003459, 0.628, -0.648, 0.47600000000000003, 192.0, 0.0, 0.0, 0.0, 0.0, 0.0, 0.0, 0.0, 0.0, 0.0, 1.6635888393278632E9, 0.0, 2022-09-19 17:00:39.327
11.0, 18761.540205662277, 19766.161711950506, 11676.975986597061, 85620.56995875479, 187500.0, 187500.0, -6947.905653465468, 22274.36271600279, 0.628, -0.648, 0.47600000000000003, 192.0, 0.0, 0.0, 0.0, 0.0, 0.0, 0.0, 0.0, 0.0, 0.0, 1.663588839330881E9, 0.0, 2022-09-19 17:00:39.330
12.0, 18775.28652850229, 19779.416296412506, 11686.4084227572, 85615.51846450788, 187500.0, 187500.0, -6941.647165017983, 22272.038134579438, 0.628, -0.648, 0.47600000000000003, 192.0, 0.0, 0.0, 0.0, 0.0, 0.0, 0.0, 0.0, 0.0, 0.0, 1.6635888393348703E9, 0.0, 2022-09-19 17:00:39.334
13.0, 18777.61110992564, 19803.28795949077, 11690.118812336781, 85628.32601408077, 187500.0, 187500.0, -6929.331353823109, 22268.081875810847, 0.628, -0.648, 0.47600000000000003, 192.0, 0.0, 0.0, 0.0, 0.0, 0.0, 0.0, 0.0, 0.0, 0.0, 1.6635888393388991E9, 0.0, 2022-09-19 17:00:39.338
14.0, 18804.16498233855, 19839.16250934154, 11683.569751211377, 85656.37745337219, 187500.0, 187500.0, -6914.445092015874, 22267.83600662184, 0.628, -0.648, 0.47600000000000003, 192.0, 0.0, 0.0, 0.0, 0.0, 0.0, 0.0, 0.0, 0.0, 0.0, 1.663588839342834E9, 0.0, 2022-09-19 17:00:39.342
15.0, 18811.876334175628, 19860.575480529726, 11670.538684193933, 85670.39199714566, 187500.0, 187500.0, -6924.7045427208595, 22266.025515320962, 0.632, -0.658, 0.47200000000000003, 192.0, 19.0, 192.0, 235.0, 112.0, 14.0, 192.0, 0.0, 0.0, 0.0, 1.6635888393468263E9, 0.0, 2022-09-19 17:00:39.346
16.0, 18798.487639246898, 19860.731942740913, 11671.812733627885, 85660.4231191186, 187500.0, 187500.0, -6934.539310281195, 22270.764085145485, 0.632, -0.658, 0.47200000000000003, 192.0, 0.0, 0.0, 0.0, 0.0, 0.0, 0.0, 0.0, 0.0, 0.0, 1.6635888393509667E9, 0.0, 2022-09-19 17:00:39.350
17.0, 18787.132953063603, 19869.27030912284, 11680.060527331892, 85652.82352600379, 187500.0, 187500.0, -6930.381885812508, 22267.768951388472, 0.632, -0.658, 0.47200000000000003, 192.0, 0.0, 0.0, 0.0, 0.0, 0.0, 0.0, 0.0, 0.0, 0.0, 1.6635888393558266E9, 0.0, 2022-09-19 17:00:39.355
18.0, 18763.954194063448, 19890.7950390333, 11676.663062174686, 85655.55043882734, 187500.0, 187500.0, -6930.18072011241, 22260.616393162774, 0.632, -0.658, 0.47200000000000003, 192.0, 0.0, 0.0, 0.0, 0.0, 0.0, 0.0, 0.0, 0.0, 0.0, 1.663588839358916E9, 0.0, 2022-09-19 17:00:39.358
19.0, 18767.91045283204, 19924.94850456101, 11680.820486643373, 85669.16265120062, 187500.0, 187500.0, -6921.731760708304, 22266.830178121352, 0.632, -0.658, 0.47200000000000003, 192.0, 0.0, 0.0, 0.0, 0.0, 0.0, 0.0, 0.0, 0.0, 0.0, 1.6635888393628335E9, 0.0, 2022-09-19 17:00:39.362
20.0, 18773.967775579426, 19949.557775206304, 11680.239341287535, 85674.54942161434, 187500.0, 187500.0, -6930.784217212703, 22263.142140286225, 0.632, -0.658, 0.47200000000000003, 192.0, 0.0, 0.0, 0.0, 0.0, 0.0, 0.0, 0.0, 0.0, 0.0, 1.6635888393668933E9, 0.0, 2022-09-19 17:00:39.366
21.0, 18751.504272401842, 19945.53446120435, 11665.621300413764, 85652.9129329816, 187500.0, 187500.0, -6950.4761040778285, 22255.58725066033, 0.632, -0.658, 0.47200000000000003, 192.0, 0.0, 0.0, 0.0, 0.0, 0.0, 0.0, 0.0, 0.0, 0.0, 1.6635888393709424E9, 0.0, 2022-09-19 17:00:39.370
22.0, 18754.544109647766, 19951.748246162922, 11665.241320758025, 85642.92170321009, 187500.0, 187500.0, -6941.624813273527, 22255.967230316073, 0.632, -0.658, 0.47200000000000003, 192.0, 0.0, 0.0, 0.0, 0.0, 0.0, 0.0, 0.0, 0.0, 0.0, 1.6635888393748777E9, 0.0, 2022-09-19 17:00:39.374
23.0, 18776.784095380797, 19976.29046157485, 11676.394841241223, 85651.95180797004, 187500.0, 187500.0, -6923.050513631167, 22269.02064907797, 0.632, -0.658, 0.47200000000000003, 192.0, 0.0, 0.0, 0.0, 0.0, 0.0, 0.0, 0.0, 0.0, 0.0, 1.6635888393788972E9, 0.0, 2022-09-19 17:00:39.378
24.0, 18783.914301862038, 20006.845296245254, 11675.567826696377, 85665.5193168544, 187500.0, 187500.0, -6913.439263515385, 22271.434637479146, 0.632, -0.658, 0.47200000000000003, 192.0, 0.0, 0.0, 0.0, 0.0, 0.0, 0.0, 0.0, 0.0, 0.0, 1.6635888393840263E9, 0.0, 2022-09-19 17:00:39.384
25.0, 18777.43229597, 20027.185383699583, 11676.461896474588, 85669.54263085636, 187500.0, 187500.0, -6919.0719031181225, 22271.099361312314, 0.63, -0.652, 0.47200000000000003, 192.0, 19.0, 176.0, 235.0, 160.0, 14.0, 192.0, 0.0, 0.0, 0.0, 1.6635888393869045E9, 0.0, 2022-09-19 17:00:39.386
26.0, 18781.52266520532, 20031.722787824012, 11681.759259910496, 85657.02565396139, 187500.0, 187500.0, -6921.910574663946, 22275.50265497001, 0.63, -0.652, 0.47200000000000003, 192.0, 0.0, 0.0, 0.0, 0.0, 0.0, 0.0, 0.0, 0.0, 0.0, 1.6635888393909445E9, 0.0, 2022-09-19 17:00:39.390
27.0, 18776.985261080892, 20043.278639707405, 11674.07025981787, 85648.37552885718, 187500.0, 187500.0, -6921.0835601191, 22268.908890355695, 0.63, -0.652, 0.47200000000000003, 192.0, 0.0, 0.0, 0.0, 0.0, 0.0, 0.0, 0.0, 0.0, 0.0, 1.6635888393949988E9, 0.0, 2022-09-19 17:00:39.394
28.0, 18762.098999273658, 20060.64594514918, 11660.614509655776, 85647.39205210115, 187500.0, 187500.0, -6927.677324733416, 22255.989582060527, 0.63, -0.652, 0.47200000000000003, 192.0, 0.0, 0.0, 0.0, 0.0, 0.0, 0.0, 0.0, 0.0, 0.0, 1.6635888393989332E9, 0.0, 2022-09-19 17:00:39.398
29.0, 18766.546996420264, 20091.558407730867, 11655.697125875608, 85662.79240403086, 187500.0, 187500.0, -6928.124359622522, 22249.06054127938, 0.63, -0.652, 0.47200000000000003, 192.0, 0.0, 0.0, 0.0, 0.0, 0.0, 0.0, 0.0, 0.0, 0.0, 1.6635888394029038E9, 0.0, 2022-09-19 17:00:39.402
30.0, 18765.92114757552, 20109.663320739666, 11654.512483419478, 85667.03923547736, 187500.0, 187500.0, -6939.255528361265, 22250.826329091353, 0.63, -0.652, 0.47200000000000003, 192.0, 0.0, 0.0, 0.0, 0.0, 0.0, 0.0, 0.0, 0.0, 0.0, 1.6635888394068997E9, 0.0, 2022-09-19 17:00:39.406
31.0, 18750.967830534915, 20110.22211435105, 11664.727230635552, 85654.70107253804, 187500.0, 187500.0, -6946.452790075874, 22251.854509336295, 0.63, -0.652, 0.47200000000000003, 192.0, 0.0, 0.0, 0.0, 0.0, 0.0, 0.0, 0.0, 0.0, 0.0, 1.6635888394109929E9, 0.0, 2022-09-19 17:00:39.410
32.0, 18749.559670634233, 20122.604980779288, 11678.093573819826, 85652.44354634805, 187500.0, 187500.0, -6937.51209229375, 22249.038189534927, 0.63, -0.652, 0.47200000000000003, 192.0, 0.0, 0.0, 0.0, 0.0, 0.0, 0.0, 0.0, 0.0, 0.0, 1.663588839414962E9, 0.0, 2022-09-19 17:00:39.414
33.0, 18741.267173441312, 20148.153024691706, 11679.814658142885, 85660.93720924106, 187500.0, 187500.0, -6928.1690631114325, 22246.82536683385, 0.63, -0.652, 0.47200000000000003, 192.0, 0.0, 0.0, 0.0, 0.0, 0.0, 0.0, 0.0, 0.0, 0.0, 1.66358883941894E9, 0.0, 2022-09-19 17:00:39.418
34.0, 18723.98927497736, 20178.394934939737, 11670.941015594128, 85675.73406407048, 187500.0, 187500.0, -6921.75411245276, 22238.197593474102, 0.63, -0.652, 0.47200000000000003, 192.0, 0.0, 0.0, 0.0, 0.0, 0.0, 0.0, 0.0, 0.0, 0.0, 1.6635888394229076E9, 0.0, 2022-09-19 17:00:39.422
35.0, 18727.252629667837, 20193.66117640271, 11660.413343955677, 85674.50471812543, 187500.0, 187500.0, -6934.539310281195, 22232.40849166018, 0.634, -0.65, 0.47600000000000003, 192.0, 19.0, 208.0, 235.0, 176.0, 14.0, 224.0, 0.0, 0.0, 0.0, 1.6635888394269996E9, 0.0, 2022-09-19 17:00:39.426
36.0, 18760.556728906242, 20195.583426425866, 11663.944919579617, 85659.55140108483, 187500.0, 187500.0, -6941.043667917689, 22234.710721339074, 0.634, -0.65, 0.47600000000000003, 192.0, 0.0, 0.0, 0.0, 0.0, 0.0, 0.0, 0.0, 0.0, 0.0, 1.6635888394309368E9, 0.0, 2022-09-19 17:00:39.430
37.0, 18801.01338637035, 20209.48621147707, 11674.763163895985, 85654.25403764892, 187500.0, 187500.0, -6924.861004932047, 22239.695160352607, 0.634, -0.65, 0.47600000000000003, 192.0, 0.0, 0.0, 0.0, 0.0, 0.0, 0.0, 0.0, 0.0, 0.0, 1.663588839434988E9, 0.0, 2022-09-19 17:00:39.434
38.0, 18782.640252428086, 20228.775766942, 11669.801076626907, 85652.4211946036, 187500.0, 187500.0, -6920.904746163457, 22234.420148661156, 0.634, -0.65, 0.47600000000000003, 192.0, 0.0, 0.0, 0.0, 0.0, 0.0, 0.0, 0.0, 0.0, 0.0, 1.6635888394390316E9, 0.0, 2022-09-19 17:00:39.439
39.0, 18767.932804576492, 20256.469578322125, 11662.223835256558, 85661.2724854079, 187500.0, 187500.0, -6916.993190883779, 22232.855526549283, 0.634, -0.65, 0.47600000000000003, 192.0, 0.0, 0.0, 0.0, 0.0, 0.0, 0.0, 0.0, 0.0, 0.0, 1.6635888394429867E9, 0.0, 2022-09-19 17:00:39.442
40.0, 18780.51683670483, 20278.82132277743, 11662.670870145665, 85663.46295636451, 187500.0, 187500.0, -6920.077731618611, 22234.420148661156, 0.634, -0.65, 0.47600000000000003, 192.0, 0.0, 0.0, 0.0, 0.0, 0.0, 0.0, 0.0, 0.0, 0.0, 1.6635888394460666E9, 0.0, 2022-09-19 17:00:39.446
41.0, 18776.76174363634, 20284.521017613533, 11668.907006848694, 85645.13452591115, 187500.0, 187500.0, -6926.537385766195, 22235.805956817385, 0.634, -0.65, 0.47600000000000003, 192.0, 0.0, 0.0, 0.0, 0.0, 0.0, 0.0, 0.0, 0.0, 0.0, 1.66358883945105E9, 0.0, 2022-09-19 17:00:39.451
42.0, 18774.10188604616, 20295.138096229806, 11666.850646358806, 85628.61658675868, 187500.0, 187500.0, -6922.491720019784, 22228.11695672476, 0.634, -0.65, 0.47600000000000003, 192.0, 0.0, 0.0, 0.0, 0.0, 0.0, 0.0, 0.0, 0.0, 0.0, 1.6635888394560847E9, 0.0, 2022-09-19 17:00:39.456
43.0, 18760.869653328617, 20313.108898771872, 11652.813750840873, 85619.49707502092, 187500.0, 187500.0, -6920.9494496523685, 22227.02172124645, 0.634, -0.65, 0.47600000000000003, 192.0, 0.0, 0.0, 0.0, 0.0, 0.0, 0.0, 0.0, 0.0, 0.0, 1.6635888394600608E9, 0.0, 2022-09-19 17:00:39.460
44.0, 18803.5391334938, 20346.770625921563, 11662.78262886794, 85629.08597339226, 187500.0, 187500.0, -6908.611286713039, 22239.02460801895, 0.634, -0.65, 0.47600000000000003, 192.0, 0.0, 0.0, 0.0, 0.0, 0.0, 0.0, 0.0, 0.0, 0.0, 1.663588839463026E9, 0.0, 2022-09-19 17:00:39.463
45.0, 18805.796659683783, 20355.59956498141, 11674.338480751334, 85618.93828140954, 187500.0, 187500.0, -6920.815339185637, 22240.83509931983, 0.636, -0.658, 0.47200000000000003, 192.0, 19.0, 224.0, 235.0, 112.0, 14.0, 192.0, 0.0, 0.0, 0.0, 1.6635888394660215E9, 0.0, 2022-09-19 17:00:39.466
46.0, 18786.61886294113, 20340.512137474077, 11674.226722029058, 85587.3552664942, 187500.0, 187500.0, -6938.294403349687, 22233.414320160668, 0.636, -0.658, 0.47200000000000003, 192.0, 0.0, 0.0, 0.0, 0.0, 0.0, 0.0, 0.0, 0.0, 0.0, 1.6635888394702024E9, 0.0, 2022-09-19 17:00:39.470
47.0, 18793.637310700098, 20339.774529907052, 11675.947806352116, 85573.63129539863, 187500.0, 187500.0, -6927.386752055497, 22233.034340504928, 0.636, -0.658, 0.47200000000000003, 192.0, 0.0, 0.0, 0.0, 0.0, 0.0, 0.0, 0.0, 0.0, 0.0, 1.663588839474084E9, 0.0, 2022-09-19 17:00:39.474
48.0, 18796.945368879482, 20352.291506802023, 11681.558094210399, 85573.98892330992, 187500.0, 187500.0, -6915.517975749729, 22235.202459717093, 0.636, -0.658, 0.47200000000000003, 192.0, 0.0, 0.0, 0.0, 0.0, 0.0, 0.0, 0.0, 0.0, 0.0, 1.663588839479128E9, 0.0, 2022-09-19 17:00:39.479
49.0, 18789.72575542042, 20368.004783154105, 11681.468687232576, 85576.29115298882, 187500.0, 187500.0, -6913.036932115189, 22232.16262247117, 0.636, -0.658, 0.47200000000000003, 192.0, 0.0, 0.0, 0.0, 0.0, 0.0, 0.0, 0.0, 0.0, 0.0, 1.6635888394830673E9, 0.0, 2022-09-19 17:00:39.483
50.0, 18772.649022656566, 20367.401286053813, 11673.176190039658, 85563.64006562711, 187500.0, 187500.0, -6927.744379966782, 22226.954666013084, 0.636, -0.658, 0.47200000000000003, 192.0, 0.0, 0.0, 0.0, 0.0, 0.0, 0.0, 0.0, 0.0, 0.0, 1.6635888394871292E9, 0.0, 2022-09-19 17:00:39.487
51.0, 18771.79965636726, 20356.940669648728, 11677.31126276389, 85542.5847223502, 187500.0, 187500.0, -6931.499473035273, 22221.16556419916, 0.636, -0.658, 0.47200000000000003, 192.0, 0.0, 0.0, 0.0, 0.0, 0.0, 0.0, 0.0, 0.0, 0.0, 1.6635888394911084E9, 0.0, 2022-09-19 17:00:39.491
52.0, 18782.930825106007, 20360.427541783756, 11684.866152389784, 85537.6896903145, 187500.0, 187500.0, -6917.507281006251, 22229.614523603264, 0.636, -0.658, 0.47200000000000003, 192.0, 0.0, 0.0, 0.0, 0.0, 0.0, 0.0, 0.0, 0.0, 0.0, 1.6635888394941022E9, 0.0, 2022-09-19 17:00:39.494
53.0, 18780.91916810503, 20370.17290236627, 11678.317091264378, 85539.32136765974, 187500.0, 187500.0, -6906.242001800776, 22231.53677362642, 0.636, -0.658, 0.47200000000000003, 192.0, 0.0, 0.0, 0.0, 0.0, 0.0, 0.0, 0.0, 0.0, 0.0, 1.6635888394980657E9, 0.0, 2022-09-19 17:00:39.498
54.0, 18786.4847524744, 20387.04846943003, 11678.02651858646, 85547.03271949681, 187500.0, 187500.0, -6897.457766229841, 22226.105299723782, 0.636, -0.658, 0.47200000000000003, 192.0, 0.0, 0.0, 0.0, 0.0, 0.0, 0.0, 0.0, 0.0, 0.0, 1.6635888395021162E9, 0.0, 2022-09-19 17:00:39.502
55.0, 18797.682976446507, 20393.37401311088, 11686.184905312646, 85545.80337355178, 187500.0, 187500.0, -6900.251734286754, 22238.666980107664, 0.632, -0.652, 0.47200000000000003, 192.0, 19.0, 192.0, 235.0, 160.0, 14.0, 192.0, 0.0, 0.0, 0.0, 1.6635888395070696E9, 0.0, 2022-09-19 17:00:39.507
56.0, 18786.305938518755, 20382.108733905403, 11686.587236712843, 85528.95015823247, 187500.0, 187500.0, -6908.119548335022, 22239.002256274493, 0.632, -0.652, 0.47200000000000003, 192.0, 0.0, 0.0, 0.0, 0.0, 0.0, 0.0, 0.0, 0.0, 0.0, 1.6635888395111215E9, 0.0, 2022-09-19 17:00:39.511
57.0, 18783.266101272835, 20382.980451939162, 11687.190733813135, 85523.7869052633, 187500.0, 187500.0, -6900.743472664771, 22234.420148661156, 0.632, -0.652, 0.47200000000000003, 192.0, 0.0, 0.0, 0.0, 0.0, 0.0, 0.0, 0.0, 0.0, 0.0, 1.6635888395150964E9, 0.0, 2022-09-19 17:00:39.515
58.0, 18782.684955916997, 20391.004728198615, 11671.924492350161, 85528.81604776574, 187500.0, 187500.0, -6894.037949328179, 22221.858468277274, 0.632, -0.652, 0.47200000000000003, 192.0, 0.0, 0.0, 0.0, 0.0, 0.0, 0.0, 0.0, 0.0, 0.0, 1.663588839519153E9, 0.0, 2022-09-19 17:00:39.519
59.0, 18785.031889084803, 20413.445879631745, 11663.49788469051, 85545.98218750741, 187500.0, 187500.0, -6891.467498715819, 22220.11503220976, 0.632, -0.652, 0.47200000000000003, 192.0, 0.0, 0.0, 0.0, 0.0, 0.0, 0.0, 0.0, 0.0, 0.0, 1.6635888395221353E9, 0.0, 2022-09-19 17:00:39.522
60.0, 18800.00755786986, 20420.46432739071, 11665.64365215822, 85545.11046947366, 187500.0, 187500.0, -6901.145804064966, 22236.96824752906, 0.632, -0.652, 0.47200000000000003, 192.0, 0.0, 0.0, 0.0, 0.0, 0.0, 0.0, 0.0, 0.0, 0.0, 1.6635888395261335E9, 0.0, 2022-09-19 17:00:39.526
61.0, 18798.666453202542, 20410.09311796345, 11662.425000956655, 85530.40302162207, 187500.0, 187500.0, -6905.79496691167, 22241.192727231115, 0.632, -0.652, 0.47200000000000003, 192.0, 0.0, 0.0, 0.0, 0.0, 0.0, 0.0, 0.0, 0.0, 0.0, 1.6635888395301616E9, 0.0, 2022-09-19 17:00:39.530
62.0, 18799.694633447485, 20413.602341842932, 11666.35890798079, 85531.65471931157, 187500.0, 187500.0, -6892.920362105413, 22249.5522796574, 0.632, -0.652, 0.47200000000000003, 192.0, 0.0, 0.0, 0.0, 0.0, 0.0, 0.0, 0.0, 0.0, 0.0, 1.6635888395341828E9, 0.0, 2022-09-19 17:00:39.534
63.0, 18783.37785999511, 20429.00269377264, 11664.011974812982, 85541.0424519828, 187500.0, 187500.0, -6887.667702158416, 22240.87980280874, 0.632, -0.652, 0.47200000000000003, 192.0, 0.0, 0.0, 0.0, 0.0, 0.0, 0.0, 0.0, 0.0, 0.0, 1.663588839539242E9, 0.0, 2022-09-19 17:00:39.539
64.0, 18789.256368786857, 20448.873394593407, 11654.624242141754, 85553.26885619985, 187500.0, 187500.0, -6885.231362012788, 22226.64174159071, 0.632, -0.652, 0.47200000000000003, 192.0, 0.0, 0.0, 0.0, 0.0, 0.0, 0.0, 0.0, 0.0, 0.0, 1.6635888395432699E9, 0.0, 2022-09-19 17:00:39.543
65.0, 18792.922054877527, 20455.645973163366, 11650.533872906431, 85547.1444782191, 187500.0, 187500.0, -6898.664760430427, 22227.088776479814, 0.632, -0.652, 0.47200000000000003, 192.0, 19.0, 192.0, 235.0, 160.0, 14.0, 192.0, 0.0, 0.0, 0.0, 1.6635888395472465E9, 0.0, 2022-09-19 17:00:39.547
66.0, 18793.81612465574, 20454.5283859406, 11660.949785822606, 85530.47007685543, 187500.0, 187500.0, -6903.246868043765, 22229.994503259004, 0.632, -0.652, 0.47200000000000003, 192.0, 0.0, 0.0, 0.0, 0.0, 0.0, 0.0, 0.0, 0.0, 0.0, 1.6635888395502532E9, 0.0, 2022-09-19 17:00:39.550
67.0, 18815.899648177583, 20462.552662200054, 11665.621300413764, 85523.40692560756, 187500.0, 187500.0, -6887.93592309188, 22232.855526549283, 0.632, -0.652, 0.47200000000000003, 192.0, 0.0, 0.0, 0.0, 0.0, 0.0, 0.0, 0.0, 0.0, 0.0, 1.6635888395541835E9, 0.0, 2022-09-19 17:00:39.554
68.0, 18824.34860758169, 20485.843179922485, 11665.911873091683, 85536.28153041382, 187500.0, 187500.0, -6873.094364773556, 22235.001294016995, 0.632, -0.652, 0.47200000000000003, 192.0, 0.0, 0.0, 0.0, 0.0, 0.0, 0.0, 0.0, 0.0, 0.0, 1.6635888395583425E9, 0.0, 2022-09-19 17:00:39.558
69.0, 18827.5449070388, 20508.77606973363, 11664.280195746445, 85549.78198406482, 187500.0, 187500.0, -6867.104097259534, 22240.700988853096, 0.632, -0.652, 0.47200000000000003, 192.0, 0.0, 0.0, 0.0, 0.0, 0.0, 0.0, 0.0, 0.0, 0.0, 1.6635888395621808E9, 0.0, 2022-09-19 17:00:39.562
70.0, 18809.73056670792, 20510.251284867678, 11656.479436931544, 85540.77423104933, 187500.0, 187500.0, -6880.962178821824, 22252.256840736492, 0.632, -0.652, 0.47200000000000003, 192.0, 0.0, 0.0, 0.0, 0.0, 0.0, 0.0, 0.0, 0.0, 0.0, 1.6635888395672157E9, 0.0, 2022-09-19 17:00:39.567
71.0, 18806.288398061803, 20501.936435930307, 11655.16068400868, 85519.87534998362, 187500.0, 187500.0, -6886.84068761357, 22252.860337836784, 0.632, -0.652, 0.47200000000000003, 192.0, 0.0, 0.0, 0.0, 0.0, 0.0, 0.0, 0.0, 0.0, 0.0, 1.6635888395712717E9, 0.0, 2022-09-19 17:00:39.571
72.0, 18826.74024423841, 20514.095784913992, 11667.007108569993, 85517.684879027, 187500.0, 187500.0, -6871.574446150595, 22252.92739307015, 0.632, -0.652, 0.47200000000000003, 192.0, 0.0, 0.0, 0.0, 0.0, 0.0, 0.0, 0.0, 0.0, 0.0, 1.6635888395753067E9, 0.0, 2022-09-19 17:00:39.575
73.0, 18832.417587330056, 20534.748796790696, 11679.524085464966, 85524.65862329706, 187500.0, 187500.0, -6851.279062185176, 22255.02845704895, 0.632, -0.652, 0.47200000000000003, 192.0, 0.0, 0.0, 0.0, 0.0, 0.0, 0.0, 0.0, 0.0, 0.0, 1.6635888395782957E9, 0.0, 2022-09-19 17:00:39.578
74.0, 18836.262087376366, 20559.201605224804, 11669.01876557097, 85535.52157110233, 187500.0, 187500.0, -6848.552149361629, 22257.26363149448, 0.632, -0.652, 0.47200000000000003, 192.0, 0.0, 0.0, 0.0, 0.0, 0.0, 0.0, 0.0, 0.0, 0.0, 1.6635888395822268E9, 0.0, 2022-09-19 17:00:39.582
75.0, 18828.43897681701, 20553.323096433058, 11656.434733442633, 85515.3826493481, 187500.0, 187500.0, -6869.495733916251, 22251.251012236004, 0.628, -0.654, 0.47000000000000003, 192.0, 19.0, 160.0, 235.0, 144.0, 14.0, 176.0, 0.0, 0.0, 0.0, 1.6635888395862503E9, 0.0, 2022-09-19 17:00:39.586
76.0, 18823.63335175912, 20542.46014862778, 11653.998393297004, 85490.37104730261, 187500.0, 187500.0, -6876.26831248621, 22240.276305708445, 0.628, -0.654, 0.47000000000000003, 192.0, 0.0, 0.0, 0.0, 0.0, 0.0, 0.0, 0.0, 0.0, 0.0, 1.6635888395902777E9, 0.0, 2022-09-19 17:00:39.590
77.0, 18832.149366396592, 20558.46399765778, 11650.288003717424, 85492.31564907022, 187500.0, 187500.0, -6866.254730970232, 22244.2996197104, 0.628, -0.654, 0.47000000000000003, 192.0, 0.0, 0.0, 0.0, 0.0, 0.0, 0.0, 0.0, 0.0, 0.0, 1.6635888395953205E9, 0.0, 2022-09-19 17:00:39.595
78.0, 18832.797566985795, 20582.69328864733, 11648.298698460902, 85501.72573348592, 187500.0, 187500.0, -6853.871864541992, 22251.519233169467, 0.628, -0.654, 0.47000000000000003, 192.0, 0.0, 0.0, 0.0, 0.0, 0.0, 0.0, 0.0, 0.0, 0.0, 1.6635888395992708E9, 0.0, 2022-09-19 17:00:39.599
79.0, 18817.374863311634, 20604.977977869272, 11644.25303271449, 85513.2368818804, 187500.0, 187500.0, -6850.094419729045, 22252.34624771431, 0.628, -0.654, 0.47000000000000003, 192.0, 0.0, 0.0, 0.0, 0.0, 0.0, 0.0, 0.0, 0.0, 0.0, 1.6635888396022778E9, 0.0, 2022-09-19 17:00:39.602
80.0, 18816.503145277875, 20595.65730043141, 11624.91877376065, 85494.75198921586, 187500.0, 187500.0, -6874.860152585525, 22232.45319514909, 0.628, -0.654, 0.47000000000000003, 192.0, 0.0, 0.0, 0.0, 0.0, 0.0, 0.0, 0.0, 0.0, 0.0, 1.6635888396063137E9, 0.0, 2022-09-19 17:00:39.606
81.0, 18839.63720078912, 20596.4619632318, 11634.507672131977, 85485.94540190046, 187500.0, 187500.0, -6865.584178636573, 22248.658209879188, 0.628, -0.654, 0.47000000000000003, 192.0, 0.0, 0.0, 0.0, 0.0, 0.0, 0.0, 0.0, 0.0, 0.0, 1.6635888396103501E9, 0.0, 2022-09-19 17:00:39.610
82.0, 18824.169793626046, 20603.435707501856, 11629.67969532963, 85483.71022745494, 187500.0, 187500.0, -6856.107038987522, 22255.363733215778, 0.628, -0.654, 0.47000000000000003, 192.0, 0.0, 0.0, 0.0, 0.0, 0.0, 0.0, 0.0, 0.0, 0.0, 1.663588839614333E9, 0.0, 2022-09-19 17:00:39.614
83.0, 18824.594476770697, 20630.12369038149, 11624.494090615999, 85498.52943402881, 187500.0, 187500.0, -6844.707649315316, 22257.285983238937, 0.628, -0.654, 0.47000000000000003, 192.0, 0.0, 0.0, 0.0, 0.0, 0.0, 0.0, 0.0, 0.0, 0.0, 1.6635888396183434E9, 0.0, 2022-09-19 17:00:39.618
84.0, 18848.98022997144, 20654.062408693124, 11615.665151556153, 85509.0347539228, 187500.0, 187500.0, -6841.578405091573, 22255.16256751568, 0.628, -0.654, 0.47000000000000003, 192.0, 0.0, 0.0, 0.0, 0.0, 0.0, 0.0, 0.0, 0.0, 0.0, 1.6635888396233263E9, 0.0, 2022-09-19 17:00:39.623
85.0, 18823.92392443704, 20649.74852201325, 11597.537886802898, 85489.76755020232, 187500.0, 187500.0, -6863.326652446587, 22245.93129705564, 0.624, -0.652, 0.47400000000000003, 192.0, 19.0, 128.0, 235.0, 160.0, 14.0, 208.0, 0.0, 0.0, 0.0, 1.6635888396283278E9, 0.0, 2022-09-19 17:00:39.628
86.0, 18816.838421444707, 20644.898193466448, 11600.309503115357, 85469.74038717037, 187500.0, 187500.0, -6867.148800748444, 22250.826329091353, 0.624, -0.652, 0.47400000000000003, 192.0, 0.0, 0.0, 0.0, 0.0, 0.0, 0.0, 0.0, 0.0, 0.0, 1.663588839631359E9, 0.0, 2022-09-19 17:00:39.631
87.0, 18826.516726793852, 20656.09641743856, 11606.34447411829, 85465.42650049049, 187500.0, 187500.0, -6859.012765766713, 22250.803977346895, 0.624, -0.652, 0.47400000000000003, 192.0, 0.0, 0.0, 0.0, 0.0, 0.0, 0.0, 0.0, 0.0, 0.0, 1.663588839635389E9, 0.0, 2022-09-19 17:00:39.635
88.0, 18805.10375560567, 20674.357792658546, 11597.470831569533, 85468.4216342475, 187500.0, 187500.0, -6858.3198616885975, 22237.3482271848, 0.624, -0.652, 0.47400000000000003, 192.0, 0.0, 0.0, 0.0, 0.0, 0.0, 0.0, 0.0, 0.0, 0.0, 1.6635888396384954E9, 0.0, 2022-09-19 17:00:39.638
89.0, 18800.700461947974, 20701.783383105205, 11604.86925898424, 85485.61012573364, 187500.0, 187500.0, -6851.726097074283, 22245.528965655445, 0.624, -0.652, 0.47400000000000003, 192.0, 0.0, 0.0, 0.0, 0.0, 0.0, 0.0, 0.0, 0.0, 0.0, 1.6635888396424255E9, 0.0, 2022-09-19 17:00:39.642
90.0, 18818.358340067665, 20697.514199914243, 11605.383349106713, 85468.37693075859, 187500.0, 187500.0, -6864.578350136084, 22239.963381286074, 0.624, -0.652, 0.47400000000000003, 192.0, 0.0, 0.0, 0.0, 0.0, 0.0, 0.0, 0.0, 0.0, 0.0, 1.6635888396464264E9, 0.0, 2022-09-19 17:00:39.646
91.0, 18820.749976724386, 20691.99331903378, 11597.761404247452, 85450.8755148501, 187500.0, 187500.0, -6868.780478093681, 22238.443462663112, 0.624, -0.652, 0.47400000000000003, 192.0, 0.0, 0.0, 0.0, 0.0, 0.0, 0.0, 0.0, 0.0, 0.0, 1.6635888396503565E9, 0.0, 2022-09-19 17:00:39.650
92.0, 18822.716930236453, 20700.0846505266, 11588.4854302985, 85449.35559622712, 187500.0, 187500.0, -6864.913626302913, 22234.844831805807, 0.624, -0.652, 0.47400000000000003, 192.0, 0.0, 0.0, 0.0, 0.0, 0.0, 0.0, 0.0, 0.0, 0.0, 1.6635888396554148E9, 0.0, 2022-09-19 17:00:39.655
93.0, 18813.373901054132, 20718.34602574659, 11581.645796495175, 85456.10582305263, 187500.0, 187500.0, -6864.488943158262, 22227.26759043546, 0.624, -0.652, 0.47400000000000003, 192.0, 0.0, 0.0, 0.0, 0.0, 0.0, 0.0, 0.0, 0.0, 0.0, 1.6635888396583908E9, 0.0, 2022-09-19 17:00:39.658
94.0, 18822.560468025265, 20738.30613354518, 11591.793488477886, 85461.51494521082, 187500.0, 187500.0, -6862.142009990455, 22234.464852150068, 0.624, -0.652, 0.47400000000000003, 192.0, 0.0, 0.0, 0.0, 0.0, 0.0, 0.0, 0.0, 0.0, 0.0, 1.663588839661347E9, 0.0, 2022-09-19 17:00:39.661
95.0, 18848.30967763778, 20742.038874869213, 11603.885782228206, 85451.00962531682, 187500.0, 187500.0, -6864.086611758067, 22242.556183642886, 0.63, -0.654, 0.47400000000000003, 192.0, 19.0, 176.0, 235.0, 144.0, 14.0, 208.0, 0.0, 0.0, 0.0, 1.6635888396664093E9, 0.0, 2022-09-19 17:00:39.666
96.0, 18838.83253798873, 20728.71723517385, 11595.928561202118, 85425.10395349312, 187500.0, 187500.0, -6867.372318192997, 22234.24133470551, 0.63, -0.654, 0.47400000000000003, 192.0, 0.0, 0.0, 0.0, 0.0, 0.0, 0.0, 0.0, 0.0, 0.0, 1.663588839670468E9, 0.0, 2022-09-19 17:00:39.670
97.0, 18832.596401285697, 20741.56948823565, 11593.805145478862, 85426.89209304954, 187500.0, 187500.0, -6859.996242522746, 22231.35795967078, 0.63, -0.654, 0.47400000000000003, 192.0, 0.0, 0.0, 0.0, 0.0, 0.0, 0.0, 0.0, 0.0, 0.0, 1.6635888396743906E9, 0.0, 2022-09-19 17:00:39.674
98.0, 18832.618753030154, 20762.691886745917, 11588.574837276321, 85437.12919201008, 187500.0, 187500.0, -6857.626957610483, 22221.63495083272, 0.63, -0.654, 0.47400000000000003, 192.0, 0.0, 0.0, 0.0, 0.0, 0.0, 0.0, 0.0, 0.0, 0.0, 1.6635888396783943E9, 0.0, 2022-09-19 17:00:39.678
99.0, 18831.38940708511, 20782.182607910945, 11580.81878195033, 85444.77348861379, 187500.0, 187500.0, -6858.565730877606, 22216.11406995226, 0.63, -0.654, 0.47400000000000003, 192.0, 0.0, 0.0, 0.0, 0.0, 0.0, 0.0, 0.0, 0.0, 0.0, 1.6635888396824427E9, 0.0, 2022-09-19 17:00:39.682
100.0, 18817.888953434107, 20772.616061284072, 11571.207531834547, 85422.53350288076, 187500.0, 187500.0, -6871.395632194953, 22212.53779083941, 0.63, -0.654, 0.47400000000000003, 192.0, 0.0, 0.0, 0.0, 0.0, 0.0, 0.0, 0.0, 0.0, 0.0, 1.6635888396864488E9, 0.0, 2022-09-19 17:00:39.686
101.0, 18793.659662444552, 20759.696752988908, 11556.321270027312, 85398.52772933576, 187500.0, 187500.0, -6881.140992777467, 22210.21320941606, 0.63, -0.654, 0.47400000000000003, 192.0, 0.0, 0.0, 0.0, 0.0, 0.0, 0.0, 0.0, 0.0, 0.0, 1.663588839690414E9, 0.0, 2022-09-19 17:00:39.690
102.0, 18810.95991265296, 20774.895939218517, 11557.818836905819, 85401.0534764592, 187500.0, 187500.0, -6869.74160310526, 22218.34924439779, 0.63, -0.654, 0.47400000000000003, 192.0, 0.0, 0.0, 0.0, 0.0, 0.0, 0.0, 0.0, 0.0, 0.0, 1.6635888396944308E9, 0.0, 2022-09-19 17:00:39.694
103.0, 18824.840345959707, 20796.599483084618, 11565.5301887429, 85410.57531959716, 187500.0, 187500.0, -6852.0390214966565, 22221.858468277274, 0.63, -0.654, 0.47400000000000003, 192.0, 0.0, 0.0, 0.0, 0.0, 0.0, 0.0, 0.0, 0.0, 0.0, 1.6635888396984243E9, 0.0, 2022-09-19 17:00:39.698
104.0, 18790.843342643184, 20810.949303024925, 11561.685688696587, 85412.29640392023, 187500.0, 187500.0, -6857.917530288402, 22209.676767549132, 0.63, -0.654, 0.47400000000000003, 192.0, 0.0, 0.0, 0.0, 0.0, 0.0, 0.0, 0.0, 0.0, 0.0, 1.6635888397024632E9, 0.0, 2022-09-19 17:00:39.702
105.0, 18799.3370055362, 20809.854067546614, 11565.932520143095, 85398.25950840229, 187500.0, 187500.0, -6866.433544925874, 22209.319139637846, 0.632, -0.65, 0.48, 192.0, 19.0, 192.0, 235.0, 176.0, 15.0, 0.0, 0.0, 0.0, 0.0, 1.663588839706458E9, 0.0, 2022-09-19 17:00:39.706
106.0, 18827.3437413387, 20815.687872849452, 11575.610825492244, 85387.68713327493, 187500.0, 187500.0, -6856.621129109994, 22210.950816983084, 0.632, -0.65, 0.48, 192.0, 0.0, 0.0, 0.0, 0.0, 0.0, 0.0, 0.0, 0.0, 0.0, 1.6635888397114556E9, 0.0, 2022-09-19 17:00:39.711
107.0, 18827.38844482761, 20830.328265467677, 11582.092831384281, 85386.68130477445, 187500.0, 187500.0, -6845.959347004813, 22216.40464263018, 0.632, -0.65, 0.48, 192.0, 0.0, 0.0, 0.0, 0.0, 0.0, 0.0, 0.0, 0.0, 0.0, 1.663588839714446E9, 0.0, 2022-09-19 17:00:39.714
108.0, 18837.2455641324, 20855.161053557524, 11583.81391570734, 85400.82995901465, 187500.0, 187500.0, -6832.525948587174, 22234.44250040561, 0.632, -0.65, 0.48, 192.0, 0.0, 0.0, 0.0, 0.0, 0.0, 0.0, 0.0, 0.0, 0.0, 1.6635888397176116E9, 0.0, 2022-09-19 17:00:39.717
109.0, 18820.10177613518, 20871.209606076434, 11573.398002791168, 85409.39067714104, 187500.0, 187500.0, -6843.455951625819, 22232.184974215626, 0.632, -0.65, 0.48, 192.0, 0.0, 0.0, 0.0, 0.0, 0.0, 0.0, 0.0, 0.0, 0.0, 1.6635888397224493E9, 0.0, 2022-09-19 17:00:39.722
110.0, 18814.692653976996, 20871.410771776533, 11580.282340083402, 85399.37709562507, 187500.0, 187500.0, -6852.1507802189335, 22242.377369687245, 0.632, -0.65, 0.48, 192.0, 0.0, 0.0, 0.0, 0.0, 0.0, 0.0, 0.0, 0.0, 0.0, 1.6635888397264867E9, 0.0, 2022-09-19 17:00:39.726
111.0, 18819.140651123602, 20865.93459438498, 11584.86444769674, 85382.09919716111, 187500.0, 187500.0, -6850.519102873695, 22239.78456733043, 0.632, -0.65, 0.48, 192.0, 0.0, 0.0, 0.0, 0.0, 0.0, 0.0, 0.0, 0.0, 0.0, 1.6635888397304819E9, 0.0, 2022-09-19 17:00:39.730
112.0, 18819.3418168237, 20877.333984057186, 11580.416450550134, 85380.48987156032, 187500.0, 187500.0, -6837.73390504526, 22238.510517896477, 0.632, -0.65, 0.48, 192.0, 0.0, 0.0, 0.0, 0.0, 0.0, 0.0, 0.0, 0.0, 0.0, 1.663588839734492E9, 0.0, 2022-09-19 17:00:39.734
113.0, 18824.281552348322, 20900.80331573526, 11577.890703426685, 85392.11277867708, 187500.0, 187500.0, -6827.116826428989, 22238.443462663112, 0.632, -0.65, 0.48, 192.0, 0.0, 0.0, 0.0, 0.0, 0.0, 0.0, 0.0, 0.0, 0.0, 1.663588839738506E9, 0.0, 2022-09-19 17:00:39.738
114.0, 18823.409834314567, 20922.819784023737, 11580.081174383304, 85398.48302584684, 187500.0, 187500.0, -6830.134311930456, 22243.11497725427, 0.632, -0.65, 0.48, 192.0, 0.0, 0.0, 0.0, 0.0, 0.0, 0.0, 0.0, 0.0, 0.0, 1.6635888397415257E9, 0.0, 2022-09-19 17:00:39.741
115.0, 18807.540095751297, 20916.583647320705, 11573.308595813347, 85374.07492090165, 187500.0, 187500.0, -6848.663908083905, 22242.93616329863, 0.632, -0.65, 0.48, 192.0, 0.0, 0.0, 0.0, 0.0, 0.0, 0.0, 0.0, 0.0, 0.0, 1.6635888397465084E9, 0.0, 2022-09-19 17:00:39.746
116.0, 18828.237811116913, 20920.316388644744, 11588.463078554045, 85359.25571432778, 187500.0, 187500.0, -6833.978811976768, 22245.998352289003, 0.63, -0.65, 0.47400000000000003, 192.0, 19.0, 176.0, 235.0, 176.0, 14.0, 208.0, 0.0, 0.0, 0.0, 1.6635888397505543E9, 0.0, 2022-09-19 17:00:39.750
117.0, 18826.829651216227, 20933.77213880684, 11602.768195005441, 85358.20518233838, 187500.0, 187500.0, -6818.869032724981, 22247.20534648959, 0.63, -0.65, 0.47400000000000003, 192.0, 0.0, 0.0, 0.0, 0.0, 0.0, 0.0, 0.0, 0.0, 0.0, 1.6635888397546988E9, 0.0, 2022-09-19 17:00:39.754
118.0, 18830.80826172927, 20956.95089780699, 11605.450404340078, 85369.82808945514, 187500.0, 187500.0, -6811.761177988194, 22244.567840643864, 0.63, -0.65, 0.47400000000000003, 192.0, 0.0, 0.0, 0.0, 0.0, 0.0, 0.0, 0.0, 0.0, 0.0, 1.6635888397585511E9, 0.0, 2022-09-19 17:00:39.758
119.0, 18816.23492434441, 20974.49701720441, 11607.126785174225, 85376.77948198075, 187500.0, 187500.0, -6815.650381523416, 22245.685427866632, 0.63, -0.65, 0.47400000000000003, 192.0, 0.0, 0.0, 0.0, 0.0, 0.0, 0.0, 0.0, 0.0, 0.0, 1.663588839762553E9, 0.0, 2022-09-19 17:00:39.762
120.0, 18818.850078445685, 20969.937261335526, 11609.563125319853, 85360.46270852837, 187500.0, 187500.0, -6826.334515373053, 22244.992523788515, 0.63, -0.65, 0.47400000000000003, 192.0, 0.0, 0.0, 0.0, 0.0, 0.0, 0.0, 0.0, 0.0, 0.0, 1.6635888397655478E9, 0.0, 2022-09-19 17:00:39.765
121.0, 18849.069636949258, 20971.904214847593, 11614.72637828903, 85349.48800200081, 187500.0, 187500.0, -6816.365637345986, 22246.78066334494, 0.63, -0.65, 0.47400000000000003, 192.0, 0.0, 0.0, 0.0, 0.0, 0.0, 0.0, 0.0, 0.0, 0.0, 1.6635888397696197E9, 0.0, 2022-09-19 17:00:39.769
122.0, 18824.661532004062, 20984.935281865037, 11605.763328762452, 85350.0020921233, 187500.0, 187500.0, -6811.492957054729, 22239.181070230137, 0.63, -0.65, 0.47400000000000003, 192.0, 0.0, 0.0, 0.0, 0.0, 0.0, 0.0, 0.0, 0.0, 0.0, 1.6635888397735493E9, 0.0, 2022-09-19 17:00:39.773
123.0, 18792.318557777235, 21004.06837511878, 11600.465965326544, 85360.84268818412, 187500.0, 187500.0, -6806.754387230205, 22236.230639962036, 0.63, -0.65, 0.47400000000000003, 192.0, 0.0, 0.0, 0.0, 0.0, 0.0, 0.0, 0.0, 0.0, 0.0, 1.6635888397785487E9, 0.0, 2022-09-19 17:00:39.778
124.0, 18818.24658134539, 21024.40846257311, 11607.596171807787, 85370.83391795564, 187500.0, 187500.0, -6806.240297107733, 22237.72820684054, 0.63, -0.65, 0.47400000000000003, 192.0, 0.0, 0.0, 0.0, 0.0, 0.0, 0.0, 0.0, 0.0, 0.0, 1.6635888397836673E9, 0.0, 2022-09-19 17:00:39.783
125.0, 18835.97151469845, 21020.3627968267, 11609.25020089748, 85355.0982898591, 187500.0, 187500.0, -6820.612468792495, 22235.82830856184, 0.63, -0.65, 0.47400000000000003, 192.0, 0.0, 0.0, 0.0, 0.0, 0.0, 0.0, 0.0, 0.0, 0.0, 1.6635888397867048E9, 0.0, 2022-09-19 17:00:39.786
126.0, 18837.044398432303, 21021.010997415902, 11604.332817117313, 85346.4928682438, 187500.0, 187500.0, -6813.68342801135, 22241.21507897557, 0.632, -0.652, 0.47200000000000003, 192.0, 19.0, 192.0, 235.0, 160.0, 14.0, 192.0, 0.0, 0.0, 0.0, 1.663588839790584E9, 0.0, 2022-09-19 17:00:39.790
127.0, 18851.483625350433, 21040.769939514394, 11606.880915985217, 85356.64056022651, 187500.0, 187500.0, -6798.81951794857, 22246.44538717811, 0.632, -0.652, 0.47200000000000003, 192.0, 0.0, 0.0, 0.0, 0.0, 0.0, 0.0, 0.0, 0.0, 0.0, 1.6635888397936165E9, 0.0, 2022-09-19 17:00:39.793
128.0, 18854.612869574175, 21066.943832271558, 11606.836212496306, 85377.33827559213, 187500.0, 187500.0, -6785.900209653403, 22250.580459902343, 0.632, -0.652, 0.47200000000000003, 192.0, 0.0, 0.0, 0.0, 0.0, 0.0, 0.0, 0.0, 0.0, 0.0, 1.663588839797574E9, 0.0, 2022-09-19 17:00:39.797
129.0, 18856.937450997528, 21084.780524346894, 11608.669055541643, 85389.09529317562, 187500.0, 187500.0, -6791.041110878124, 22256.83894834983, 0.632, -0.652, 0.47200000000000003, 192.0, 0.0, 0.0, 0.0, 0.0, 0.0, 0.0, 0.0, 0.0, 0.0, 1.6635888398016715E9, 0.0, 2022-09-19 17:00:39.801
130.0, 18832.372883841144, 21077.784428332383, 11601.91882871614, 85374.96899067986, 187500.0, 187500.0, -6809.4813000537515, 22254.715532626575, 0.632, -0.652, 0.47200000000000003, 192.0, 0.0, 0.0, 0.0, 0.0, 0.0, 0.0, 0.0, 0.0, 0.0, 1.6635888398057E9, 0.0, 2022-09-19 17:00:39.805
131.0, 18811.384595797612, 21076.152750987145, 11591.927598944618, 85362.18379285143, 187500.0, 187500.0, -6812.25291636621, 22251.273363980457, 0.632, -0.652, 0.47200000000000003, 192.0, 0.0, 0.0, 0.0, 0.0, 0.0, 0.0, 0.0, 0.0, 0.0, 1.6635888398106568E9, 0.0, 2022-09-19 17:00:39.810
132.0, 18839.86071823367, 21092.581283161795, 11591.078232655314, 85366.02829289774, 187500.0, 187500.0, -6801.680541238849, 22243.763177843473, 0.632, -0.652, 0.47200000000000003, 192.0, 0.0, 0.0, 0.0, 0.0, 0.0, 0.0, 0.0, 0.0, 0.0, 1.663588839814662E9, 0.0, 2022-09-19 17:00:39.814
133.0, 18868.158026714093, 21122.152641076165, 11603.930485717117, 85384.64729602901, 187500.0, 187500.0, -6781.899247395903, 22247.227698234048, 0.632, -0.652, 0.47200000000000003, 192.0, 0.0, 0.0, 0.0, 0.0, 0.0, 0.0, 0.0, 0.0, 0.0, 1.6635888398186336E9, 0.0, 2022-09-19 17:00:39.818
134.0, 18868.850930792207, 21142.60448725277, 11617.497994601488, 85393.94562172242, 187500.0, 187500.0, -6780.647549706406, 22257.174224516657, 0.632, -0.652, 0.47200000000000003, 192.0, 0.0, 0.0, 0.0, 0.0, 0.0, 0.0, 0.0, 0.0, 0.0, 1.66358883982169E9, 0.0, 2022-09-19 17:00:39.821
135.0, 18854.769331785363, 21138.916449417648, 11617.028607967926, 85377.51708954776, 187500.0, 187500.0, -6793.34334055702, 22259.565861173378, 0.632, -0.652, 0.47200000000000003, 192.0, 0.0, 0.0, 0.0, 0.0, 0.0, 0.0, 0.0, 0.0, 0.0, 1.66358883982562E9, 0.0, 2022-09-19 17:00:39.825
136.0, 18840.263049633868, 21135.60839123826, 11614.43580561111, 85360.50741201728, 187500.0, 187500.0, -6804.228640106755, 22252.16743375867, 0.632, -0.656, 0.464, 192.0, 19.0, 192.0, 235.0, 128.0, 14.0, 128.0, 0.0, 0.0, 0.0, 1.6635888398296623E9, 0.0, 2022-09-19 17:00:39.829
137.0, 18821.353473824678, 21150.494653045494, 11627.846852284296, 85362.16144110697, 187500.0, 187500.0, -6800.540602271629, 22249.01583779047, 0.632, -0.656, 0.464, 192.0, 0.0, 0.0, 0.0, 0.0, 0.0, 0.0, 0.0, 0.0, 0.0, 1.6635888398336875E9, 0.0, 2022-09-19 17:00:39.833
138.0, 18801.035738114802, 21178.344926636808, 11640.766160579464, 85377.4053308255, 187500.0, 187500.0, -6790.035282377635, 22248.814672090375, 0.632, -0.656, 0.464, 192.0, 0.0, 0.0, 0.0, 0.0, 0.0, 0.0, 0.0, 0.0, 0.0, 1.6635888398386931E9, 0.0, 2022-09-19 17:00:39.838
139.0, 18810.4905260194, 21199.53438038044, 11650.042134528416, 85384.46848207337, 187500.0, 187500.0, -6791.331683556043, 22255.922526827162, 0.632, -0.656, 0.464, 192.0, 0.0, 0.0, 0.0, 0.0, 0.0, 0.0, 0.0, 0.0, 0.0, 1.6635888398427172E9, 0.0, 2022-09-19 17:00:39.842
140.0, 18825.846174460195, 21198.930883280147, 11657.93230032114, 85368.151708621, 187500.0, 187500.0, -6797.120785369967, 22253.039151792425, 0.632, -0.656, 0.464, 192.0, 0.0, 0.0, 0.0, 0.0, 0.0, 0.0, 0.0, 0.0, 0.0, 1.6635888398467357E9, 0.0, 2022-09-19 17:00:39.846
141.0, 18856.06573296377, 21207.044566517423, 11661.150951522703, 85357.82520268264, 187500.0, 187500.0, -6784.737918941727, 22254.380256459746, 0.632, -0.656, 0.464, 192.0, 0.0, 0.0, 0.0, 0.0, 0.0, 0.0, 0.0, 0.0, 0.0, 1.6635888398496768E9, 0.0, 2022-09-19 17:00:39.849
142.0, 18854.992849229915, 21224.166002770187, 11650.690335117619, 85359.25571432778, 187500.0, 187500.0, -6778.5464857276065, 22251.809805847384, 0.632, -0.656, 0.464, 192.0, 0.0, 0.0, 0.0, 0.0, 0.0, 0.0, 0.0, 0.0, 0.0, 1.6635888398537047E9, 0.0, 2022-09-19 17:00:39.853
143.0, 18849.136692182623, 21254.363209529307, 11656.635899142731, 85377.33827559213, 187500.0, 187500.0, -6766.118915810456, 22262.985678075038, 0.632, -0.656, 0.464, 192.0, 0.0, 0.0, 0.0, 0.0, 0.0, 0.0, 0.0, 0.0, 0.0, 1.6635888398579495E9, 0.0, 2022-09-19 17:00:39.857
144.0, 18840.91125022307, 21271.663459737716, 11662.35794572329, 85384.44613032891, 187500.0, 187500.0, -6770.075174579046, 22271.68050666815, 0.632, -0.656, 0.464, 192.0, 0.0, 0.0, 0.0, 0.0, 0.0, 0.0, 0.0, 0.0, 0.0, 1.6635888398617291E9, 0.0, 2022-09-19 17:00:39.861
145.0, 18843.1464246686, 21266.679020724183, 11662.559111423387, 85367.57056326515, 187500.0, 187500.0, -6780.826363662049, 22272.865149124285, 0.632, -0.656, 0.464, 192.0, 0.0, 0.0, 0.0, 0.0, 0.0, 0.0, 0.0, 0.0, 0.0, 1.6635888398657787E9, 0.0, 2022-09-19 17:00:39.865
146.0, 18852.44475036201, 21270.83644519287, 11656.948823565106, 85359.21101083887, 187500.0, 187500.0, -6776.1995525597995, 22268.39480023322, 0.626, -0.652, 0.47800000000000004, 192.0, 19.0, 144.0, 235.0, 160.0, 14.0, 240.0, 0.0, 0.0, 0.0, 1.6635888398718402E9, 0.0, 2022-09-19 17:00:39.871
147.0, 18865.20759644599, 21286.370907589306, 11651.4502944291, 85362.49671727381, 187500.0, 187500.0, -6767.52707571114, 22268.864186866784, 0.626, -0.652, 0.47800000000000004, 192.0, 0.0, 0.0, 0.0, 0.0, 0.0, 0.0, 0.0, 0.0, 0.0, 1.6635888398758695E9, 0.0, 2022-09-19 17:00:39.875
148.0, 18854.903442252093, 21312.477745113105, 11639.469759401056, 85376.06422615818, 187500.0, 187500.0, -6764.509590209675, 22267.098399054816, 0.626, -0.652, 0.47800000000000004, 192.0, 0.0, 0.0, 0.0, 0.0, 0.0, 0.0, 0.0, 0.0, 0.0, 1.6635888398787963E9, 0.0, 2022-09-19 17:00:39.878
149.0, 18831.747034996395, 21327.676931342714, 11630.886689530218, 85377.74060699232, 187500.0, 187500.0, -6780.312273539576, 22268.327744999857, 0.626, -0.652, 0.47800000000000004, 192.0, 0.0, 0.0, 0.0, 0.0, 0.0, 0.0, 0.0, 0.0, 0.0, 1.6635888398818312E9, 0.0, 2022-09-19 17:00:39.881
150.0, 18823.00750291437, 21320.703187072657, 11638.240413456013, 85358.87573467204, 187500.0, 187500.0, -6788.515363754674, 22269.244166522523, 0.626, -0.652, 0.47800000000000004, 192.0, 0.0, 0.0, 0.0, 0.0, 0.0, 0.0, 0.0, 0.0, 0.0, 1.663588839885861E9, 0.0, 2022-09-19 17:00:39.885
151.0, 18840.48656707842, 21328.056910998454, 11649.863320572773, 85355.2994555592, 187500.0, 187500.0, -6776.043090348612, 22272.75339040201, 0.626, -0.652, 0.47800000000000004, 192.0, 0.0, 0.0, 0.0, 0.0, 0.0, 0.0, 0.0, 0.0, 0.0, 1.6635888398898113E9, 0.0, 2022-09-19 17:00:39.889
152.0, 18832.77521524134, 21346.787672852002, 11655.183035753136, 85367.05647314269, 187500.0, 187500.0, -6765.023680332146, 22276.732000915054, 0.626, -0.652, 0.47800000000000004, 192.0, 0.0, 0.0, 0.0, 0.0, 0.0, 0.0, 0.0, 0.0, 0.0, 1.663588839893806E9, 0.0, 2022-09-19 17:00:39.893
153.0, 18809.551752752275, 21372.447475486693, 11655.898291575706, 85383.19443263942, 187500.0, 187500.0, -6763.257892520177, 22264.371486231266, 0.626, -0.652, 0.47800000000000004, 192.0, 0.0, 0.0, 0.0, 0.0, 0.0, 0.0, 0.0, 0.0, 0.0, 1.663588839898776E9, 0.0, 2022-09-19 17:00:39.898
154.0, 18832.68580826352, 21386.976109382646, 11653.64076538572, 85384.40142684, 187500.0, 187500.0, -6772.064479835568, 22255.07316053786, 0.626, -0.652, 0.47800000000000004, 192.0, 0.0, 0.0, 0.0, 0.0, 0.0, 0.0, 0.0, 0.0, 0.0, 1.663588839901858E9, 0.0, 2022-09-19 17:00:39.901
155.0, 18852.511805595375, 21388.786600683525, 11652.366715951768, 85370.85626970009, 187500.0, 187500.0, -6775.86427639297, 22256.7048378831, 0.626, -0.652, 0.47800000000000004, 192.0, 0.0, 0.0, 0.0, 0.0, 0.0, 0.0, 0.0, 0.0, 0.0, 1.6635888399058871E9, 0.0, 2022-09-19 17:00:39.905
156.0, 18840.084235678227, 21388.8983594058, 11648.678678116641, 85355.61237998157, 187500.0, 187500.0, -6775.506648481685, 22257.48714893903, 0.624, -0.646, 0.47800000000000004, 192.0, 19.0, 128.0, 235.0, 208.0, 14.0, 240.0, 0.0, 0.0, 0.0, 1.6635888399098341E9, 0.0, 2022-09-19 17:00:39.909
157.0, 18834.608058286674, 21401.37063281186, 11656.054753786893, 85356.93113290443, 187500.0, 187500.0, -6760.888607607914, 22268.283041510946, 0.624, -0.646, 0.47800000000000004, 192.0, 0.0, 0.0, 0.0, 0.0, 0.0, 0.0, 0.0, 0.0, 0.0, 1.6635888399138255E9, 0.0, 2022-09-19 17:00:39.913
158.0, 18827.67901750553, 21425.84579299042, 11635.11116923227, 85373.8514034571, 187500.0, 187500.0, -6765.068383821057, 22268.260689766492, 0.624, -0.646, 0.47800000000000004, 192.0, 0.0, 0.0, 0.0, 0.0, 0.0, 0.0, 0.0, 0.0, 0.0, 1.6635888399178305E9, 0.0, 2022-09-19 17:00:39.917
159.0, 18807.29422656229, 21435.032359961555, 11622.102453959282, 85374.41019706849, 187500.0, 187500.0, -6787.040148620624, 22260.83991060733, 0.624, -0.646, 0.47800000000000004, 192.0, 0.0, 0.0, 0.0, 0.0, 0.0, 0.0, 0.0, 0.0, 0.0, 1.6635888399218807E9, 0.0, 2022-09-19 17:00:39.921
160.0, 18793.90553163356, 21433.28892389404, 11649.572747894854, 85362.25084808479, 187500.0, 187500.0, -6777.965340371769, 22263.320954241866, 0.624, -0.646, 0.47800000000000004, 192.0, 0.0, 0.0, 0.0, 0.0, 0.0, 0.0, 0.0, 0.0, 0.0, 1.6635888399268637E9, 0.0, 2022-09-19 17:00:39.926
161.0, 18784.026060584314, 21441.357903642405, 11656.077105531349, 85358.71927246086, 187500.0, 187500.0, -6762.676747164339, 22261.73398038554, 0.624, -0.646, 0.47800000000000004, 192.0, 0.0, 0.0, 0.0, 0.0, 0.0, 0.0, 0.0, 0.0, 0.0, 1.6635888399298296E9, 0.0, 2022-09-19 17:00:39.929
162.0, 18787.91526411954, 21459.663982351303, 11644.700067603597, 85366.00594115329, 187500.0, 187500.0, -6760.1957035298, 22257.93418382814, 0.624, -0.646, 0.47800000000000004, 192.0, 0.0, 0.0, 0.0, 0.0, 0.0, 0.0, 0.0, 0.0, 0.0, 1.663588839933889E9, 0.0, 2022-09-19 17:00:39.933
163.0, 18795.49250548989, 21485.34613673045, 11641.481416402034, 85381.98743843884, 187500.0, 187500.0, -6763.548465198096, 22260.661096651686, 0.624, -0.646, 0.47800000000000004, 192.0, 0.0, 0.0, 0.0, 0.0, 0.0, 0.0, 0.0, 0.0, 0.0, 1.663588839937938E9, 0.0, 2022-09-19 17:00:39.937
164.0, 18819.58768601271, 21499.785363648578, 11659.474570688555, 85385.42960708495, 187500.0, 187500.0, -6765.113087309967, 22264.3044309979, 0.624, -0.646, 0.47800000000000004, 192.0, 0.0, 0.0, 0.0, 0.0, 0.0, 0.0, 0.0, 0.0, 0.0, 1.6635888399418993E9, 0.0, 2022-09-19 17:00:39.941
165.0, 18835.233907131424, 21499.11481131492, 11687.50365823551, 85372.3538365786, 187500.0, 187500.0, -6749.869197591448, 22262.02455306346, 0.624, -0.646, 0.47800000000000004, 192.0, 0.0, 0.0, 0.0, 0.0, 0.0, 0.0, 0.0, 0.0, 0.0, 1.6635888399459238E9, 0.0, 2022-09-19 17:00:39.945
166.0, 18836.99969494339, 21502.042889838565, 11668.616434170775, 85364.17309810795, 187500.0, 187500.0, -6750.04801154709, 22246.288924966924, 0.632, -0.648, 0.47600000000000003, 192.0, 19.0, 192.0, 235.0, 192.0, 14.0, 224.0, 0.0, 0.0, 0.0, 1.6635888399498792E9, 0.0, 2022-09-19 17:00:39.949
167.0, 18828.193107628, 21518.247904568663, 11664.771934124463, 85369.4481097994, 187500.0, 187500.0, -6745.354145211476, 22258.11299778378, 0.632, -0.648, 0.47600000000000003, 192.0, 0.0, 0.0, 0.0, 0.0, 0.0, 0.0, 0.0, 0.0, 0.0, 1.6635888399549556E9, 0.0, 2022-09-19 17:00:39.954
168.0, 18813.887991176605, 21550.8367479845, 11672.773858639463, 85390.9057844765, 187500.0, 187500.0, -6734.692363106295, 22257.777721616952, 0.632, -0.648, 0.47600000000000003, 192.0, 0.0, 0.0, 0.0, 0.0, 0.0, 0.0, 0.0, 0.0, 0.0, 1.6635888399579132E9, 0.0, 2022-09-19 17:00:39.957
169.0, 18825.28738084881, 21562.45965510126, 11661.441524200622, 85390.68226703195, 187500.0, 187500.0, -6751.590281914507, 22251.630991891743, 0.632, -0.648, 0.47600000000000003, 192.0, 0.0, 0.0, 0.0, 0.0, 0.0, 0.0, 0.0, 0.0, 0.0, 1.6635888399618912E9, 0.0, 2022-09-19 17:00:39.961
170.0, 18830.696503006995, 21555.083579431008, 11656.948823565106, 85374.92428719095, 187500.0, 187500.0, -6763.10143030899, 22245.752483099997, 0.632, -0.648, 0.47600000000000003, 192.0, 0.0, 0.0, 0.0, 0.0, 0.0, 0.0, 0.0, 0.0, 0.0, 1.6635888399659476E9, 0.0, 2022-09-19 17:00:39.965
171.0, 18819.52063077934, 21560.202128911274, 11654.668945630663, 85370.9456766779, 187500.0, 187500.0, -6754.33954648251, 22246.937125556127, 0.632, -0.648, 0.47600000000000003, 192.0, 0.0, 0.0, 0.0, 0.0, 0.0, 0.0, 0.0, 0.0, 0.0, 1.6635888399700975E9, 0.0, 2022-09-19 17:00:39.970
