%OpenBCI Raw EEG Data
%Number of channels = 8
%Sample Rate = 250 Hz
%Board = OpenBCI_GUI$BoardCytonSerial
Sample Index, EXG Channel 0, EXG Channel 1, EXG Channel 2, EXG Channel 3, EXG Channel 4, EXG Channel 5, EXG Channel 6, EXG Channel 7, Accel Channel 0, Accel Channel 1, Accel Channel 2, Other, Other, Other, Other, Other, Other, Other, Analog Channel 0, Analog Channel 1, Analog Channel 2, Timestamp, Other, Timestamp (Formatted)
43.0, 2276.2569518395608, 9708.077872762427, -77059.24833527188, -37902.12129379765, -58290.60027487281, -187500.02235174447, -53085.30367437645, -39995.87625215963, 0.0, 0.0, 0.0, 192.0, 0.0, 0.0, 0.0, 0.0, 0.0, 0.0, 0.0, 0.0, 0.0, 1.6635922366534865E9, 0.0, 2022-09-19 17:57:16.653
44.0, 2302.319085874449, 9738.297431266003, -77067.25025978687, -37938.66639598208, -58295.96469354209, -187500.02235174447, -53127.03438127451, -40004.48167377492, 0.0, 0.0, 0.0, 192.0, 0.0, 0.0, 0.0, 0.0, 0.0, 0.0, 0.0, 0.0, 0.0, 1.663592236653512E9, 0.0, 2022-09-19 17:57:16.653
45.0, 2197.422349145693, 9669.163485665738, -76964.74515971485, -37850.98050248391, -58190.777384135414, -187500.02235174447, -53090.46692734563, -39890.8677567086, 0.0, 0.0, 0.0, 192.0, 0.0, 0.0, 0.0, 0.0, 0.0, 0.0, 0.0, 0.0, 0.0, 1.663592236653529E9, 0.0, 2022-09-19 17:57:16.653
0.0, 0.0, 0.0, 0.0, 0.0, 0.0, 0.0, 0.0, 0.0, 0.512, -0.852, 0.168, 192.0, 16.0, 0.0, 229.0, 96.0, 5.0, 64.0, 0.0, 0.0, 0.0, 1.663592236745326E9, 0.0, 2022-09-19 17:57:16.745
1.0, -210.30756357998416, 7916.630258158477, -76490.17292143976, -34464.82532797162, -61881.519780340175, -187500.02235174447, -51720.72967537995, -39265.10831893782, 0.512, -0.852, 0.168, 192.0, 0.0, 0.0, 0.0, 0.0, 0.0, 0.0, 0.0, 0.0, 0.0, 1.663592236762232E9, 0.0, 2022-09-19 17:57:16.762
2.0, -177.29403701949562, 7933.729342666787, -76546.70048316724, -34485.098360192584, -61935.9686298333, -187500.02235174447, -51741.53914946785, -39314.863302095335, 0.512, -0.852, 0.168, 192.0, 0.0, 0.0, 0.0, 0.0, 0.0, 0.0, 0.0, 0.0, 0.0, 1.6635922367652223E9, 0.0, 2022-09-19 17:57:16.765
3.0, 7.979572770544621, 8033.68634387092, -76704.21322634378, -34602.60148079413, -62069.14032329802, -187500.02235174447, -51899.40952055568, -39433.707527364204, 0.512, -0.852, 0.168, 192.0, 0.0, 0.0, 0.0, 0.0, 0.0, 0.0, 0.0, 0.0, 0.0, 1.663592236769253E9, 0.0, 2022-09-19 17:57:16.769
4.0, 165.2464467580851, 8124.814406015206, -76824.01857662424, -34735.12497366965, -62146.65617306902, -187500.02235174447, -52138.819055416476, -39530.15530468885, 0.512, -0.852, 0.168, 192.0, 0.0, 0.0, 0.0, 0.0, 0.0, 0.0, 0.0, 0.0, 0.0, 1.6635922367732368E9, 0.0, 2022-09-19 17:57:16.773
5.0, 1.8775465342457933, 8025.840881567107, -76648.78090009461, -34609.955204719925, -61988.42817406991, -187500.02235174447, -52023.461702282635, -39364.573581763936, 0.512, -0.852, 0.168, 192.0, 0.0, 0.0, 0.0, 0.0, 0.0, 0.0, 0.0, 0.0, 0.0, 1.6635922367772632E9, 0.0, 2022-09-19 17:57:16.777
6.0, -187.55348772448156, 7915.959705824817, -76501.66171808979, -34470.63678153, -61905.16792597389, -187500.02235174447, -51716.415788700084, -39269.489260851056, 0.512, -0.852, 0.168, 192.0, 0.0, 0.0, 0.0, 0.0, 0.0, 0.0, 0.0, 0.0, 0.0, 1.6635922367802892E9, 0.0, 2022-09-19 17:57:16.780
7.0, -187.26291504656257, 7911.422301700391, -76514.91630255179, -34472.20140364187, -61933.08525479856, -187500.02235174447, -51649.31585184525, -39303.84389207887, 0.512, -0.852, 0.168, 192.0, 0.0, 0.0, 0.0, 0.0, 0.0, 0.0, 0.0, 0.0, 0.0, 1.6635922367852252E9, 0.0, 2022-09-19 17:57:16.785
8.0, -22.821131088868512, 8001.321017899635, -76653.83239434152, -34591.157387633015, -62057.71858188136, -187500.02235174447, -51760.38167004367, -39425.99617552712, 0.506, -0.852, 0.18, 192.0, 15.0, 208.0, 229.0, 96.0, 5.0, 160.0, 0.0, 0.0, 0.0, 1.6635922367892606E9, 0.0, 2022-09-19 17:57:16.789
9.0, 106.39430360726162, 8078.166315336981, -76738.05376744912, -34678.57506019772, -62122.67275126848, -187500.02235174447, -51912.39588408422, -39480.825004675986, 0.506, -0.852, 0.18, 192.0, 0.0, 0.0, 0.0, 0.0, 0.0, 0.0, 0.0, 0.0, 0.0, 1.6635922367932656E9, 0.0, 2022-09-19 17:57:16.793
10.0, -73.62664623578146, 7967.569883772121, -76573.5225765136, -34573.812433935695, -61958.58859522207, -187500.02235174447, -51858.79640088039, -39329.034308079994, 0.506, -0.852, 0.18, 192.0, 0.0, 0.0, 0.0, 0.0, 0.0, 0.0, 0.0, 0.0, 0.0, 1.6635922367962794E9, 0.0, 2022-09-19 17:57:16.796
11.0, -203.13265360983058, 7876.419469883379, -76495.87261627587, -34485.29952589268, -61879.9551582283, -187500.02235174447, -51747.887044893156, -39262.96255147011, 0.506, -0.852, 0.18, 192.0, 0.0, 0.0, 0.0, 0.0, 0.0, 0.0, 0.0, 0.0, 0.0, 1.6635922368013957E9, 0.0, 2022-09-19 17:57:16.801
12.0, -158.8985513327779, 7896.938371293351, -76552.08725358096, -34494.754313797275, -61921.417644192894, -187500.02235174447, -51764.74026021246, -39294.27734545199, 0.506, -0.852, 0.18, 192.0, 0.0, 0.0, 0.0, 0.0, 0.0, 0.0, 0.0, 0.0, 0.0, 1.663592236805278E9, 0.0, 2022-09-19 17:57:16.805
13.0, 22.888186322234432, 8000.002264976772, -76697.17242684036, -34618.96295773541, -62061.607785416585, -187500.02235174447, -51855.91302584566, -39429.371288939874, 0.506, -0.852, 0.18, 192.0, 0.0, 0.0, 0.0, 0.0, 0.0, 0.0, 0.0, 0.0, 0.0, 1.6635922368102636E9, 0.0, 2022-09-19 17:57:16.810
14.0, 128.99191725157706, 8074.366518779579, -76754.2140786903, -34702.022040131335, -62109.9099051845, -187500.02235174447, -51938.39096288574, -39501.12038864141, 0.506, -0.852, 0.18, 192.0, 0.0, 0.0, 0.0, 0.0, 0.0, 0.0, 0.0, 0.0, 0.0, 1.6635922368153389E9, 0.0, 2022-09-19 17:57:16.815
15.0, -64.61889322029272, 7962.9654244143285, -76606.62551005192, -34562.36834077458, -61918.78013834717, -187500.02235174447, -51934.546462839426, -39345.21697106564, 0.506, -0.852, 0.18, 192.0, 0.0, 0.0, 0.0, 0.0, 0.0, 0.0, 0.0, 0.0, 0.0, 1.6635922368183544E9, 0.0, 2022-09-19 17:57:16.818
16.0, -158.92090307723322, 7893.473850902778, -76533.40119521633, -34465.451176816365, -61839.096169364, -187500.02235174447, -51834.50005465747, -39266.58353407187, 0.506, -0.852, 0.18, 192.0, 0.0, 0.0, 0.0, 0.0, 0.0, 0.0, 0.0, 0.0, 0.0, 1.663592236821332E9, 0.0, 2022-09-19 17:57:16.821
17.0, -141.03950751298757, 7912.718702878798, -76549.20387854624, -34478.10226417807, -61882.078573951556, -187500.02235174447, -51729.67037316208, -39302.547490900455, 0.506, -0.852, 0.18, 192.0, 0.0, 0.0, 0.0, 0.0, 0.0, 0.0, 0.0, 0.0, 0.0, 1.6635922368243332E9, 0.0, 2022-09-19 17:57:16.824
18.0, 15.735628096536171, 8009.412349392456, -76681.12387432145, -34571.68901821244, -62012.47865110382, -187500.02235174447, -51798.75961527343, -39435.76388785409, 0.5, -0.848, 0.176, 192.0, 15.0, 160.0, 229.0, 128.0, 5.0, 128.0, 0.0, 0.0, 0.0, 1.6635922368292997E9, 0.0, 2022-09-19 17:57:16.829
19.0, 126.75674280604635, 8070.857294900095, -76732.48818307975, -34634.74328932086, -62057.696230136906, -187500.02235174447, -51898.02371239945, -39465.08937657945, 0.5, -0.848, 0.176, 192.0, 0.0, 0.0, 0.0, 0.0, 0.0, 0.0, 0.0, 0.0, 0.0, 1.6635922368333683E9, 0.0, 2022-09-19 17:57:16.833
20.0, -70.11742235629825, 7950.068467863616, -76553.7189309262, -34488.607584072066, -61876.02125120417, -187500.02235174447, -51810.941316001576, -39284.35317091384, 0.5, -0.848, 0.176, 192.0, 0.0, 0.0, 0.0, 0.0, 0.0, 0.0, 0.0, 0.0, 0.0, 1.6635922368373237E9, 0.0, 2022-09-19 17:57:16.837
21.0, -195.73422619512394, 7861.309690631591, -76495.09030521993, -34421.842923384065, -61810.061253316555, -187500.02235174447, -51739.23691978895, -39228.89849292022, 0.5, -0.848, 0.176, 192.0, 0.0, 0.0, 0.0, 0.0, 0.0, 0.0, 0.0, 0.0, 0.0, 1.663592236841355E9, 0.0, 2022-09-19 17:57:16.841
22.0, -140.8383418128898, 7887.818859555586, -76563.17371883079, -34474.52598506522, -61863.79484698711, -187500.02235174447, -51777.39134757416, -39290.85752855033, 0.5, -0.848, 0.176, 192.0, 0.0, 0.0, 0.0, 0.0, 0.0, 0.0, 0.0, 0.0, 0.0, 1.6635922368454268E9, 0.0, 2022-09-19 17:57:16.845
23.0, 51.118439569287254, 8003.355026645068, -76712.99746191473, -34602.04268718275, -62007.67302604592, -187500.02235174447, -51878.62239821225, -39446.44802170373, 0.5, -0.848, 0.176, 192.0, 0.0, 0.0, 0.0, 0.0, 0.0, 0.0, 0.0, 0.0, 0.0, 1.6635922368493469E9, 0.0, 2022-09-19 17:57:16.849
24.0, 157.51274317654887, 8068.666823943476, -76780.18680574738, -34676.42929273001, -62037.91493629396, -187500.02235174447, -52050.55201656247, -39497.49940603965, 0.5, -0.848, 0.176, 192.0, 0.0, 0.0, 0.0, 0.0, 0.0, 0.0, 0.0, 0.0, 0.0, 1.6635922368523247E9, 0.0, 2022-09-19 17:57:16.852
25.0, -33.79583761642428, 7951.543682997666, -76594.62262327941, -34534.16043927198, -61856.53053003914, -187500.02235174447, -51923.59410805632, -39328.34140400188, 0.5, -0.848, 0.176, 192.0, 0.0, 0.0, 0.0, 0.0, 0.0, 0.0, 0.0, 0.0, 0.0, 1.6635922368563914E9, 0.0, 2022-09-19 17:57:16.856
26.0, -175.57295269643697, 7866.517647089679, -76489.92705225076, -34403.89447258645, -61784.28969195959, -187500.02235174447, -51690.621875598656, -39240.119068636785, 0.5, -0.848, 0.176, 192.0, 0.0, 0.0, 0.0, 0.0, 0.0, 0.0, 0.0, 0.0, 0.0, 1.6635922368613656E9, 0.0, 2022-09-19 17:57:16.861
27.0, -146.20276048216348, 7887.908266533407, -76542.00661683163, -34395.84784458254, -61828.881422147926, -187500.02235174447, -51693.03586399983, -39264.70598753762, 0.5, -0.848, 0.176, 192.0, 0.0, 0.0, 0.0, 0.0, 0.0, 0.0, 0.0, 0.0, 0.0, 1.6635922368654244E9, 0.0, 2022-09-19 17:57:16.865
28.0, 41.57424468687114, 7995.509564341255, -76701.06163037558, -34523.92334031145, -61973.47485702931, -187500.02235174447, -51840.870301827235, -39406.68426831773, 0.502, -0.848, 0.178, 192.0, 15.0, 176.0, 229.0, 128.0, 5.0, 144.0, 0.0, 0.0, 0.0, 1.6635922368693757E9, 0.0, 2022-09-19 17:57:16.869
29.0, 138.06672550043172, 8049.757248134286, -76729.67186327837, -34602.31090811621, -62010.95873248085, -187500.02235174447, -51909.22193637156, -39460.90960036631, 0.502, -0.848, 0.178, 192.0, 0.0, 0.0, 0.0, 0.0, 0.0, 0.0, 0.0, 0.0, 0.0, 1.6635922368734236E9, 0.0, 2022-09-19 17:57:16.873
30.0, -84.80251846343499, 7922.955801839328, -76530.07078529248, -34444.7311097063, -61823.829927901024, -187500.02235174447, -51771.44578354905, -39279.05580747793, 0.502, -0.848, 0.178, 192.0, 0.0, 0.0, 0.0, 0.0, 0.0, 0.0, 0.0, 0.0, 0.0, 1.6635922368774664E9, 0.0, 2022-09-19 17:57:16.877
31.0, -198.88582216332225, 7844.881158456941, -76478.7511800231, -34364.80127153412, -61769.47048538572, -187500.02235174447, -51698.13206173564, -39226.01511788549, 0.502, -0.848, 0.178, 192.0, 0.0, 0.0, 0.0, 0.0, 0.0, 0.0, 0.0, 0.0, 0.0, 1.6635922368804057E9, 0.0, 2022-09-19 17:57:16.880
32.0, -145.73337384860204, 7872.485562859245, -76546.74518665615, -34392.65154512543, -61835.229317573234, -187500.02235174447, -51740.533320967355, -39269.17633642868, 0.502, -0.848, 0.178, 192.0, 0.0, 0.0, 0.0, 0.0, 0.0, 0.0, 0.0, 0.0, 0.0, 1.6635922368854895E9, 0.0, 2022-09-19 17:57:16.885
33.0, 53.59948320382634, 7992.849706751073, -76716.57374102756, -34527.678433379944, -61986.21535136883, -187500.02235174447, -51891.608761740776, -39417.99425101212, 0.502, -0.848, 0.178, 192.0, 0.0, 0.0, 0.0, 0.0, 0.0, 0.0, 0.0, 0.0, 0.0, 1.663592236889449E9, 0.0, 2022-09-19 17:57:16.889
34.0, 142.29120520248475, 8044.929271331939, -76747.2626861647, -34594.82307372369, -62015.7867092832, -187500.02235174447, -51983.608541918824, -39457.825059631476, 0.502, -0.848, 0.178, 192.0, 0.0, 0.0, 0.0, 0.0, 0.0, 0.0, 0.0, 0.0, 0.0, 1.6635922368934577E9, 0.0, 2022-09-19 17:57:16.893
35.0, -74.92304741418927, 7914.909173835418, -76541.24665752014, -34439.031414870195, -61835.89986990689, -187500.02235174447, -51815.344609659274, -39282.45327263514, 0.502, -0.848, 0.178, 192.0, 0.0, 0.0, 0.0, 0.0, 0.0, 0.0, 0.0, 0.0, 0.0, 1.6635922368984516E9, 0.0, 2022-09-19 17:57:16.898
36.0, -184.04426384499834, 7848.166864891871, -76477.27596488905, -34350.98789346074, -61778.053555256556, -187500.02235174447, -51701.90950654859, -39215.71096369159, 0.502, -0.848, 0.178, 192.0, 0.0, 0.0, 0.0, 0.0, 0.0, 0.0, 0.0, 0.0, 0.0, 1.6635922369034564E9, 0.0, 2022-09-19 17:57:16.903
37.0, -140.41365866823898, 7874.363109393491, -76530.27195099258, -34397.18894924986, -61844.90762292238, -187500.02235174447, -51696.43332915704, -39269.422205617695, 0.502, -0.848, 0.178, 192.0, 0.0, 0.0, 0.0, 0.0, 0.0, 0.0, 0.0, 0.0, 0.0, 1.6635922369064505E9, 0.0, 2022-09-19 17:57:16.906
38.0, 44.41291623269513, 7987.686453781897, -76680.65448768789, -34522.80575308869, -61999.02290094172, -187500.02235174447, -51782.30873135433, -39409.34412590792, 0.504, -0.856, 0.17400000000000002, 192.0, 15.0, 192.0, 229.0, 64.0, 5.0, 112.0, 0.0, 0.0, 0.0, 1.6635922369094048E9, 0.0, 2022-09-19 17:57:16.909
39.0, 105.14260591776443, 8031.629983381032, -76705.19670309982, -34542.587046931636, -62012.724520292824, -187500.02235174447, -51879.114136590266, -39436.345033209924, 0.504, -0.856, 0.17400000000000002, 192.0, 0.0, 0.0, 0.0, 0.0, 0.0, 0.0, 0.0, 0.0, 0.0, 1.66359223691249E9, 0.0, 2022-09-19 17:57:16.912
40.0, -127.2261294396078, 7900.469946917289, -76529.89197133684, -34367.57288784658, -61829.26140180366, -187500.02235174447, -51794.91511522712, -39247.450440818124, 0.504, -0.856, 0.17400000000000002, 192.0, 0.0, 0.0, 0.0, 0.0, 0.0, 0.0, 0.0, 0.0, 0.0, 1.6635922369175193E9, 0.0, 2022-09-19 17:57:16.917
41.0, -229.95474695619907, 7832.252422839692, -76488.4518371167, -34286.54781419609, -61787.7318606057, -187500.02235174447, -51736.10767556521, -39191.86165235778, 0.504, -0.856, 0.17400000000000002, 192.0, 0.0, 0.0, 0.0, 0.0, 0.0, 0.0, 0.0, 0.0, 0.0, 1.6635922369215117E9, 0.0, 2022-09-19 17:57:16.921
42.0, -146.96271979364394, 7861.019117953672, -76567.42055027731, -34338.13564039894, -61848.32743982404, -187500.02235174447, -51809.68961831208, -39252.32312110938, 0.504, -0.856, 0.17400000000000002, 192.0, 0.0, 0.0, 0.0, 0.0, 0.0, 0.0, 0.0, 0.0, 0.0, 1.6635922369254615E9, 0.0, 2022-09-19 17:57:16.925
43.0, 79.415748049706, 7986.926494470417, -76712.21515085878, -34486.238299159806, -62001.816868998634, -187500.02235174447, -51889.84297392881, -39410.014678241576, 0.504, -0.856, 0.17400000000000002, 192.0, 0.0, 0.0, 0.0, 0.0, 0.0, 0.0, 0.0, 0.0, 0.0, 1.6635922369295683E9, 0.0, 2022-09-19 17:57:16.929
44.0, 127.58375735089271, 8026.869061812051, -76683.29199353361, -34497.01183998726, -62001.66040678745, -187500.02235174447, -51875.31434003286, -39421.48112314715, 0.504, -0.856, 0.17400000000000002, 192.0, 0.0, 0.0, 0.0, 0.0, 0.0, 0.0, 0.0, 0.0, 0.0, 1.6635922369325252E9, 0.0, 2022-09-19 17:57:16.932
45.0, -116.87727175680062, 7885.5613333656, -76493.68214531924, -34326.490381537726, -61813.056387073564, -187500.02235174447, -51755.82191417479, -39238.62150175828, 0.504, -0.856, 0.17400000000000002, 192.0, 0.0, 0.0, 0.0, 0.0, 0.0, 0.0, 0.0, 0.0, 0.0, 1.6635922369365344E9, 0.0, 2022-09-19 17:57:16.936
46.0, -207.89357517881098, 7819.288411055614, -76449.53745002001, -34272.33210472252, -61767.905863273845, -187500.02235174447, -51672.85223875669, -39191.90635584669, 0.504, -0.856, 0.17400000000000002, 192.0, 0.0, 0.0, 0.0, 0.0, 0.0, 0.0, 0.0, 0.0, 0.0, 1.6635922369405317E9, 0.0, 2022-09-19 17:57:16.940
47.0, -138.5584638784485, 7854.939443461829, -76520.43718343225, -34330.804268217595, -61838.0456373746, -187500.02235174447, -51697.48386114644, -39257.10639442282, 0.504, -0.856, 0.17400000000000002, 192.0, 0.0, 0.0, 0.0, 0.0, 0.0, 0.0, 0.0, 0.0, 0.0, 1.663592236944549E9, 0.0, 2022-09-19 17:57:16.944
48.0, 69.82684967837926, 7982.00911069025, -76681.88383363294, -34444.06055737264, -61986.0812409021, -187500.02235174447, -51827.25808945395, -39395.55309957899, 0.504, -0.86, 0.17400000000000002, 192.0, 15.0, 192.0, 229.0, 32.0, 5.0, 112.0, 0.0, 0.0, 0.0, 1.6635922369495547E9, 0.0, 2022-09-19 17:57:16.949
49.0, 119.04539096896542, 8014.039160494704, -76692.38915352692, -34448.57560975261, -61977.006432653245, -187500.02235174447, -51939.88852976424, -39387.908802975275, 0.504, -0.86, 0.17400000000000002, 192.0, 0.0, 0.0, 0.0, 0.0, 0.0, 0.0, 0.0, 0.0, 0.0, 1.6635922369535108E9, 0.0, 2022-09-19 17:57:16.953
50.0, -98.66060002572537, 7881.873295530474, -76499.47124713317, -34306.66438420587, -61795.77848860961, -187500.02235174447, -51801.88885949718, -39218.52728349296, 0.504, -0.86, 0.17400000000000002, 192.0, 0.0, 0.0, 0.0, 0.0, 0.0, 0.0, 0.0, 0.0, 0.0, 1.663592236956626E9, 0.0, 2022-09-19 17:57:16.956
51.0, -213.14623512580815, 7817.813195921564, -76436.70754870267, -34242.85015378596, -61757.46759861322, -187500.02235174447, -51637.71529647295, -39187.905393589186, 0.504, -0.86, 0.17400000000000002, 192.0, 0.0, 0.0, 0.0, 0.0, 0.0, 0.0, 0.0, 0.0, 0.0, 1.6635922369606245E9, 0.0, 2022-09-19 17:57:16.960
52.0, -157.3339292209064, 7848.5021410587005, -76505.19329371373, -34274.120244278936, -61826.62389595794, -187500.02235174447, -51644.130247131616, -39240.23082735906, 0.504, -0.86, 0.17400000000000002, 192.0, 0.0, 0.0, 0.0, 0.0, 0.0, 0.0, 0.0, 0.0, 0.0, 1.6635922369646397E9, 0.0, 2022-09-19 17:57:16.964
53.0, 45.105820310809655, 7958.76329645673, -76662.54957467908, -34403.55919641962, -61985.36598507953, -187500.02235174447, -51750.681012950066, -39375.1459568913, 0.504, -0.86, 0.17400000000000002, 192.0, 0.0, 0.0, 0.0, 0.0, 0.0, 0.0, 0.0, 0.0, 0.0, 1.663592236968646E9, 0.0, 2022-09-19 17:57:16.968
54.0, 70.31858805639602, 7972.397860574468, -76652.2454204852, -34435.20926656834, -61977.07348788661, -187500.02235174447, -51823.100664985264, -39381.493852316606, 0.504, -0.86, 0.17400000000000002, 192.0, 0.0, 0.0, 0.0, 0.0, 0.0, 0.0, 0.0, 0.0, 0.0, 1.6635922369736288E9, 0.0, 2022-09-19 17:57:16.973
55.0, -163.6818246462136, 7828.653791982388, -76472.13506366433, -34282.01041007166, -61797.477221188215, -187500.02235174447, -51729.51391095089, -39201.405847240196, 0.504, -0.86, 0.17400000000000002, 192.0, 0.0, 0.0, 0.0, 0.0, 0.0, 0.0, 0.0, 0.0, 0.0, 1.6635922369776697E9, 0.0, 2022-09-19 17:57:16.977
56.0, -235.1850551587409, 7768.974634286718, -76458.07581640194, -34224.8793512439, -61768.30819467404, -187500.02235174447, -51713.73357936544, -39177.44477718411, 0.504, -0.86, 0.17400000000000002, 192.0, 0.0, 0.0, 0.0, 0.0, 0.0, 0.0, 0.0, 0.0, 0.0, 1.6635922369816668E9, 0.0, 2022-09-19 17:57:16.981
57.0, -134.35633592085077, 7820.048370367095, -76559.84330890696, -34296.94137536781, -61850.696724736306, -187500.02235174447, -51808.46027236704, -39257.039339189454, 0.504, -0.86, 0.17400000000000002, 192.0, 0.0, 0.0, 0.0, 0.0, 0.0, 0.0, 0.0, 0.0, 0.0, 1.663592236984724E9, 0.0, 2022-09-19 17:57:16.984
58.0, 101.70043727164713, 7958.875055179007, -76714.29386309313, -34477.834043244606, -62018.0889389621, -187500.02235174447, -51901.063549645376, -39431.8076290855, 0.502, -0.864, 0.176, 192.0, 15.0, 176.0, 229.0, 0.0, 5.0, 128.0, 0.0, 0.0, 0.0, 1.6635922369886608E9, 0.0, 2022-09-19 17:57:16.988
59.0, 103.42152159470578, 7980.2209711338255, -76648.75854835016, -34454.4317667999, -61988.182304880895, -187500.02235174447, -51859.06462181385, -39399.75522753659, 0.502, -0.864, 0.176, 192.0, 0.0, 0.0, 0.0, 0.0, 0.0, 0.0, 0.0, 0.0, 0.0, 1.663592236992696E9, 0.0, 2022-09-19 17:57:16.992
60.0, -140.07838250140935, 7831.2465943392035, -76465.67540951674, -34243.40894739735, -61801.70170089027, -187500.02235174447, -51740.689783178546, -39183.5468034204, 0.502, -0.864, 0.176, 192.0, 0.0, 0.0, 0.0, 0.0, 0.0, 0.0, 0.0, 0.0, 0.0, 1.66359223699664E9, 0.0, 2022-09-19 17:57:16.996
61.0, -192.91790639375526, 7780.77635535912, -76434.71824344614, -34193.74337121766, -61777.919444789826, -187500.02235174447, -51671.399375367095, -39152.90256177218, 0.502, -0.864, 0.176, 192.0, 0.0, 0.0, 0.0, 0.0, 0.0, 0.0, 0.0, 0.0, 0.0, 1.6635922370006435E9, 0.0, 2022-09-19 17:57:17.000
62.0, -117.86074851283414, 7824.3175535580585, -76504.07570649097, -34278.56824142554, -61869.44983833431, -187500.02235174447, -51664.73855551941, -39240.92373143718, 0.502, -0.864, 0.176, 192.0, 0.0, 0.0, 0.0, 0.0, 0.0, 0.0, 0.0, 0.0, 0.0, 1.6635922370056307E9, 0.0, 2022-09-19 17:57:17.005
63.0, 84.511945785516, 7950.806075430642, -76666.23761251422, -34427.52026647571, -62037.37849442703, -187500.02235174447, -51782.48754530997, -39399.732875792135, 0.502, -0.864, 0.176, 192.0, 0.0, 0.0, 0.0, 0.0, 0.0, 0.0, 0.0, 0.0, 0.0, 1.6635922370096364E9, 0.0, 2022-09-19 17:57:17.009
64.0, 99.95700120413318, 7962.339575569579, -76648.40092043889, -34441.132478848995, -62013.12685169302, -187500.02235174447, -51864.563150949856, -39380.62213428284, 0.502, -0.864, 0.176, 192.0, 0.0, 0.0, 0.0, 0.0, 0.0, 0.0, 0.0, 0.0, 0.0, 1.6635922370126565E9, 0.0, 2022-09-19 17:57:17.012
65.0, -119.33596364688441, 7833.146492617905, -76473.4985200761, -34260.03864527209, -61831.89890764939, -187500.02235174447, -51755.59839673024, -39205.943251364624, 0.502, -0.864, 0.176, 192.0, 0.0, 0.0, 0.0, 0.0, 0.0, 0.0, 0.0, 0.0, 0.0, 1.663592237016632E9, 0.0, 2022-09-19 17:57:17.016
66.0, -174.85769687386716, 7793.002759576173, -76463.95432519368, -34208.42846732479, -61812.43053822882, -187500.02235174447, -51708.83854732973, -39184.75379762099, 0.502, -0.864, 0.176, 192.0, 0.0, 0.0, 0.0, 0.0, 0.0, 0.0, 0.0, 0.0, 0.0, 1.6635922370206525E9, 0.0, 2022-09-19 17:57:17.020
67.0, -85.02603590798806, 7845.328193346048, -76545.56054420001, -34279.68582864831, -61898.95414101531, -187500.02235174447, -51745.495408236435, -39253.6642257767, 0.502, -0.864, 0.176, 192.0, 0.0, 0.0, 0.0, 0.0, 0.0, 0.0, 0.0, 0.0, 0.0, 1.6635922370246625E9, 0.0, 2022-09-19 17:57:17.024
68.0, 136.59151036638147, 7983.059642679649, -76710.76228746919, -34428.99548160976, -62058.90322433749, -187500.02235174447, -51879.98585462402, -39414.060343987985, 0.51, -0.858, 0.176, 192.0, 15.0, 240.0, 229.0, 48.0, 5.0, 128.0, 0.0, 0.0, 0.0, 1.6635922370286896E9, 0.0, 2022-09-19 17:57:17.028
69.0, 140.7712865795239, 7993.050872451172, -76685.3483540235, -34430.515400232725, -62033.2434217028, -187500.02235174447, -51941.47550362057, -39401.45396011519, 0.51, -0.858, 0.176, 192.0, 0.0, 0.0, 0.0, 0.0, 0.0, 0.0, 0.0, 0.0, 0.0, 1.6635922370336502E9, 0.0, 2022-09-19 17:57:17.033
70.0, -99.57702154839296, 7855.274719628659, -76500.25355818911, -34261.13388075041, -61864.68891676533, -187500.02235174447, -51781.30290285384, -39244.54471403894, 0.51, -0.858, 0.176, 192.0, 0.0, 0.0, 0.0, 0.0, 0.0, 0.0, 0.0, 0.0, 0.0, 1.6635922370376842E9, 0.0, 2022-09-19 17:57:17.037
71.0, -147.23094072710762, 7816.78501567662, -76486.01549697107, -34213.56936854951, -61845.86874793396, -187500.02235174447, -51731.97260284098, -39213.74401017952, 0.51, -0.858, 0.176, 192.0, 0.0, 0.0, 0.0, 0.0, 0.0, 0.0, 0.0, 0.0, 0.0, 1.6635922370407128E9, 0.0, 2022-09-19 17:57:17.040
72.0, -32.767657371480155, 7878.386423395446, -76574.88603292538, -34260.95506679476, -61927.229097751275, -187500.02235174447, -51797.46321409503, -39283.906136024736, 0.51, -0.858, 0.176, 192.0, 0.0, 0.0, 0.0, 0.0, 0.0, 0.0, 0.0, 0.0, 0.0, 1.6635922370446784E9, 0.0, 2022-09-19 17:57:17.044
73.0, 173.49424046209342, 8004.472613867833, -76718.58539802855, -34417.61844368201, -62091.380309031054, -187500.02235174447, -51877.10247958929, -39447.58796067095, 0.51, -0.858, 0.176, 192.0, 0.0, 0.0, 0.0, 0.0, 0.0, 0.0, 0.0, 0.0, 0.0, 1.6635922370486956E9, 0.0, 2022-09-19 17:57:17.048
74.0, 146.2698157155294, 7997.901200997973, -76654.1453187639, -34378.74876007423, -62042.67585786294, -187500.02235174447, -51869.21231379656, -39370.586201022415, 0.51, -0.858, 0.176, 192.0, 0.0, 0.0, 0.0, 0.0, 0.0, 0.0, 0.0, 0.0, 0.0, 1.663592237052724E9, 0.0, 2022-09-19 17:57:17.052
75.0, -82.45558529562776, 7857.062859185084, -76473.34205786492, -34187.68604847027, -61878.2564256497, -187500.02235174447, -51734.09601856423, -39191.70519014659, 0.51, -0.858, 0.176, 192.0, 0.0, 0.0, 0.0, 0.0, 0.0, 0.0, 0.0, 0.0, 0.0, 1.6635922370567498E9, 0.0, 2022-09-19 17:57:17.056
76.0, -119.11244620233134, 7818.148472088394, -76464.82604322744, -34149.46456545169, -61877.07178319357, -187500.02235174447, -51685.19040169602, -39197.49429196052, 0.51, -0.858, 0.176, 192.0, 0.0, 0.0, 0.0, 0.0, 0.0, 0.0, 0.0, 0.0, 0.0, 1.6635922370617647E9, 0.0, 2022-09-19 17:57:17.061
77.0, -18.462540920083633, 7880.554542607611, -76558.323390284, -34234.401194381855, -61972.826656440106, -187500.02235174447, -51731.05618131831, -39285.18018545869, 0.51, -0.858, 0.176, 192.0, 0.0, 0.0, 0.0, 0.0, 0.0, 0.0, 0.0, 0.0, 0.0, 1.663592237066816E9, 0.0, 2022-09-19 17:57:17.066
78.0, 205.7254559666462, 8018.733026830319, -76724.95564519831, -34400.09467602905, -62134.519175829795, -187500.02235174447, -51885.19381108211, -39440.345995467425, 0.51, -0.858, 0.176, 192.0, 0.0, 0.0, 0.0, 0.0, 0.0, 0.0, 0.0, 0.0, 0.0, 1.6635922370697956E9, 0.0, 2022-09-19 17:57:17.069
79.0, 195.48835700611556, 8019.761207075264, -76664.49417644671, -34397.09954227204, -62077.254006535295, -187500.02235174447, -51926.61159355779, -39414.50737887709, 0.508, -0.858, 0.176, 192.0, 15.0, 224.0, 229.0, 48.0, 5.0, 128.0, 0.0, 0.0, 0.0, 1.6635922370727713E9, 0.0, 2022-09-19 17:57:17.072
80.0, -16.36147694128477, 7888.601170611521, -76503.8074855575, -34204.852188211946, -61903.06686199509, -187500.02235174447, -51831.147292989175, -39235.84988544582, 0.508, -0.858, 0.176, 192.0, 0.0, 0.0, 0.0, 0.0, 0.0, 0.0, 0.0, 0.0, 0.0, 1.6635922370767572E9, 0.0, 2022-09-19 17:57:17.076
81.0, -69.08924211135412, 7844.434123567835, -76488.2059679277, -34161.981542346664, -61890.08049846655, -187500.02235174447, -51760.24755957694, -39206.32323102036, 0.508, -0.858, 0.176, 192.0, 0.0, 0.0, 0.0, 0.0, 0.0, 0.0, 0.0, 0.0, 0.0, 1.6635922370806928E9, 0.0, 2022-09-19 17:57:17.080
82.0, 28.096142780320978, 7904.783833597164, -76567.06292236602, -34235.943464749274, -61976.49234253077, -187500.02235174447, -51773.85977195022, -39291.70689483963, 0.508, -0.858, 0.176, 192.0, 0.0, 0.0, 0.0, 0.0, 0.0, 0.0, 0.0, 0.0, 0.0, 1.663592237084817E9, 0.0, 2022-09-19 17:57:17.084
83.0, 246.74090704213467, 8036.592070650109, -76728.75544175571, -34390.63988812445, -62143.63868756756, -187500.02235174447, -51887.87602041674, -39446.1127455369, 0.508, -0.858, 0.176, 192.0, 0.0, 0.0, 0.0, 0.0, 0.0, 0.0, 0.0, 0.0, 0.0, 1.6635922370887852E9, 0.0, 2022-09-19 17:57:17.088
84.0, 194.86250816136697, 8021.1917187204035, -76642.94709479179, -34340.57198054457, -62076.24817803481, -187500.02235174447, -51863.13263930472, -39375.86121271386, 0.508, -0.858, 0.176, 192.0, 0.0, 0.0, 0.0, 0.0, 0.0, 0.0, 0.0, 0.0, 0.0, 1.663592237093773E9, 0.0, 2022-09-19 17:57:17.093
85.0, -43.45179122111693, 7878.788754795642, -76467.1953281397, -34164.10495806992, -61906.263161452196, -187500.02235174447, -51717.06398928929, -39208.69251593263, 0.508, -0.858, 0.176, 192.0, 0.0, 0.0, 0.0, 0.0, 0.0, 0.0, 0.0, 0.0, 0.0, 1.6635922370967913E9, 0.0, 2022-09-19 17:57:17.096
86.0, -80.1086521278205, 7847.116332902472, -76485.32259289296, -34148.481088695655, -61905.36909167399, -187500.02235174447, -51729.51391095089, -39205.4068094977, 0.508, -0.858, 0.176, 192.0, 0.0, 0.0, 0.0, 0.0, 0.0, 0.0, 0.0, 0.0, 0.0, 1.663592237100813E9, 0.0, 2022-09-19 17:57:17.100
87.0, 38.62381441877061, 7906.191993497849, -76581.21157660623, -34244.191258453284, -61999.17936315291, -187500.02235174447, -51794.088100682275, -39306.99548804706, 0.508, -0.858, 0.176, 192.0, 0.0, 0.0, 0.0, 0.0, 0.0, 0.0, 0.0, 0.0, 0.0, 1.6635922371047945E9, 0.0, 2022-09-19 17:57:17.104
88.0, 254.92164551277705, 8037.709657872875, -76729.00131094472, -34431.208304310836, -62155.64157434006, -187500.02235174447, -51896.77201470995, -39451.09718455043, 0.508, -0.858, 0.176, 192.0, 0.0, 0.0, 0.0, 0.0, 0.0, 0.0, 0.0, 0.0, 0.0, 1.6635922371087995E9, 0.0, 2022-09-19 17:57:17.108
89.0, 207.04420888950932, 8016.766073318252, -76635.10163248797, -34385.29782119964, -62075.95760535689, -187500.02235174447, -51881.66223545817, -39369.02157891054, 0.508, -0.856, 0.176, 192.0, 15.0, 224.0, 229.0, 64.0, 5.0, 128.0, 0.0, 0.0, 0.0, 1.6635922371128464E9, 0.0, 2022-09-19 17:57:17.112
90.0, -27.716163124580756, 7873.625501826466, -76459.70749374718, -34224.409964610335, -61914.15332724492, -187500.02235174447, -51727.256384760905, -39212.581719467846, 0.508, -0.856, 0.176, 192.0, 0.0, 0.0, 0.0, 0.0, 0.0, 0.0, 0.0, 0.0, 0.0, 1.66359223711683E9, 0.0, 2022-09-19 17:57:17.116
91.0, -64.2389135645525, 7838.332097331536, -76470.92806946374, -34216.519798817615, -61925.150385516936, -187500.02235174447, -51710.29141071933, -39218.43787651514, 0.508, -0.856, 0.176, 192.0, 0.0, 0.0, 0.0, 0.0, 0.0, 0.0, 0.0, 0.0, 0.0, 1.6635922371218617E9, 0.0, 2022-09-19 17:57:17.121
92.0, 54.38179425976208, 7906.66138013141, -76581.03276265059, -34312.38643078643, -62023.81098554266, -187500.02235174447, -51787.516687812415, -39314.61743290632, 0.508, -0.856, 0.176, 192.0, 0.0, 0.0, 0.0, 0.0, 0.0, 0.0, 0.0, 0.0, 0.0, 1.663592237124875E9, 0.0, 2022-09-19 17:57:17.124
93.0, 261.80598280501164, 8029.707733357875, -76731.83998249055, -34450.00612139775, -62176.652214128044, -187500.02235174447, -51899.00718915548, -39458.80853638751, 0.508, -0.856, 0.176, 192.0, 0.0, 0.0, 0.0, 0.0, 0.0, 0.0, 0.0, 0.0, 0.0, 1.6635922371289032E9, 0.0, 2022-09-19 17:57:17.128
94.0, 213.48151129263775, 8007.020712735738, -76651.26194372916, -34393.54561490365, -62082.3055007822, -187500.02235174447, -51954.14894272673, -39379.12456740434, 0.508, -0.856, 0.176, 192.0, 0.0, 0.0, 0.0, 0.0, 0.0, 0.0, 0.0, 0.0, 0.0, 1.663592237132894E9, 0.0, 2022-09-19 17:57:17.132
95.0, 13.54515713991608, 7880.778060052164, -76488.29537490552, -34250.60620911195, -61933.57699317658, -187500.02235174447, -51810.96366774603, -39225.34456555183, 0.508, -0.856, 0.176, 192.0, 0.0, 0.0, 0.0, 0.0, 0.0, 0.0, 0.0, 0.0, 0.0, 1.66359223713683E9, 0.0, 2022-09-19 17:57:17.136
96.0, -37.930910340656084, 7850.402039337402, -76464.75898799408, -34216.13981916187, -61945.98221134928, -187500.02235174447, -51661.45284908448, -39216.51562649198, 0.508, -0.856, 0.176, 192.0, 0.0, 0.0, 0.0, 0.0, 0.0, 0.0, 0.0, 0.0, 0.0, 1.6635922371409605E9, 0.0, 2022-09-19 17:57:17.140
97.0, 76.64413173724792, 7912.003447056228, -76554.23302104867, -34273.762616367654, -62047.23561373182, -187500.02235174447, -51690.73363432093, -39306.9284328137, 0.508, -0.856, 0.176, 192.0, 0.0, 0.0, 0.0, 0.0, 0.0, 0.0, 0.0, 0.0, 0.0, 1.6635922371448529E9, 0.0, 2022-09-19 17:57:17.144
98.0, 290.68443664126835, 8038.424913695445, -76703.83324668804, -34415.897359358954, -62192.99133932488, -187500.02235174447, -51841.004412293965, -39451.879495606365, 0.508, -0.856, 0.176, 192.0, 0.0, 0.0, 0.0, 0.0, 0.0, 0.0, 0.0, 0.0, 0.0, 1.6635922371498823E9, 0.0, 2022-09-19 17:57:17.149
99.0, 231.25114813460686, 8004.472613867833, -76623.2328561822, -34360.7109022988, -62093.839000921136, -187500.02235174447, -51892.56988675236, -39357.33161656042, 0.508, -0.854, 0.17200000000000001, 192.0, 15.0, 224.0, 229.0, 80.0, 5.0, 96.0, 0.0, 0.0, 0.0, 1.6635922371528971E9, 0.0, 2022-09-19 17:57:17.152
100.0, 34.39933471671757, 7875.726565805265, -76492.09517146292, -34235.027043226604, -61947.16685380541, -187500.02235174447, -51817.49037712698, -39216.18035032515, 0.508, -0.854, 0.17200000000000001, 192.0, 0.0, 0.0, 0.0, 0.0, 0.0, 0.0, 0.0, 0.0, 0.0, 1.6635922371559508E9, 0.0, 2022-09-19 17:57:17.155
101.0, 9.343029182318352, 7854.1347806614385, -76495.55969185349, -34243.81127879754, -61964.489455758274, -187500.02235174447, -51747.41765825959, -39219.24253931553, 0.508, -0.854, 0.17200000000000001, 192.0, 0.0, 0.0, 0.0, 0.0, 0.0, 0.0, 0.0, 0.0, 0.0, 1.6635922371609511E9, 0.0, 2022-09-19 17:57:17.160
102.0, 117.61487932382576, 7920.765330882708, -76591.4263238223, -34313.41461103137, -62066.88279710803, -187500.02235174447, -51786.264990122916, -39325.16745628923, 0.508, -0.854, 0.17200000000000001, 192.0, 0.0, 0.0, 0.0, 0.0, 0.0, 0.0, 0.0, 0.0, 0.0, 1.6635922371648788E9, 0.0, 2022-09-19 17:57:17.164
103.0, 326.2684138141172, 8044.63869865402, -76749.94489549934, -34485.388932870505, -62223.52382225083, -187500.02235174447, -51936.08873320684, -39487.99991464614, 0.508, -0.854, 0.17200000000000001, 192.0, 0.0, 0.0, 0.0, 0.0, 0.0, 0.0, 0.0, 0.0, 0.0, 1.6635922371689155E9, 0.0, 2022-09-19 17:57:17.168
104.0, 249.28900591003966, 8007.713616813853, -76644.8916965594, -34432.951740378354, -62119.901134956024, -187500.02235174447, -51931.953660482606, -39391.93211697723, 0.508, -0.854, 0.17200000000000001, 192.0, 0.0, 0.0, 0.0, 0.0, 0.0, 0.0, 0.0, 0.0, 0.0, 1.6635922371729078E9, 0.0, 2022-09-19 17:57:17.172
105.0, 30.040744547932693, 7879.839286785042, -76466.61418278387, -34272.868546589445, -61972.64784248446, -187500.02235174447, -51733.24665227493, -39224.62930972926, 0.508, -0.854, 0.17200000000000001, 192.0, 0.0, 0.0, 0.0, 0.0, 0.0, 0.0, 0.0, 0.0, 0.0, 1.6635922371769238E9, 0.0, 2022-09-19 17:57:17.176
106.0, -13.99219202902222, 7850.960832948785, -76471.26334563058, -34228.38857512338, -61987.46704905833, -187500.02235174447, -51669.67829104404, -39209.76539966648, 0.508, -0.854, 0.17200000000000001, 192.0, 0.0, 0.0, 0.0, 0.0, 0.0, 0.0, 0.0, 0.0, 0.0, 1.6635922371808872E9, 0.0, 2022-09-19 17:57:17.180
107.0, 109.90352748674482, 7917.881955847974, -76576.54006201508, -34304.58567197152, -62097.594093989625, -187500.02235174447, -51727.99399232793, -39305.81084559093, 0.508, -0.854, 0.17200000000000001, 192.0, 0.0, 0.0, 0.0, 0.0, 0.0, 0.0, 0.0, 0.0, 0.0, 1.6635922371849399E9, 0.0, 2022-09-19 17:57:17.184
108.0, 316.36659102041614, 8040.436570696423, -76716.37257532748, -34448.24033358578, -62242.947488182486, -187500.02235174447, -51860.02574682543, -39464.105899823415, 0.508, -0.854, 0.17200000000000001, 192.0, 0.0, 0.0, 0.0, 0.0, 0.0, 0.0, 0.0, 0.0, 0.0, 1.6635922371889296E9, 0.0, 2022-09-19 17:57:17.188
109.0, 235.8332557479448, 7989.519296827233, -76617.66727181284, -34388.203547978825, -62131.077007183674, -187500.02235174447, -51897.86725018827, -39374.38599757982, 0.506, -0.858, 0.164, 192.0, 15.0, 208.0, 229.0, 48.0, 5.0, 32.0, 0.0, 0.0, 0.0, 1.6635922371929212E9, 0.0, 2022-09-19 17:57:17.192
110.0, 38.42264871867284, 7868.059917457094, -76470.43633108573, -34231.51781934712, -61978.23577859829, -187500.02235174447, -51777.100774896244, -39216.26975730297, 0.506, -0.858, 0.164, 192.0, 0.0, 0.0, 0.0, 0.0, 0.0, 0.0, 0.0, 0.0, 0.0, 1.6635922371969743E9, 0.0, 2022-09-19 17:57:17.196
111.0, 24.162235756186934, 7853.017193438673, -76494.73267730864, -34221.21366515323, -62003.582656810606, -187500.02235174447, -51761.20868458852, -39235.71577497909, 0.506, -0.858, 0.164, 192.0, 0.0, 0.0, 0.0, 0.0, 0.0, 0.0, 0.0, 0.0, 0.0, 1.6635922372009847E9, 0.0, 2022-09-19 17:57:17.200
112.0, 152.68476637420255, 7923.089912306061, -76604.34563211747, -34332.25713160719, -62125.556126303214, -187500.02235174447, -51806.00158047695, -39364.640636997305, 0.506, -0.858, 0.164, 192.0, 0.0, 0.0, 0.0, 0.0, 0.0, 0.0, 0.0, 0.0, 0.0, 1.6635922372059631E9, 0.0, 2022-09-19 17:57:17.205
113.0, 341.3781930659048, 8039.5648526626655, -76734.34337786953, -34473.14017690899, -62253.87749122113, -187500.02235174447, -51932.08777094934, -39489.698647224744, 0.506, -0.858, 0.164, 192.0, 0.0, 0.0, 0.0, 0.0, 0.0, 0.0, 0.0, 0.0, 0.0, 1.6635922372089438E9, 0.0, 2022-09-19 17:57:17.208
114.0, 230.84881673441134, 7975.571808287122, -76615.65561481185, -34377.67587634038, -62121.77868149027, -187500.02235174447, -51937.69805880762, -39355.65523572627, 0.506, -0.858, 0.164, 192.0, 0.0, 0.0, 0.0, 0.0, 0.0, 0.0, 0.0, 0.0, 0.0, 1.6635922372119465E9, 0.0, 2022-09-19 17:57:17.211
115.0, 27.962032313589134, 7848.5021410587005, -76483.48974984762, -34223.73941227668, -61984.11428739003, -187500.02235174447, -51826.453426653556, -39216.69444044762, 0.506, -0.858, 0.164, 192.0, 0.0, 0.0, 0.0, 0.0, 0.0, 0.0, 0.0, 0.0, 0.0, 1.6635922372170124E9, 0.0, 2022-09-19 17:57:17.217
116.0, 29.638413147737165, 7851.430219582346, -76474.16907240976, -34183.10394085693, -61995.26780787323, -187500.02235174447, -51730.676201662565, -39229.27847257596, 0.506, -0.858, 0.164, 192.0, 0.0, 0.0, 0.0, 0.0, 0.0, 0.0, 0.0, 0.0, 0.0, 1.6635922372220016E9, 0.0, 2022-09-19 17:57:17.222
117.0, 158.07153678793154, 7930.555394954133, -76565.83357642098, -34250.136822478395, -62099.18106784595, -187500.02235174447, -51723.30012599232, -39332.85645638186, 0.506, -0.858, 0.164, 192.0, 0.0, 0.0, 0.0, 0.0, 0.0, 0.0, 0.0, 0.0, 0.0, 1.6635922372261207E9, 0.0, 2022-09-19 17:57:17.226
118.0, 357.06911767353034, 8045.35395447659, -76690.46690350377, -34374.434873394355, -62216.661836703046, -187500.02235174447, -51828.30862144335, -39454.561704941, 0.506, -0.858, 0.164, 192.0, 0.0, 0.0, 0.0, 0.0, 0.0, 0.0, 0.0, 0.0, 0.0, 1.66359223723001E9, 0.0, 2022-09-19 17:57:17.230
119.0, 242.91875874027716, 7983.730195013309, -76564.98421013168, -34281.33985773801, -62070.21320703188, -187500.02235174447, -51822.340705673785, -39334.95752036065, 0.506, -0.856, 0.168, 192.0, 15.0, 208.0, 229.0, 64.0, 5.0, 64.0, 0.0, 0.0, 0.0, 1.6635922372330053E9, 0.0, 2022-09-19 17:57:17.233
120.0, 63.00956761951061, 7868.171676179371, -76461.31681934797, -34163.814385392, -61926.7150076288, -187500.02235174447, -51786.28734186737, -39203.19398679662, 0.506, -0.856, 0.168, 192.0, 0.0, 0.0, 0.0, 0.0, 0.0, 0.0, 0.0, 0.0, 0.0, 1.6635922372369895E9, 0.0, 2022-09-19 17:57:17.236
121.0, 68.46339326660554, 7865.9365017338405, -76491.62578482936, -34202.9746416777, -61943.21059503682, -187500.02235174447, -51779.51476329741, -39243.404775071715, 0.506, -0.856, 0.168, 192.0, 0.0, 0.0, 0.0, 0.0, 0.0, 0.0, 0.0, 0.0, 0.0, 1.6635922372400331E9, 0.0, 2022-09-19 17:57:17.240
122.0, 186.03356910152067, 7944.100552094049, -76600.92581521581, -34329.73138448374, -62053.18117775693, -187500.02235174447, -51793.08227218178, -39379.28102961553, 0.506, -0.856, 0.168, 192.0, 0.0, 0.0, 0.0, 0.0, 0.0, 0.0, 0.0, 0.0, 0.0, 1.6635922372450671E9, 0.0, 2022-09-19 17:57:17.245
123.0, 372.58122832551345, 8062.11776281807, -76720.55235154061, -34433.42112701191, -62157.56382436321, -187500.02235174447, -51903.25402060199, -39478.85805116392, 0.506, -0.856, 0.168, 192.0, 0.0, 0.0, 0.0, 0.0, 0.0, 0.0, 0.0, 0.0, 0.0, 1.663592237249052E9, 0.0, 2022-09-19 17:57:17.249
124.0, 237.12965692635262, 7982.590256046088, -76588.20767262075, -34301.47877949224, -62010.981084225314, -187500.02235174447, -51881.3940145247, -39339.27140704053, 0.506, -0.856, 0.168, 192.0, 0.0, 0.0, 0.0, 0.0, 0.0, 0.0, 0.0, 0.0, 0.0, 1.6635922372530668E9, 0.0, 2022-09-19 17:57:17.253
125.0, 44.055288321410224, 7850.111466659483, -76460.98154318113, -34139.85331533591, -61868.44400983382, -187500.02235174447, -51747.104733837215, -39201.98699259603, 0.506, -0.856, 0.168, 192.0, 0.0, 0.0, 0.0, 0.0, 0.0, 0.0, 0.0, 0.0, 0.0, 1.663592237257059E9, 0.0, 2022-09-19 17:57:17.257
126.0, 51.72193666958054, 7846.825760224553, -76477.27596488905, -34142.08848978144, -61875.59656805952, -187500.02235174447, -51710.1573002526, -39219.89073990473, 0.506, -0.856, 0.168, 192.0, 0.0, 0.0, 0.0, 0.0, 0.0, 0.0, 0.0, 0.0, 0.0, 1.6635922372610955E9, 0.0, 2022-09-19 17:57:17.261
127.0, 196.1812610842301, 7929.191938542359, -76597.21542563623, -34249.086290488995, -61979.48747628778, -187500.02235174447, -51776.56433302932, -39348.70384320067, 0.506, -0.856, 0.168, 192.0, 0.0, 0.0, 0.0, 0.0, 0.0, 0.0, 0.0, 0.0, 0.0, 1.6635922372640898E9, 0.0, 2022-09-19 17:57:17.264
128.0, 374.86110625995474, 8040.235404996325, -76714.89736019343, -34371.79736754863, -62088.47458225186, -187500.02235174447, -51898.962485666576, -39471.19140281575, 0.506, -0.856, 0.168, 192.0, 0.0, 0.0, 0.0, 0.0, 0.0, 0.0, 0.0, 0.0, 0.0, 1.6635922372681272E9, 0.0, 2022-09-19 17:57:17.268
129.0, 238.11313368238615, 7965.535875026689, -76582.75384697365, -34266.90063081987, -61933.12995828748, -187500.02235174447, -51902.47170954606, -39335.09163082739, 0.508, -0.856, 0.168, 192.0, 15.0, 224.0, 229.0, 64.0, 5.0, 64.0, 0.0, 0.0, 0.0, 1.663592237272157E9, 0.0, 2022-09-19 17:57:17.272
130.0, 67.79284093294632, 7849.127989903449, -76469.07287467395, -34145.75417587211, -61807.64726491538, -187500.02235174447, -51805.7780630324, -39223.26585331748, 0.508, -0.856, 0.168, 192.0, 0.0, 0.0, 0.0, 0.0, 0.0, 0.0, 0.0, 0.0, 0.0, 1.6635922372771099E9, 0.0, 2022-09-19 17:57:17.277
131.0, 71.36912004579546, 7853.575987050055, -76488.49654060561, -34179.885289655365, -61833.08355010552, -187500.02235174447, -51760.35931829922, -39258.380443856775, 0.508, -0.856, 0.168, 192.0, 0.0, 0.0, 0.0, 0.0, 0.0, 0.0, 0.0, 0.0, 0.0, 1.6635922372811055E9, 0.0, 2022-09-19 17:57:17.281
132.0, 225.81967423196724, 7944.480531749789, -76604.99383270668, -34310.01714587416, -61958.208615566335, -187500.02235174447, -51787.11435641222, -39375.481233058126, 0.508, -0.856, 0.168, 192.0, 0.0, 0.0, 0.0, 0.0, 0.0, 0.0, 0.0, 0.0, 0.0, 1.6635922372851112E9, 0.0, 2022-09-19 17:57:17.285
133.0, 405.19242348580644, 8054.741687147819, -76719.74768874022, -34425.08392633008, -62069.56500644267, -187500.02235174447, -51897.554325765894, -39475.57234472899, 0.508, -0.856, 0.168, 192.0, 0.0, 0.0, 0.0, 0.0, 0.0, 0.0, 0.0, 0.0, 0.0, 1.6635922372891655E9, 0.0, 2022-09-19 17:57:17.289
134.0, 259.5931601039362, 7970.989700673784, -76569.63337297838, -34286.145482795895, -61909.057129509114, -187500.02235174447, -51841.98788905, -39327.80496213496, 0.508, -0.856, 0.168, 192.0, 0.0, 0.0, 0.0, 0.0, 0.0, 0.0, 0.0, 0.0, 0.0, 1.663592237292164E9, 0.0, 2022-09-19 17:57:17.292
135.0, 78.25345733803003, 7853.643042283421, -76445.13415636231, -34133.41601293278, -61770.99040400868, -187500.02235174447, -51712.794806098325, -39183.25623074248, 0.508, -0.856, 0.168, 192.0, 0.0, 0.0, 0.0, 0.0, 0.0, 0.0, 0.0, 0.0, 0.0, 1.6635922372961369E9, 0.0, 2022-09-19 17:57:17.296
136.0, 87.79765222044614, 7852.637213782932, -76490.35173539541, -34158.47231846718, -61802.95339857977, -187500.02235174447, -51738.54401571084, -39216.76149568099, 0.508, -0.856, 0.168, 192.0, 0.0, 0.0, 0.0, 0.0, 0.0, 0.0, 0.0, 0.0, 0.0, 1.6635922373001869E9, 0.0, 2022-09-19 17:57:17.300
137.0, 254.20638969020723, 7943.117075338016, -76631.81592605304, -34292.96276485476, -61941.26599326921, -187500.02235174447, -51844.17836000662, -39368.686302743714, 0.508, -0.856, 0.168, 192.0, 0.0, 0.0, 0.0, 0.0, 0.0, 0.0, 0.0, 0.0, 0.0, 1.663592237305149E9, 0.0, 2022-09-19 17:57:17.305
138.0, 439.56940645806867, 8052.931195846939, -76746.6591890644, -34443.39000503898, -62054.611689402074, -187500.02235174447, -51970.01868129, -39500.405132818836, 0.508, -0.856, 0.168, 192.0, 0.0, 0.0, 0.0, 0.0, 0.0, 0.0, 0.0, 0.0, 0.0, 1.6635922373091292E9, 0.0, 2022-09-19 17:57:17.309
139.0, 269.6290933643691, 7963.09953488106, -76578.05998063803, -34305.926776638844, -61889.566408344086, -187500.02235174447, -51899.00718915548, -39338.422040751226, 0.508, -0.858, 0.168, 192.0, 15.0, 224.0, 229.0, 48.0, 5.0, 64.0, 0.0, 0.0, 0.0, 1.6635922373131557E9, 0.0, 2022-09-19 17:57:17.313
140.0, 109.56825131991522, 7849.84324572602, -76473.7443892651, -34169.33526627246, -61779.2829012016, -187500.02235174447, -51802.22413566401, -39205.943251364624, 0.508, -0.858, 0.168, 192.0, 0.0, 0.0, 0.0, 0.0, 0.0, 0.0, 0.0, 0.0, 0.0, 1.6635922373171608E9, 0.0, 2022-09-19 17:57:17.317
141.0, 100.962829704622, 7846.356373590991, -76480.71813353516, -34210.44012432577, -61818.55491620957, -187500.02235174447, -51705.374026939164, -39228.27264407547, 0.508, -0.858, 0.168, 192.0, 0.0, 0.0, 0.0, 0.0, 0.0, 0.0, 0.0, 0.0, 0.0, 1.6635922373202076E9, 0.0, 2022-09-19 17:57:17.320
142.0, 248.84197102093353, 7937.350325268546, -76605.59732980697, -34323.808172203084, -61953.71591493081, -187500.02235174447, -51763.265045078406, -39369.960352177666, 0.508, -0.858, 0.168, 192.0, 0.0, 0.0, 0.0, 0.0, 0.0, 0.0, 0.0, 0.0, 0.0, 1.6635922373241992E9, 0.0, 2022-09-19 17:57:17.324
143.0, 422.2021010162951, 8035.027448538238, -76722.78752598615, -34436.70683344684, -62067.01690757477, -187500.02235174447, -51924.17525341216, -39473.09130109445, 0.508, -0.858, 0.168, 192.0, 0.0, 0.0, 0.0, 0.0, 0.0, 0.0, 0.0, 0.0, 0.0, 1.6635922373283865E9, 0.0, 2022-09-19 17:57:17.328
144.0, 251.6582908223022, 7940.457217747834, -76556.71406468321, -34319.09195412302, -61914.645065622935, -187500.02235174447, -51831.46021741155, -39323.669889410725, 0.508, -0.858, 0.168, 192.0, 0.0, 0.0, 0.0, 0.0, 0.0, 0.0, 0.0, 0.0, 0.0, 1.6635922373331814E9, 0.0, 2022-09-19 17:57:17.333
145.0, 76.89000092625629, 7839.293222343114, -76450.38681630931, -34196.09030438546, -61806.70849164826, -187500.02235174447, -51702.96003853799, -39196.220242526564, 0.508, -0.858, 0.168, 192.0, 0.0, 0.0, 0.0, 0.0, 0.0, 0.0, 0.0, 0.0, 0.0, 1.663592237337206E9, 0.0, 2022-09-19 17:57:17.337
146.0, 104.53910881747113, 7846.199911379804, -76503.82983730195, -34222.84534249846, -61852.931899181836, -187500.02235174447, -51729.625669673165, -39237.52626627997, 0.508, -0.858, 0.168, 192.0, 0.0, 0.0, 0.0, 0.0, 0.0, 0.0, 0.0, 0.0, 0.0, 1.663592237341214E9, 0.0, 2022-09-19 17:57:17.341
147.0, 271.35017768742773, 7937.99852585775, -76635.30279818807, -34349.199753904315, -61995.06664217313, -187500.02235174447, -51791.04826343635, -39375.03419816902, 0.508, -0.858, 0.168, 192.0, 0.0, 0.0, 0.0, 0.0, 0.0, 0.0, 0.0, 0.0, 0.0, 1.66359223734525E9, 0.0, 2022-09-19 17:57:17.345
148.0, 411.92029856685383, 8030.691210113909, -76721.60288353001, -34463.77479598222, -62087.98284387385, -187500.02235174447, -51890.73704370702, -39463.12242306738, 0.508, -0.858, 0.168, 192.0, 0.0, 0.0, 0.0, 0.0, 0.0, 0.0, 0.0, 0.0, 0.0, 1.6635922373482032E9, 0.0, 2022-09-19 17:57:17.348
149.0, 225.0597149204868, 7936.925642123895, -76558.323390284, -34322.355308813494, -61924.05515003862, -187500.02235174447, -51854.79543862289, -39304.35798220134, 0.514, -0.854, 0.17, 192.0, 16.0, 16.0, 229.0, 80.0, 5.0, 80.0, 0.0, 0.0, 0.0, 1.6635922373522294E9, 0.0, 2022-09-19 17:57:17.352
150.0, 75.34773055884011, 7836.78982696412, -76467.75412175109, -34170.27403953958, -61820.11953832144, -187500.02235174447, -51779.0230249194, -39197.09196056032, 0.514, -0.854, 0.17, 192.0, 0.0, 0.0, 0.0, 0.0, 0.0, 0.0, 0.0, 0.0, 0.0, 1.6635922373562365E9, 0.0, 2022-09-19 17:57:17.356
151.0, 124.18629219368604, 7847.2727951136585, -76496.25259593161, -34181.3158013005, -61861.89494870841, -187500.02235174447, -51724.75298938191, -39243.22596111608, 0.514, -0.854, 0.17, 192.0, 0.0, 0.0, 0.0, 0.0, 0.0, 0.0, 0.0, 0.0, 0.0, 1.663592237361228E9, 0.0, 2022-09-19 17:57:17.361
152.0, 286.92934357277676, 7943.541758482666, -76625.71389981675, -34305.16681732736, -62004.85670624456, -187500.02235174447, -51763.8685421787, -39377.82816622593, 0.514, -0.854, 0.17, 192.0, 0.0, 0.0, 0.0, 0.0, 0.0, 0.0, 0.0, 0.0, 0.0, 1.6635922373652208E9, 0.0, 2022-09-19 17:57:17.365
153.0, 431.075743565052, 8038.693134628908, -76704.79437169962, -34397.32305971659, -62089.547465985714, -187500.02235174447, -51865.70308991708, -39453.60057992942, 0.514, -0.854, 0.17, 192.0, 0.0, 0.0, 0.0, 0.0, 0.0, 0.0, 0.0, 0.0, 0.0, 1.6635922373692508E9, 0.0, 2022-09-19 17:57:17.369
154.0, 250.6748140662687, 7931.605926943533, -76531.50129693763, -34242.11254621894, -61915.695597612335, -187500.02235174447, -51805.17456593211, -39290.388141916774, 0.514, -0.854, 0.17, 192.0, 0.0, 0.0, 0.0, 0.0, 0.0, 0.0, 0.0, 0.0, 0.0, 1.663592237373254E9, 0.0, 2022-09-19 17:57:17.373
155.0, 96.69364651365835, 7821.523585501145, -76457.76289197957, -34139.65214963581, -61830.960134382265, -187500.02235174447, -51733.73839065294, -39204.71390541958, 0.514, -0.854, 0.17, 192.0, 0.0, 0.0, 0.0, 0.0, 0.0, 0.0, 0.0, 0.0, 0.0, 1.6635922373762543E9, 0.0, 2022-09-19 17:57:17.376
156.0, 146.06865001543164, 7837.192158364315, -76536.23986676215, -34194.59273750696, -61886.750088542714, -187500.02235174447, -51823.2794789409, -39241.99661517103, 0.514, -0.854, 0.17, 192.0, 0.0, 0.0, 0.0, 0.0, 0.0, 0.0, 0.0, 0.0, 0.0, 1.6635922373802087E9, 0.0, 2022-09-19 17:57:17.380
157.0, 333.64448948436853, 7944.659345705431, -76659.73325487772, -34361.917896499384, -62036.484424648814, -187500.02235174447, -51861.9927003375, -39412.115742220376, 0.514, -0.854, 0.17, 192.0, 0.0, 0.0, 0.0, 0.0, 0.0, 0.0, 0.0, 0.0, 0.0, 1.663592237384338E9, 0.0, 2022-09-19 17:57:17.384
158.0, 463.21755209178355, 8036.145035761004, -76721.08879340754, -34434.15873457894, -62121.28694311225, -187500.02235174447, -51904.483366547036, -39489.34101931346, 0.514, -0.854, 0.17, 192.0, 0.0, 0.0, 0.0, 0.0, 0.0, 0.0, 0.0, 0.0, 0.0, 1.663592237388274E9, 0.0, 2022-09-19 17:57:17.388
159.0, 263.48236363915964, 7925.548604196144, -76535.74812838413, -34252.170831223826, -61947.3233160166, -187500.02235174447, -51803.96757173152, -39295.95372628614, 0.516, -0.854, 0.17200000000000001, 192.0, 16.0, 32.0, 229.0, 80.0, 5.0, 96.0, 0.0, 0.0, 0.0, 1.6635922373932738E9, 0.0, 2022-09-19 17:57:17.393
160.0, 120.14062644727547, 7825.457492525279, -76438.540391748, -34146.00004506112, -61869.405134845394, -187500.02235174447, -51671.30996838927, -39200.86940537327, 0.516, -0.854, 0.17200000000000001, 192.0, 0.0, 0.0, 0.0, 0.0, 0.0, 0.0, 0.0, 0.0, 0.0, 1.663592237397287E9, 0.0, 2022-09-19 17:57:17.397
161.0, 155.27756873101816, 7840.902547943896, -76487.96009873868, -34183.48392051267, -61938.561432190116, -187500.02235174447, -51672.449907356495, -39254.938275210654, 0.516, -0.854, 0.17200000000000001, 192.0, 0.0, 0.0, 0.0, 0.0, 0.0, 0.0, 0.0, 0.0, 0.0, 1.6635922374014091E9, 0.0, 2022-09-19 17:57:17.401
162.0, 326.3131173030278, 7940.814845659119, -76630.94420801928, -34293.36509625496, -62093.81664917668, -187500.02235174447, -51764.42733579008, -39374.69892200219, 0.516, -0.854, 0.17200000000000001, 192.0, 0.0, 0.0, 0.0, 0.0, 0.0, 0.0, 0.0, 0.0, 0.0, 1.6635922374043093E9, 0.0, 2022-09-19 17:57:17.404
163.0, 451.4158310193814, 8014.6203058505425, -76713.24333110373, -34387.37653343398, -62176.674565872505, -187500.02235174447, -51895.6991309761, -39451.63362641736, 0.516, -0.854, 0.17200000000000001, 192.0, 0.0, 0.0, 0.0, 0.0, 0.0, 0.0, 0.0, 0.0, 0.0, 1.663592237408302E9, 0.0, 2022-09-19 17:57:17.408
164.0, 254.1393344568413, 7893.60796136951, -76539.0114830746, -34252.90843879085, -62006.26486614524, -187500.02235174447, -51823.234775451994, -39288.33178142688, 0.516, -0.854, 0.17200000000000001, 192.0, 0.0, 0.0, 0.0, 0.0, 0.0, 0.0, 0.0, 0.0, 0.0, 1.6635922374123423E9, 0.0, 2022-09-19 17:57:17.412
165.0, 126.08619047238714, 7805.586791704512, -76466.5471275505, -34174.632629708365, -61927.92200182939, -187500.02235174447, -51743.416696002096, -39203.57396645236, 0.516, -0.854, 0.17200000000000001, 192.0, 0.0, 0.0, 0.0, 0.0, 0.0, 0.0, 0.0, 0.0, 0.0, 1.663592237416368E9, 0.0, 2022-09-19 17:57:17.416
166.0, 173.4718887176381, 7829.50315827169, -76526.98624455766, -34243.006615997154, -61982.661424000435, -187500.02235174447, -51781.05703366483, -39270.33862714036, 0.516, -0.854, 0.17200000000000001, 192.0, 0.0, 0.0, 0.0, 0.0, 0.0, 0.0, 0.0, 0.0, 0.0, 1.6635922374213233E9, 0.0, 2022-09-19 17:57:17.421
167.0, 376.31396964954973, 7950.671964963909, -76676.0500283301, -34366.56705934609, -62137.96134447591, -187500.02235174447, -51863.62437768273, -39408.405352640795, 0.516, -0.854, 0.17200000000000001, 192.0, 0.0, 0.0, 0.0, 0.0, 0.0, 0.0, 0.0, 0.0, 0.0, 1.6635922374253297E9, 0.0, 2022-09-19 17:57:17.425
168.0, 481.54598254513536, 8023.315134443657, -76706.91778742288, -34390.88575731347, -62194.75712713684, -187500.02235174447, -51892.256962329986, -39453.80174562952, 0.516, -0.854, 0.17200000000000001, 192.0, 0.0, 0.0, 0.0, 0.0, 0.0, 0.0, 0.0, 0.0, 0.0, 1.6635922374284143E9, 0.0, 2022-09-19 17:57:17.428
169.0, 271.9760265321763, 7894.949066036829, -76508.81427631549, -34221.39247910887, -62010.04231095819, -187500.02235174447, -51759.88993166565, -39268.14815618374, 0.516, -0.852, 0.17, 192.0, 16.0, 32.0, 229.0, 96.0, 5.0, 80.0, 0.0, 0.0, 0.0, 1.6635922374323924E9, 0.0, 2022-09-19 17:57:17.432
170.0, 127.49435037307148, 7799.440061979301, -76447.12346161884, -34137.595789145926, -61936.88505135597, -187500.02235174447, -51688.61021859768, -39186.11725403276, 0.516, -0.852, 0.17, 192.0, 0.0, 0.0, 0.0, 0.0, 0.0, 0.0, 0.0, 0.0, 0.0, 1.6635922374363892E9, 0.0, 2022-09-19 17:57:17.436
171.0, 173.8071648844677, 7816.673256954344, -76522.04650903303, -34182.120464100895, -62002.9344562214, -187500.02235174447, -51743.70726868001, -39243.22596111608, 0.516, -0.852, 0.17, 192.0, 0.0, 0.0, 0.0, 0.0, 0.0, 0.0, 0.0, 0.0, 0.0, 1.663592237440307E9, 0.0, 2022-09-19 17:57:17.440
172.0, 353.29167286058345, 7919.80420587113, -76665.12002529146, -34328.07735539405, -62175.73579260538, -187500.02235174447, -51789.23777213547, -39403.800893283, 0.516, -0.852, 0.17, 192.0, 0.0, 0.0, 0.0, 0.0, 0.0, 0.0, 0.0, 0.0, 0.0, 1.6635922374444375E9, 0.0, 2022-09-19 17:57:17.444
173.0, 445.42556350535915, 7987.775860759719, -76694.22199657226, -34379.35225717453, -62221.467461760934, -187500.02235174447, -51834.36594419074, -39458.741481154146, 0.516, -0.852, 0.17, 192.0, 0.0, 0.0, 0.0, 0.0, 0.0, 0.0, 0.0, 0.0, 0.0, 1.6635922374494092E9, 0.0, 2022-09-19 17:57:17.449
174.0, 231.54172081252585, 7864.260120899692, -76515.4080409298, -34224.18644716578, -62039.52426189474, -187500.02235174447, -51749.49637049394, -39280.26280167852, 0.516, -0.852, 0.17, 192.0, 0.0, 0.0, 0.0, 0.0, 0.0, 0.0, 0.0, 0.0, 0.0, 1.663592237453386E9, 0.0, 2022-09-19 17:57:17.453
175.0, 120.61001308083691, 7779.055271036062, -76460.33334259193, -34141.17206825877, -61976.53704601969, -187500.02235174447, -51672.516962589856, -39206.27852753145, 0.516, -0.852, 0.17, 192.0, 0.0, 0.0, 0.0, 0.0, 0.0, 0.0, 0.0, 0.0, 0.0, 1.6635922374563596E9, 0.0, 2022-09-19 17:57:17.456
176.0, 178.09869981988666, 7806.369102760447, -76525.30986372351, -34176.13019658687, -62038.27256420524, -187500.02235174447, -51704.27879146085, -39270.271571907, 0.516, -0.852, 0.17, 192.0, 0.0, 0.0, 0.0, 0.0, 0.0, 0.0, 0.0, 0.0, 0.0, 1.6635922374604092E9, 0.0, 2022-09-19 17:57:17.460
177.0, 379.28675166210553, 7924.363961740013, -76678.3969614979, -34305.5467969831, -62192.54430443577, -187500.02235174447, -51814.07056022532, -39426.66672786078, 0.516, -0.852, 0.17, 192.0, 0.0, 0.0, 0.0, 0.0, 0.0, 0.0, 0.0, 0.0, 0.0, 1.6635922374644048E9, 0.0, 2022-09-19 17:57:17.464
178.0, 489.07852042657385, 7993.319093384635, -76735.46096509231, -34382.57090837609, -62240.80172071478, -187500.02235174447, -51932.17717792716, -39472.89013539435, 0.516, -0.852, 0.17, 192.0, 0.0, 0.0, 0.0, 0.0, 0.0, 0.0, 0.0, 0.0, 0.0, 1.6635922374683416E9, 0.0, 2022-09-19 17:57:17.468
179.0, 280.82731733647796, 7871.256216914203, -76570.9744776457, -34234.60236008195, -62051.7953696007, -187500.02235174447, -51897.777843210446, -39291.3269151839, 0.508, -0.85, 0.17200000000000001, 192.0, 15.0, 224.0, 229.0, 112.0, 5.0, 96.0, 0.0, 0.0, 0.0, 1.6635922374724867E9, 0.0, 2022-09-19 17:57:17.472
180.0, 184.64776094529165, 7798.97067534574, -76521.0183287881, -34177.40424602082, -61987.80232522516, -187500.02235174447, -51853.566092677844, -39231.53599876595, 0.508, -0.85, 0.17200000000000001, 192.0, 0.0, 0.0, 0.0, 0.0, 0.0, 0.0, 0.0, 0.0, 0.0, 1.663592237476441E9, 0.0, 2022-09-19 17:57:17.476
181.0, 229.28419462253984, 7822.954097146285, -76556.69171293876, -34242.380767152405, -62051.7953696007, -187500.02235174447, -51795.33979837177, -39310.28119448199, 0.508, -0.85, 0.17200000000000001, 192.0, 0.0, 0.0, 0.0, 0.0, 0.0, 0.0, 0.0, 0.0, 0.0, 1.663592237481397E9, 0.0, 2022-09-19 17:57:17.481
182.0, 427.5665196855688, 7943.675868949398, -76699.80993268608, -34368.46695762479, -62203.228438285405, -187500.02235174447, -51855.01895606744, -39460.32845501047, 0.508, -0.85, 0.17200000000000001, 192.0, 0.0, 0.0, 0.0, 0.0, 0.0, 0.0, 0.0, 0.0, 0.0, 1.6635922374844563E9, 0.0, 2022-09-19 17:57:17.484
183.0, 515.7888550506658, 8009.4570528813665, -76719.32300559556, -34352.66427429489, -62219.14288033759, -187500.02235174447, -51923.10236967831, -39456.72982415317, 0.508, -0.85, 0.17200000000000001, 192.0, 0.0, 0.0, 0.0, 0.0, 0.0, 0.0, 0.0, 0.0, 0.0, 1.6635922374883776E9, 0.0, 2022-09-19 17:57:17.488
184.0, 293.3442942314499, 7874.541923349134, -76512.50231415061, -34152.03501606405, -62015.138508694, -187500.02235174447, -51793.7751762599, -39242.60011227133, 0.508, -0.85, 0.17200000000000001, 192.0, 0.0, 0.0, 0.0, 0.0, 0.0, 0.0, 0.0, 0.0, 0.0, 1.6635922374924483E9, 0.0, 2022-09-19 17:57:17.492
185.0, 167.1016415478756, 7787.772451373631, -76438.65215047028, -34080.97882044063, -61949.37967650648, -187500.02235174447, -51660.67053802855, -39188.71005638958, 0.508, -0.85, 0.17200000000000001, 192.0, 0.0, 0.0, 0.0, 0.0, 0.0, 0.0, 0.0, 0.0, 0.0, 1.6635922374964178E9, 0.0, 2022-09-19 17:57:17.496
186.0, 207.53594726752607, 7816.136815087416, -76500.20885470019, -34151.54327768603, -62007.22599115682, -187500.02235174447, -51683.87164877316, -39256.94993221163, 0.508, -0.85, 0.17200000000000001, 192.0, 0.0, 0.0, 0.0, 0.0, 0.0, 0.0, 0.0, 0.0, 0.0, 1.663592237500466E9, 0.0, 2022-09-19 17:57:17.500
187.0, 417.24001374721695, 7937.596194457555, -76662.03548455662, -34334.42525081936, -62170.729001847394, -187500.02235174447, -51802.67117055311, -39429.304233706505, 0.508, -0.85, 0.17200000000000001, 192.0, 0.0, 0.0, 0.0, 0.0, 0.0, 0.0, 0.0, 0.0, 0.0, 1.663592237504485E9, 0.0, 2022-09-19 17:57:17.504
188.0, 503.5400990891575, 7999.957561487861, -76686.91297613537, -34360.93441974335, -62190.35383347915, -187500.02235174447, -51887.18311633863, -39444.10108853592, 0.508, -0.85, 0.17200000000000001, 192.0, 0.0, 0.0, 0.0, 0.0, 0.0, 0.0, 0.0, 0.0, 0.0, 1.6635922375094743E9, 0.0, 2022-09-19 17:57:17.509
189.0, 291.1985267637404, 7869.4010221244125, -76492.43044762975, -34159.72401615668, -61990.59629328207, -187500.02235174447, -51776.85490570723, -39229.54669350942, 0.508, -0.85, 0.17200000000000001, 192.0, 0.0, 0.0, 0.0, 0.0, 0.0, 0.0, 0.0, 0.0, 0.0, 1.6635922375125136E9, 0.0, 2022-09-19 17:57:17.512
190.0, 184.96068536766595, 7797.83073637852, -76438.540391748, -34094.41221885827, -61940.46133046882, -187500.02235174447, -51675.534448091326, -39182.63038189774, 0.508, -0.854, 0.166, 192.0, 15.0, 224.0, 229.0, 80.0, 5.0, 48.0, 0.0, 0.0, 0.0, 1.663592237516482E9, 0.0, 2022-09-19 17:57:17.516
191.0, 245.10922969689724, 7831.045428639106, -76513.64225311784, -34175.72786518668, -62013.283313904205, -187500.02235174447, -51713.7559311099, -39263.72251078159, 0.508, -0.854, 0.166, 192.0, 0.0, 0.0, 0.0, 0.0, 0.0, 0.0, 0.0, 0.0, 0.0, 1.663592237520502E9, 0.0, 2022-09-19 17:57:17.520
192.0, 454.27685430966073, 7955.187017343881, -76687.11414183547, -34334.04527116362, -62177.14395250606, -187500.02235174447, -51854.50486594497, -39412.83099804294, 0.508, -0.854, 0.166, 192.0, 0.0, 0.0, 0.0, 0.0, 0.0, 0.0, 0.0, 0.0, 0.0, 1.663592237524505E9, 0.0, 2022-09-19 17:57:17.524
193.0, 536.4642186718248, 8008.25005868078, -76727.34728185502, -34364.60010583402, -62192.320786991215, -187500.02235174447, -52009.760082931534, -39426.085582504944, 0.508, -0.854, 0.166, 192.0, 0.0, 0.0, 0.0, 0.0, 0.0, 0.0, 0.0, 0.0, 0.0, 1.6635922375285685E9, 0.0, 2022-09-19 17:57:17.528
194.0, 328.54829174855854, 7876.46417337229, -76517.03971827505, -34177.76187393211, -62004.36496786654, -187500.02235174447, -51846.97232806353, -39243.85180996082, 0.508, -0.854, 0.166, 192.0, 0.0, 0.0, 0.0, 0.0, 0.0, 0.0, 0.0, 0.0, 0.0, 1.6635922375325615E9, 0.0, 2022-09-19 17:57:17.532
195.0, 197.27649656254013, 7798.054253823073, -76423.05063284047, -34105.163407941276, -61955.39229576496, -187500.02235174447, -51630.87566266962, -39195.84026287082, 0.508, -0.854, 0.166, 192.0, 0.0, 0.0, 0.0, 0.0, 0.0, 0.0, 0.0, 0.0, 0.0, 1.6635922375375328E9, 0.0, 2022-09-19 17:57:17.537
196.0, 248.23847392064025, 7824.362257046969, -76485.03202021505, -34151.94560908623, -62014.71382554935, -187500.02235174447, -51635.055438882766, -39252.47958332057, 0.508, -0.854, 0.166, 192.0, 0.0, 0.0, 0.0, 0.0, 0.0, 0.0, 0.0, 0.0, 0.0, 1.663592237540609E9, 0.0, 2022-09-19 17:57:17.540
197.0, 454.0980403540183, 7944.435828260878, -76658.19098451031, -34296.203767800784, -62164.82814131119, -187500.02235174447, -51775.37969057318, -39405.20905318369, 0.508, -0.854, 0.166, 192.0, 0.0, 0.0, 0.0, 0.0, 0.0, 0.0, 0.0, 0.0, 0.0, 1.6635922375446517E9, 0.0, 2022-09-19 17:57:17.544
198.0, 513.9560120053306, 7985.741852014286, -76681.16857781036, -34347.61278004799, -62166.28100470079, -187500.02235174447, -51889.48534601752, -39428.454867417204, 0.508, -0.854, 0.166, 192.0, 0.0, 0.0, 0.0, 0.0, 0.0, 0.0, 0.0, 0.0, 0.0, 1.6635922375485847E9, 0.0, 2022-09-19 17:57:17.548
199.0, 294.41717796530463, 7852.346641105014, -76515.51979965209, -34193.67631598429, -61971.01616513922, -187500.02235174447, -51844.11130477325, -39249.30563560792, 0.508, -0.854, 0.166, 192.0, 0.0, 0.0, 0.0, 0.0, 0.0, 0.0, 0.0, 0.0, 0.0, 1.6635922375525365E9, 0.0, 2022-09-19 17:57:17.552
200.0, 230.29002312302867, 7791.572247931033, -76474.48199683214, -34135.78529784505, -61917.61784763549, -187500.02235174447, -51766.66251023561, -39194.07447505886, 0.508, -0.854, 0.164, 192.0, 15.0, 224.0, 229.0, 80.0, 5.0, 32.0, 0.0, 0.0, 0.0, 1.6635922375566733E9, 0.0, 2022-09-19 17:57:17.556
201.0, 288.20339300672924, 7824.138739602416, -76506.64615710333, -34172.397455262835, -61982.21438911133, -187500.02235174447, -51673.567494579256, -39261.75555726952, 0.508, -0.854, 0.164, 192.0, 0.0, 0.0, 0.0, 0.0, 0.0, 0.0, 0.0, 0.0, 0.0, 1.6635922375606723E9, 0.0, 2022-09-19 17:57:17.560
202.0, 470.3477585730265, 7945.866339906019, -76661.70020838978, -34314.21927383176, -62140.39768462154, -187500.02235174447, -51761.789829944355, -39418.21776845667, 0.508, -0.854, 0.164, 192.0, 0.0, 0.0, 0.0, 0.0, 0.0, 0.0, 0.0, 0.0, 0.0, 1.6635922375645766E9, 0.0, 2022-09-19 17:57:17.564
203.0, 524.10370398804, 7986.702977025864, -76670.37268523844, -34349.356216115506, -62132.95455371792, -187500.02235174447, -51880.83522091332, -39428.454867417204, 0.508, -0.854, 0.164, 192.0, 0.0, 0.0, 0.0, 0.0, 0.0, 0.0, 0.0, 0.0, 0.0, 1.6635922375686176E9, 0.0, 2022-09-19 17:57:17.568
204.0, 310.28691652857265, 7855.945271962318, -76494.44210463073, -34168.79882440553, -61954.54292947566, -187500.02235174447, -51800.41364436313, -39251.85373447582, 0.508, -0.854, 0.164, 192.0, 0.0, 0.0, 0.0, 0.0, 0.0, 0.0, 0.0, 0.0, 0.0, 1.6635922375717208E9, 0.0, 2022-09-19 17:57:17.571
205.0, 237.30847088199508, 7799.261248023659, -76477.79005501152, -34083.45986407517, -61934.51576644371, -187500.02235174447, -51768.96473991451, -39200.355315250796, 0.508, -0.854, 0.164, 192.0, 0.0, 0.0, 0.0, 0.0, 0.0, 0.0, 0.0, 0.0, 0.0, 1.663592237576597E9, 0.0, 2022-09-19 17:57:17.576
206.0, 311.35980026242737, 7834.174672862849, -76533.15532602732, -34125.10116399541, -62016.6360755725, -187500.02235174447, -51740.48861747845, -39268.97517072859, 0.508, -0.854, 0.164, 192.0, 0.0, 0.0, 0.0, 0.0, 0.0, 0.0, 0.0, 0.0, 0.0, 1.663592237580623E9, 0.0, 2022-09-19 17:57:17.580
207.0, 499.427378109381, 7954.382354543491, -76665.18708052482, -34260.77625283912, -62171.95834779243, -187500.02235174447, -51773.03275740537, -39422.598710369915, 0.508, -0.854, 0.164, 192.0, 0.0, 0.0, 0.0, 0.0, 0.0, 0.0, 0.0, 0.0, 0.0, 1.6635922375846431E9, 0.0, 2022-09-19 17:57:17.584
208.0, 527.7917418231657, 7984.221933391325, -76670.95383059428, -34280.11051179296, -62160.178978464486, -187500.02235174447, -51883.18215408113, -39423.8057045705, 0.508, -0.854, 0.164, 192.0, 0.0, 0.0, 0.0, 0.0, 0.0, 0.0, 0.0, 0.0, 0.0, 1.6635922375886407E9, 0.0, 2022-09-19 17:57:17.588
209.0, 319.16055907732954, 7850.357335848491, -76495.42558138676, -34119.42382090376, -61977.94520592037, -187500.02235174447, -51787.91901921261, -39251.60786528682, 0.508, -0.854, 0.164, 192.0, 0.0, 0.0, 0.0, 0.0, 0.0, 0.0, 0.0, 0.0, 0.0, 1.663592237593598E9, 0.0, 2022-09-19 17:57:17.593
210.0, 238.13548542684146, 7798.635399178911, -76459.50632804708, -34061.868078931344, -61946.09397007155, -187500.02235174447, -51684.31868366226, -39215.442742758125, 0.512, -0.858, 0.166, 192.0, 16.0, 0.0, 229.0, 48.0, 5.0, 48.0, 0.0, 0.0, 0.0, 1.6635922375965893E9, 0.0, 2022-09-19 17:57:17.596
211.0, 319.49583524415914, 7842.198949122304, -76538.78796563005, -34104.98459398563, -62016.32315115013, -187500.02235174447, -51725.60235567121, -39278.45231037764, 0.512, -0.858, 0.166, 192.0, 0.0, 0.0, 0.0, 0.0, 0.0, 0.0, 0.0, 0.0, 0.0, 1.66359223759964E9, 0.0, 2022-09-19 17:57:17.599
212.0, 546.7013176323554, 7968.821581461619, -76705.39786879992, -34245.19708695377, -62171.01957452531, -187500.02235174447, -51862.17151429314, -39432.031146530055, 0.512, -0.858, 0.166, 192.0, 0.0, 0.0, 0.0, 0.0, 0.0, 0.0, 0.0, 0.0, 0.0, 1.66359223760466E9, 0.0, 2022-09-19 17:57:17.604
213.0, 563.8898091184866, 7979.43866007789, -76683.11317957798, -34256.26120045915, -62146.09737945764, -187500.02235174447, -51919.168462654176, -39415.42380039976, 0.512, -0.858, 0.166, 192.0, 0.0, 0.0, 0.0, 0.0, 0.0, 0.0, 0.0, 0.0, 0.0, 1.6635922376086311E9, 0.0, 2022-09-19 17:57:17.608
214.0, 337.6454517418685, 7831.805387950586, -76487.42365687176, -34101.34125963942, -61961.919005145915, -187500.02235174447, -51771.28932133786, -39242.57776052687, 0.512, -0.858, 0.166, 192.0, 0.0, 0.0, 0.0, 0.0, 0.0, 0.0, 0.0, 0.0, 0.0, 1.6635922376126611E9, 0.0, 2022-09-19 17:57:17.612
215.0, 263.9964537616317, 7775.903675067863, -76474.12436892085, -34119.11089648138, -61940.19310953535, -187500.02235174447, -51735.504178464915, -39218.728449193055, 0.512, -0.858, 0.166, 192.0, 0.0, 0.0, 0.0, 0.0, 0.0, 0.0, 0.0, 0.0, 0.0, 1.6635922376166182E9, 0.0, 2022-09-19 17:57:17.616
216.0, 373.60940857045756, 7834.398190307402, -76554.83651814896, -34231.38370888039, -62023.22984018682, -187500.02235174447, -51786.24263837846, -39308.87303458131, 0.512, -0.858, 0.166, 192.0, 0.0, 0.0, 0.0, 0.0, 0.0, 0.0, 0.0, 0.0, 0.0, 1.6635922376207345E9, 0.0, 2022-09-19 17:57:17.620
217.0, 579.7818994262099, 7968.19573261687, -76690.48925524822, -34360.599143576525, -62181.18961825247, -187500.02235174447, -51831.30375520036, -39440.211885000695, 0.512, -0.858, 0.166, 192.0, 0.0, 0.0, 0.0, 0.0, 0.0, 0.0, 0.0, 0.0, 0.0, 1.6635922376247041E9, 0.0, 2022-09-19 17:57:17.624
218.0, 570.4388702438915, 7969.67094775092, -76640.06371975705, -34313.191093586815, -62139.92829798798, -187500.02235174447, -51829.314449943835, -39398.79410252501, 0.512, -0.858, 0.166, 192.0, 0.0, 0.0, 0.0, 0.0, 0.0, 0.0, 0.0, 0.0, 0.0, 1.663592237627732E9, 0.0, 2022-09-19 17:57:17.627
219.0, 329.59882373795796, 7817.388512776914, -76456.75706347908, -34123.26832095007, -61955.481702742785, -187500.02235174447, -51700.16607048107, -39216.89560614772, 0.512, -0.858, 0.166, 192.0, 0.0, 0.0, 0.0, 0.0, 0.0, 0.0, 0.0, 0.0, 0.0, 1.6635922376336896E9, 0.0, 2022-09-19 17:57:17.633
220.0, 256.8885990248441, 7761.598558616467, -76449.53745002001, -34092.40056185729, -61940.88601361347, -187500.02235174447, -51664.58209330823, -39204.17746355265, 0.508, -0.854, 0.17200000000000001, 192.0, 15.0, 224.0, 229.0, 80.0, 5.0, 96.0, 0.0, 0.0, 0.0, 1.6635922376367636E9, 0.0, 2022-09-19 17:57:17.636
221.0, 340.93115817679865, 7815.376855775936, -76545.15821279981, -34190.68118222728, -62026.716712321846, -187500.02235174447, -51733.336059252746, -39289.18114771618, 0.508, -0.854, 0.17200000000000001, 192.0, 0.0, 0.0, 0.0, 0.0, 0.0, 0.0, 0.0, 0.0, 0.0, 1.6635922376417296E9, 0.0, 2022-09-19 17:57:17.641
222.0, 563.5768846961123, 7950.359040541535, -76713.51155203719, -34349.64678879342, -62183.40244095355, -187500.02235174447, -51889.70886346208, -39436.926178565765, 0.508, -0.854, 0.17200000000000001, 192.0, 0.0, 0.0, 0.0, 0.0, 0.0, 0.0, 0.0, 0.0, 0.0, 1.6635922376456723E9, 0.0, 2022-09-19 17:57:17.645
223.0, 575.2221435573273, 7960.350270313057, -76680.63213594344, -34349.24445739323, -62142.901080000534, -187500.02235174447, -51964.00606203152, -39409.96997475266, 0.508, -0.854, 0.17200000000000001, 192.0, 0.0, 0.0, 0.0, 0.0, 0.0, 0.0, 0.0, 0.0, 0.0, 1.663592237648712E9, 0.0, 2022-09-19 17:57:17.648
224.0, 345.3121000900388, 7825.703361714288, -76488.02715397206, -34158.44996672273, -61969.20567383834, -187500.02235174447, -51782.93458019908, -39223.556425995404, 0.508, -0.854, 0.17200000000000001, 192.0, 0.0, 0.0, 0.0, 0.0, 0.0, 0.0, 0.0, 0.0, 0.0, 1.663592237652712E9, 0.0, 2022-09-19 17:57:17.652
225.0, 278.92741905777683, 7774.517866911634, -76486.66369756027, -34093.09346593541, -61955.57110972061, -187500.02235174447, -51750.92688213908, -39184.552631920895, 0.508, -0.854, 0.17200000000000001, 192.0, 0.0, 0.0, 0.0, 0.0, 0.0, 0.0, 0.0, 0.0, 0.0, 1.6635922376557233E9, 0.0, 2022-09-19 17:57:17.655
226.0, 384.4276528868262, 7828.162053604371, -76566.32531479899, -34156.61712367739, -62041.55827064017, -187500.02235174447, -51778.01719641891, -39274.40664463123, 0.508, -0.854, 0.17200000000000001, 192.0, 0.0, 0.0, 0.0, 0.0, 0.0, 0.0, 0.0, 0.0, 0.0, 1.6635922376606927E9, 0.0, 2022-09-19 17:57:17.660
227.0, 565.230913785805, 7945.553415483644, -76691.67389770436, -34296.6955061788, -62203.519010963326, -187500.02235174447, -51808.81790027832, -39431.114725007385, 0.508, -0.854, 0.17200000000000001, 192.0, 0.0, 0.0, 0.0, 0.0, 0.0, 0.0, 0.0, 0.0, 0.0, 1.663592237664732E9, 0.0, 2022-09-19 17:57:17.664
228.0, 548.4671054443247, 7934.265784533714, -76629.31253067405, -34286.771331640644, -62149.29367891475, -187500.02235174447, -51828.3309731878, -39398.123550191354, 0.508, -0.854, 0.17200000000000001, 192.0, 0.0, 0.0, 0.0, 0.0, 0.0, 0.0, 0.0, 0.0, 0.0, 1.6635922376687376E9, 0.0, 2022-09-19 17:57:17.668
229.0, 319.0040968661424, 7793.718015398743, -76451.45970004317, -34127.91748379677, -61975.21829309682, -187500.02235174447, -51701.77539608186, -39235.156981367705, 0.508, -0.854, 0.17200000000000001, 192.0, 0.0, 0.0, 0.0, 0.0, 0.0, 0.0, 0.0, 0.0, 0.0, 1.6635922376727412E9, 0.0, 2022-09-19 17:57:17.672
230.0, 254.4522588792156, 7754.758924813143, -76445.22356334014, -34096.60268981489, -61973.161932606934, -187500.02235174447, -51653.22740712493, -39207.23965254303, 0.51, -0.858, 0.162, 192.0, 15.0, 240.0, 229.0, 48.0, 5.0, 16.0, 0.0, 0.0, 0.0, 1.6635922376767309E9, 0.0, 2022-09-19 17:57:17.676
231.0, 360.84656248647724, 7809.833623151019, -76545.20291628873, -34164.44023423675, -62072.291919266216, -187500.02235174447, -51727.09992254972, -39281.805072045936, 0.51, -0.858, 0.162, 192.0, 0.0, 0.0, 0.0, 0.0, 0.0, 0.0, 0.0, 0.0, 0.0, 1.66359223768075E9, 0.0, 2022-09-19 17:57:17.680
232.0, 584.9675041398411, 7941.261880548225, -76701.77688619816, -34295.35440151148, -62228.17298509753, -187500.02235174447, -51860.11515380325, -39415.379096910845, 0.51, -0.858, 0.162, 192.0, 0.0, 0.0, 0.0, 0.0, 0.0, 0.0, 0.0, 0.0, 0.0, 1.6635922376837192E9, 0.0, 2022-09-19 17:57:17.683
233.0, 554.747945636266, 7931.404761243434, -76637.44856565578, -34262.363226695445, -62174.59585363816, -187500.02235174447, -51893.24043908602, -39363.590105007905, 0.51, -0.858, 0.162, 192.0, 0.0, 0.0, 0.0, 0.0, 0.0, 0.0, 0.0, 0.0, 0.0, 1.6635922376887815E9, 0.0, 2022-09-19 17:57:17.688
234.0, 329.3529545489496, 7790.454660708268, -76454.90186868928, -34098.70375379369, -62009.41646211344, -187500.02235174447, -51750.189274572054, -39189.8499953568, 0.51, -0.858, 0.162, 192.0, 0.0, 0.0, 0.0, 0.0, 0.0, 0.0, 0.0, 0.0, 0.0, 1.6635922376928673E9, 0.0, 2022-09-19 17:57:17.692
235.0, 287.51048892861473, 7754.15542771285, -76450.11859537585, -34087.57258505495, -62006.98012196781, -187500.02235174447, -51726.42937021606, -39187.9500970781, 0.51, -0.858, 0.162, 192.0, 0.0, 0.0, 0.0, 0.0, 0.0, 0.0, 0.0, 0.0, 0.0, 1.663592237696832E9, 0.0, 2022-09-19 17:57:17.696
236.0, 383.73474880871163, 7813.432254008324, -76532.8647533494, -34199.308955587025, -62104.925466170964, -187500.02235174447, -51753.743201940444, -39291.46102565063, 0.51, -0.858, 0.162, 192.0, 0.0, 0.0, 0.0, 0.0, 0.0, 0.0, 0.0, 0.0, 0.0, 1.6635922377007647E9, 0.0, 2022-09-19 17:57:17.700
237.0, 581.2794663047155, 7950.202578330348, -76683.51551097816, -34369.29397216964, -62266.05919194927, -187500.02235174447, -51844.714801873546, -39460.88724862185, 0.51, -0.858, 0.162, 192.0, 0.0, 0.0, 0.0, 0.0, 0.0, 0.0, 0.0, 0.0, 0.0, 1.663592237704848E9, 0.0, 2022-09-19 17:57:17.704
238.0, 545.6954891318667, 7932.477644977289, -76626.27269342812, -34262.69850286228, -62185.86113284363, -187500.02235174447, -51913.8040439849, -39368.99922716609, 0.51, -0.858, 0.162, 192.0, 0.0, 0.0, 0.0, 0.0, 0.0, 0.0, 0.0, 0.0, 0.0, 1.663592237707847E9, 0.0, 2022-09-19 17:57:17.707
239.0, 332.079867372497, 7786.654864150866, -76449.11276687536, -34073.043951158994, -62016.32315115013, -187500.02235174447, -51766.90837942462, -39195.01324832597, 0.51, -0.858, 0.162, 192.0, 0.0, 0.0, 0.0, 0.0, 0.0, 0.0, 0.0, 0.0, 0.0, 1.66359223771388E9, 0.0, 2022-09-19 17:57:17.713
240.0, 293.3219424869946, 7756.301195180559, -76426.13517357531, -34067.3442563229, -62020.145299451986, -187500.02235174447, -51653.02624142483, -39183.9491348206, 0.508, -0.856, 0.164, 192.0, 15.0, 224.0, 229.0, 64.0, 5.0, 32.0, 0.0, 0.0, 0.0, 1.6635922377168224E9, 0.0, 2022-09-19 17:57:17.716
241.0, 385.54524010959153, 7813.722826686243, -76514.02223277357, -34134.37713794436, -62110.111070884595, -187500.02235174447, -51683.58107609524, -39263.02960670347, 0.508, -0.856, 0.164, 192.0, 0.0, 0.0, 0.0, 0.0, 0.0, 0.0, 0.0, 0.0, 0.0, 1.6635922377208173E9, 0.0, 2022-09-19 17:57:17.720
242.0, 602.6924374928997, 7946.022802117205, -76670.43974047182, -34269.51578492115, -62260.44890409099, -187500.02235174447, -51824.66528709714, -39416.51903587807, 0.508, -0.856, 0.164, 192.0, 0.0, 0.0, 0.0, 0.0, 0.0, 0.0, 0.0, 0.0, 0.0, 1.6635922377258747E9, 0.0, 2022-09-19 17:57:17.725
243.0, 552.7362886352884, 7922.553470439133, -76581.81507370652, -34228.20976116774, -62181.703708374946, -187500.02235174447, -51821.983077762496, -39345.127564087816, 0.508, -0.856, 0.164, 192.0, 0.0, 0.0, 0.0, 0.0, 0.0, 0.0, 0.0, 0.0, 0.0, 1.6635922377299337E9, 0.0, 2022-09-19 17:57:17.729
244.0, 310.35397176193857, 7776.685986123799, -76412.41120247975, -34063.49975627658, -62011.830450514615, -187500.02235174447, -51674.90859924658, -39191.1016930463, 0.508, -0.856, 0.164, 192.0, 0.0, 0.0, 0.0, 0.0, 0.0, 0.0, 0.0, 0.0, 0.0, 1.6635922377328477E9, 0.0, 2022-09-19 17:57:17.732
245.0, 271.08195675396405, 7748.411029387836, -76427.45392649817, -34041.30447403246, -62009.19294466889, -187500.02235174447, -51663.285692129815, -39168.884059057724, 0.508, -0.856, 0.164, 192.0, 0.0, 0.0, 0.0, 0.0, 0.0, 0.0, 0.0, 0.0, 0.0, 1.6635922377358332E9, 0.0, 2022-09-19 17:57:17.735
246.0, 382.9300860083206, 7810.437120251313, -76537.15628828482, -34134.3547861999, -62100.14219285753, -187500.02235174447, -51745.495408236435, -39271.47856610758, 0.508, -0.856, 0.164, 192.0, 0.0, 0.0, 0.0, 0.0, 0.0, 0.0, 0.0, 0.0, 0.0, 1.663592237739848E9, 0.0, 2022-09-19 17:57:17.739
247.0, 590.4213297869361, 7935.2045578008365, -76691.31626979307, -34315.98506164373, -62239.997057914385, -187500.02235174447, -51875.51550573296, -39447.38679497085, 0.508, -0.856, 0.164, 192.0, 0.0, 0.0, 0.0, 0.0, 0.0, 0.0, 0.0, 0.0, 0.0, 1.6635922377438755E9, 0.0, 2022-09-19 17:57:17.743
248.0, 552.1551432794504, 7906.370807453491, -76595.27082386862, -34271.16981401084, -62131.00995195031, -187500.02235174447, -51884.00916862598, -39363.61245675236, 0.508, -0.856, 0.164, 192.0, 0.0, 0.0, 0.0, 0.0, 0.0, 0.0, 0.0, 0.0, 0.0, 1.6635922377488916E9, 0.0, 2022-09-19 17:57:17.748
249.0, 346.42968731280416, 7765.44305866278, -76427.47627824263, -34090.21009090067, -61954.60998470903, -187500.02235174447, -51749.47401874948, -39182.80919585338, 0.508, -0.856, 0.164, 192.0, 0.0, 0.0, 0.0, 0.0, 0.0, 0.0, 0.0, 0.0, 0.0, 1.6635922377528691E9, 0.0, 2022-09-19 17:57:17.752
250.0, 311.29274502906145, 7741.303174651048, -76416.8368478819, -34041.036253098995, -61949.55849046213, -187500.02235174447, -51665.96790146446, -39167.207678223574, 0.506, -0.86, 0.162, 192.0, 15.0, 208.0, 229.0, 32.0, 5.0, 16.0, 0.0, 0.0, 0.0, 1.6635922377568855E9, 0.0, 2022-09-19 17:57:17.756
251.0, 399.5374321386137, 7804.804480648575, -76505.7073838362, -34126.17404772926, -62045.96156429787, -187500.02235174447, -51676.47322135845, -39270.40568237373, 0.506, -0.86, 0.162, 192.0, 0.0, 0.0, 0.0, 0.0, 0.0, 0.0, 0.0, 0.0, 0.0, 1.6635922377608852E9, 0.0, 2022-09-19 17:57:17.760
252.0, 598.3114955796594, 7927.068522819105, -76660.15793802237, -34277.83063385852, -62190.64440615707, -187500.02235174447, -51799.22900190699, -39412.69688757621, 0.506, -0.86, 0.162, 192.0, 0.0, 0.0, 0.0, 0.0, 0.0, 0.0, 0.0, 0.0, 0.0, 1.663592237763886E9, 0.0, 2022-09-19 17:57:17.763
253.0, 512.4360933823697, 7880.8451152855305, -76558.323390284, -34217.25740638464, -62083.84777114961, -187500.02235174447, -51794.95981871603, -39316.673793396214, 0.506, -0.86, 0.162, 192.0, 0.0, 0.0, 0.0, 0.0, 0.0, 0.0, 0.0, 0.0, 0.0, 1.6635922377679365E9, 0.0, 2022-09-19 17:57:17.767
254.0, 314.71256193072344, 7747.58401484299, -76388.62894637931, -34073.26746860355, -61913.23690572225, -187500.02235174447, -51654.32264260324, -39162.536163632416, 0.506, -0.86, 0.162, 192.0, 0.0, 0.0, 0.0, 0.0, 0.0, 0.0, 0.0, 0.0, 0.0, 1.6635922377718964E9, 0.0, 2022-09-19 17:57:17.771
255.0, 306.84474788245535, 7725.299325621048, -76414.98165309211, -34068.81947145695, -61921.48469942626, -187500.02235174447, -51662.07869792923, -39165.79951832289, 0.506, -0.86, 0.162, 192.0, 0.0, 0.0, 0.0, 0.0, 0.0, 0.0, 0.0, 0.0, 0.0, 1.6635922377769222E9, 0.0, 2022-09-19 17:57:17.776
0.0, 433.02034533266374, 7791.728710142221, -76527.09800327993, -34158.204097533715, -62032.28229669122, -187500.02235174447, -51710.336114208236, -39266.561182327416, 0.506, -0.86, 0.162, 192.0, 0.0, 0.0, 0.0, 0.0, 0.0, 0.0, 0.0, 0.0, 0.0, 1.6635922377808936E9, 0.0, 2022-09-19 17:57:17.780
1.0, 624.5524435701899, 7915.222098257792, -76666.50583344768, -34279.35055248148, -62175.08759201618, -187500.02235174447, -51824.1288452302, -39397.765922280065, 0.506, -0.86, 0.162, 192.0, 0.0, 0.0, 0.0, 0.0, 0.0, 0.0, 0.0, 0.0, 0.0, 1.6635922377849507E9, 0.0, 2022-09-19 17:57:17.784
2.0, 541.1804367518946, 7870.742126791732, -76594.48851281268, -34193.162225861815, -62067.5980529306, -187500.02235174447, -51926.70100053561, -39296.467816408614, 0.506, -0.86, 0.162, 192.0, 0.0, 0.0, 0.0, 0.0, 0.0, 0.0, 0.0, 0.0, 0.0, 1.6635922377889607E9, 0.0, 2022-09-19 17:57:17.788
3.0, 359.48310607470347, 7747.204035187249, -76443.70364471718, -34038.97989260911, -61920.367112203494, -187500.02235174447, -51803.945219987065, -39161.060948498365, 0.506, -0.86, 0.162, 192.0, 0.0, 0.0, 0.0, 0.0, 0.0, 0.0, 0.0, 0.0, 0.0, 1.6635922377919488E9, 0.0, 2022-09-19 17:57:17.791
4.0, 305.7495124041453, 7726.1710436548055, -76400.92240582973, -34039.359872264846, -61930.78302511967, -187500.02235174447, -51623.34312478818, -39187.57011742236, 0.51, -0.858, 0.164, 192.0, 15.0, 240.0, 229.0, 48.0, 5.0, 32.0, 0.0, 0.0, 0.0, 1.663592237795928E9, 0.0, 2022-09-19 17:57:17.795
5.0, 414.6919148793119, 7799.417710234847, -76494.53151160855, -34105.051649219, -62029.82360480114, -187500.02235174447, -51635.36836330514, -39274.36194114231, 0.51, -0.858, 0.164, 192.0, 0.0, 0.0, 0.0, 0.0, 0.0, 0.0, 0.0, 0.0, 0.0, 1.6635922377999823E9, 0.0, 2022-09-19 17:57:17.799
6.0, 617.1540161554833, 7922.419359972401, -76646.6351326269, -34228.880313501395, -62172.673603615, -187500.02235174447, -51784.38744358867, -39406.170178195265, 0.51, -0.858, 0.164, 192.0, 0.0, 0.0, 0.0, 0.0, 0.0, 0.0, 0.0, 0.0, 0.0, 1.6635922378040042E9, 0.0, 2022-09-19 17:57:17.804
7.0, 519.0298579966853, 7873.491391359734, -76544.44295697725, -34160.305161512515, -62050.63307888903, -187500.02235174447, -51827.705124343054, -39298.5241768985, 0.51, -0.858, 0.164, 192.0, 0.0, 0.0, 0.0, 0.0, 0.0, 0.0, 0.0, 0.0, 0.0, 1.6635922378089705E9, 0.0, 2022-09-19 17:57:17.808
8.0, 336.30434707455004, 7748.545139854567, -76402.1294000303, -33991.72830483059, -61917.97547554678, -187500.02235174447, -51707.832718829246, -39143.090145956296, 0.51, -0.858, 0.164, 192.0, 0.0, 0.0, 0.0, 0.0, 0.0, 0.0, 0.0, 0.0, 0.0, 1.663592237812976E9, 0.0, 2022-09-19 17:57:17.812
9.0, 313.39380900786034, 7726.036933188073, -76400.78829536299, -33964.280362639474, -61944.8199206376, -187500.02235174447, -51615.74353167338, -39145.10180295727, 0.51, -0.858, 0.164, 192.0, 0.0, 0.0, 0.0, 0.0, 0.0, 0.0, 0.0, 0.0, 0.0, 1.6635922378169718E9, 0.0, 2022-09-19 17:57:17.816
10.0, 441.58106345904633, 7802.681064925321, -76513.37403218437, -34075.860270960366, -62064.78173312924, -187500.02235174447, -51666.772564264844, -39256.18997290015, 0.51, -0.858, 0.164, 192.0, 0.0, 0.0, 0.0, 0.0, 0.0, 0.0, 0.0, 0.0, 0.0, 1.6635922378199744E9, 0.0, 2022-09-19 17:57:17.819
11.0, 640.1092577110836, 7926.174453040893, -76651.21724024025, -34219.447877341256, -62204.81541214173, -187500.02235174447, -51788.075481423795, -39395.97778272364, 0.51, -0.858, 0.164, 192.0, 0.0, 0.0, 0.0, 0.0, 0.0, 0.0, 0.0, 0.0, 0.0, 1.6635922378239815E9, 0.0, 2022-09-19 17:57:17.823
12.0, 517.6887533293669, 7865.60122556701, -76530.85309634842, -34121.18960871573, -62078.21513154687, -187500.02235174447, -51782.04051042086, -39278.25114467754, 0.51, -0.858, 0.164, 192.0, 0.0, 0.0, 0.0, 0.0, 0.0, 0.0, 0.0, 0.0, 0.0, 1.663592237828008E9, 0.0, 2022-09-19 17:57:17.828
13.0, 306.12949205988554, 7733.480064091691, -76398.19549300618, -33983.90519427123, -61946.96568810531, -187500.02235174447, -51659.82117173925, -39144.74417504599, 0.51, -0.858, 0.164, 192.0, 0.0, 0.0, 0.0, 0.0, 0.0, 0.0, 0.0, 0.0, 0.0, 1.6635922378320584E9, 0.0, 2022-09-19 17:57:17.832
14.0, 303.33552400297214, 7727.042761688562, -76421.62012119533, -33985.91685127221, -61974.95007216336, -187500.02235174447, -51643.862026198156, -39161.93266653212, 0.508, -0.858, 0.166, 192.0, 15.0, 224.0, 229.0, 48.0, 5.0, 48.0, 0.0, 0.0, 0.0, 1.663592237836984E9, 0.0, 2022-09-19 17:57:17.836
15.0, 444.8891216384318, 7806.413806249358, -76544.4653087217, -34078.90010820629, -62098.28699806774, -187500.02235174447, -51712.41482644258, -39283.324990668894, 0.508, -0.858, 0.166, 192.0, 0.0, 0.0, 0.0, 0.0, 0.0, 0.0, 0.0, 0.0, 0.0, 1.663592237841055E9, 0.0, 2022-09-19 17:57:17.841
16.0, 638.5669873436675, 7919.42422621539, -76681.39209525491, -34224.85699949944, -62236.80075845728, -187500.02235174447, -51839.86447332674, -39425.07975400445, 0.508, -0.858, 0.166, 192.0, 0.0, 0.0, 0.0, 0.0, 0.0, 0.0, 0.0, 0.0, 0.0, 1.6635922378450277E9, 0.0, 2022-09-19 17:57:17.845
17.0, 520.2592039417272, 7852.816027738575, -76570.81801543452, -34150.82802186347, -62103.5620097592, -187500.02235174447, -51871.17926730863, -39310.01297354853, 0.508, -0.858, 0.166, 192.0, 0.0, 0.0, 0.0, 0.0, 0.0, 0.0, 0.0, 0.0, 0.0, 1.6635922378480823E9, 0.0, 2022-09-19 17:57:17.848
18.0, 338.6512802423573, 7736.0952181929615, -76444.95534240668, -34000.1772642347, -61964.04242086917, -187500.02235174447, -51784.521554055405, -39167.766471834955, 0.508, -0.858, 0.166, 192.0, 0.0, 0.0, 0.0, 0.0, 0.0, 0.0, 0.0, 0.0, 0.0, 1.663592237852072E9, 0.0, 2022-09-19 17:57:17.852
19.0, 359.70662351925654, 7734.508244336635, -76471.1515869083, -33966.87316499629, -61988.472877558816, -187500.02235174447, -51772.697481238545, -39161.70914908757, 0.508, -0.858, 0.166, 192.0, 0.0, 0.0, 0.0, 0.0, 0.0, 0.0, 0.0, 0.0, 0.0, 1.663592237856069E9, 0.0, 2022-09-19 17:57:17.856
20.0, 487.5138983147023, 7807.486689983212, -76547.6169046899, -34068.77476796803, -62111.11689938509, -187500.02235174447, -51716.66165788909, -39272.30558065243, 0.508, -0.858, 0.166, 192.0, 0.0, 0.0, 0.0, 0.0, 0.0, 0.0, 0.0, 0.0, 0.0, 1.6635922378600466E9, 0.0, 2022-09-19 17:57:17.860
21.0, 644.1325717130389, 7908.918906321395, -76641.42717616883, -34211.624766781904, -62235.884336934614, -187500.02235174447, -51735.32536450927, -39409.56764335247, 0.508, -0.858, 0.166, 192.0, 0.0, 0.0, 0.0, 0.0, 0.0, 0.0, 0.0, 0.0, 0.0, 1.6635922378650365E9, 0.0, 2022-09-19 17:57:17.865
22.0, 482.17183138988395, 7828.139701859916, -76507.94255828173, -34096.93796598172, -62090.687404952936, -187500.02235174447, -51704.63641937214, -39272.01500797451, 0.508, -0.858, 0.166, 192.0, 0.0, 0.0, 0.0, 0.0, 0.0, 0.0, 0.0, 0.0, 0.0, 1.6635922378691027E9, 0.0, 2022-09-19 17:57:17.869
23.0, 276.51343065660365, 7695.7726711955875, -76399.64835639577, -33941.548638528424, -61954.699391686845, -187500.02235174447, -51643.05736339776, -39128.15918066015, 0.508, -0.858, 0.166, 192.0, 0.0, 0.0, 0.0, 0.0, 0.0, 0.0, 0.0, 0.0, 0.0, 1.6635922378730757E9, 0.0, 2022-09-19 17:57:17.873
24.0, 304.54251820355876, 7699.1701363527945, -76441.84844992739, -33971.16469993171, -61992.58559853859, -187500.02235174447, -51672.22638991194, -39169.107576502276, 0.506, -0.86, 0.162, 192.0, 15.0, 208.0, 229.0, 32.0, 5.0, 16.0, 0.0, 0.0, 0.0, 1.663592237876083E9, 0.0, 2022-09-19 17:57:17.876
25.0, 473.4099475634036, 7798.076605567528, -76554.54594547105, -34091.19356765671, -62121.4657570679, -187500.02235174447, -51711.587811897734, -39293.51738614051, 0.506, -0.86, 0.162, 192.0, 0.0, 0.0, 0.0, 0.0, 0.0, 0.0, 0.0, 0.0, 0.0, 1.6635922378800988E9, 0.0, 2022-09-19 17:57:17.880
26.0, 660.7622695877874, 7904.180336496871, -76664.78474912462, -34200.8735776989, -62237.068979390744, -187500.02235174447, -51802.268839152915, -39393.921422233754, 0.506, -0.86, 0.162, 192.0, 0.0, 0.0, 0.0, 0.0, 0.0, 0.0, 0.0, 0.0, 0.0, 1.6635922378841531E9, 0.0, 2022-09-19 17:57:17.884
27.0, 518.5604713631238, 7824.876347169441, -76521.64417763283, -34087.818454243956, -62091.06738460868, -187500.02235174447, -51763.53326601187, -39267.321141638895, 0.506, -0.86, 0.162, 192.0, 0.0, 0.0, 0.0, 0.0, 0.0, 0.0, 0.0, 0.0, 0.0, 1.6635922378902853E9, 0.0, 2022-09-19 17:57:17.890
28.0, 335.1197046184188, 7707.842613201454, -76415.71926065914, -33962.447519594134, -61965.674098214404, -187500.02235174447, -51689.28077093134, -39154.26601818395, 0.506, -0.86, 0.162, 192.0, 0.0, 0.0, 0.0, 0.0, 0.0, 0.0, 0.0, 0.0, 0.0, 1.663592237894201E9, 0.0, 2022-09-19 17:57:17.894
29.0, 357.2702833736281, 7713.117624892906, -76447.7493104636, -33979.27838316898, -61991.199790382365, -187500.02235174447, -51688.14083196412, -39187.1007307888, 0.506, -0.86, 0.162, 192.0, 0.0, 0.0, 0.0, 0.0, 0.0, 0.0, 0.0, 0.0, 0.0, 1.6635922378971102E9, 0.0, 2022-09-19 17:57:17.897
30.0, 495.784043763166, 7810.392416762402, -76552.15430881432, -34088.69017227771, -62110.02166390678, -187500.02235174447, -51689.32547442025, -39312.002278805056, 0.506, -0.86, 0.162, 192.0, 0.0, 0.0, 0.0, 0.0, 0.0, 0.0, 0.0, 0.0, 0.0, 1.6635922379011264E9, 0.0, 2022-09-19 17:57:17.901
31.0, 666.1043365126058, 7922.911098350418, -76678.35225800899, -34215.35750810594, -62222.49564200588, -187500.02235174447, -51823.12301672972, -39418.262471945585, 0.506, -0.86, 0.162, 192.0, 0.0, 0.0, 0.0, 0.0, 0.0, 0.0, 0.0, 0.0, 0.0, 1.663592237904124E9, 0.0, 2022-09-19 17:57:17.904
32.0, 518.4710643853026, 7833.258251340181, -76555.819994905, -34096.53563458152, -62066.01107907428, -187500.02235174447, -51863.35615674927, -39265.33183638237, 0.506, -0.86, 0.162, 192.0, 0.0, 0.0, 0.0, 0.0, 0.0, 0.0, 0.0, 0.0, 0.0, 1.6635922379082093E9, 0.0, 2022-09-19 17:57:17.908
33.0, 358.47727757421467, 7722.997095942152, -76435.72407194664, -33964.973266717585, -61946.40689449393, -187500.02235174447, -51756.827742675276, -39131.84721849528, 0.506, -0.86, 0.162, 192.0, 0.0, 0.0, 0.0, 0.0, 0.0, 0.0, 0.0, 0.0, 0.0, 1.6635922379121697E9, 0.0, 2022-09-19 17:57:17.912
34.0, 369.42963235731514, 7729.590860556467, -76437.57926673643, -34004.401743936745, -61982.9296449339, -187500.02235174447, -51662.68219502953, -39171.61097188127, 0.506, -0.858, 0.166, 192.0, 15.0, 208.0, 229.0, 48.0, 5.0, 48.0, 0.0, 0.0, 0.0, 1.6635922379161687E9, 0.0, 2022-09-19 17:57:17.916
35.0, 516.3252969175932, 7824.049332624595, -76553.36130301491, -34111.779524300044, -62119.6105622781, -187500.02235174447, -51671.28761664482, -39310.169435759715, 0.506, -0.858, 0.166, 192.0, 0.0, 0.0, 0.0, 0.0, 0.0, 0.0, 0.0, 0.0, 0.0, 1.6635922379201508E9, 0.0, 2022-09-19 17:57:17.920
36.0, 664.5844178896449, 7915.982057569273, -76648.0432925276, -34188.758932204124, -62213.59964771267, -187500.02235174447, -51766.14842011314, -39389.451073342694, 0.506, -0.858, 0.166, 192.0, 0.0, 0.0, 0.0, 0.0, 0.0, 0.0, 0.0, 0.0, 0.0, 1.6635922379252837E9, 0.0, 2022-09-19 17:57:17.925
37.0, 505.4623491123139, 7816.494442998701, -76490.99993598461, -34058.515317263045, -62043.055837518674, -187500.02235174447, -51735.32536450927, -39223.131742850754, 0.506, -0.858, 0.166, 192.0, 0.0, 0.0, 0.0, 0.0, 0.0, 0.0, 0.0, 0.0, 0.0, 1.6635922379292068E9, 0.0, 2022-09-19 17:57:17.929
38.0, 339.45594304274834, 7698.432528785769, -76396.00502204956, -33957.30661836942, -61934.158138532424, -187500.02235174447, -51659.575302550234, -39119.531407300405, 0.506, -0.858, 0.166, 192.0, 0.0, 0.0, 0.0, 0.0, 0.0, 0.0, 0.0, 0.0, 0.0, 1.6635922379321966E9, 0.0, 2022-09-19 17:57:17.932
39.0, 356.46562057323706, 7701.829993942976, -76446.22939184064, -33995.9751362771, -61982.259092600245, -187500.02235174447, -51681.16708769406, -39178.964695807066, 0.506, -0.858, 0.166, 192.0, 0.0, 0.0, 0.0, 0.0, 0.0, 0.0, 0.0, 0.0, 0.0, 1.6635922379361746E9, 0.0, 2022-09-19 17:57:17.936
40.0, 523.7907795656657, 7800.669407924343, -76569.40985553383, -34115.221692946165, -62123.70093151343, -187500.02235174447, -51728.19515802803, -39306.01201129103, 0.506, -0.858, 0.166, 192.0, 0.0, 0.0, 0.0, 0.0, 0.0, 0.0, 0.0, 0.0, 0.0, 1.6635922379402628E9, 0.0, 2022-09-19 17:57:17.940
41.0, 678.8224791076755, 7905.789662097653, -76652.088958274, -34225.885179744386, -62229.04470313129, -187500.02235174447, -51798.89372574016, -39405.03023922804, 0.506, -0.858, 0.166, 192.0, 0.0, 0.0, 0.0, 0.0, 0.0, 0.0, 0.0, 0.0, 0.0, 1.6635922379443147E9, 0.0, 2022-09-19 17:57:17.944
42.0, 508.63629682496753, 7807.017303349651, -76494.06212497498, -34083.817491986454, -62057.51741618126, -187500.02235174447, -51774.68678649507, -39236.67689999067, 0.506, -0.858, 0.166, 192.0, 0.0, 0.0, 0.0, 0.0, 0.0, 0.0, 0.0, 0.0, 0.0, 1.663592237948254E9, 0.0, 2022-09-19 17:57:17.948
43.0, 354.90099846136553, 7701.539421265057, -76394.88743482679, -33955.764348002, -61946.4739497273, -187500.02235174447, -51684.87747727364, -39118.36911658873, 0.506, -0.858, 0.166, 192.0, 0.0, 0.0, 0.0, 0.0, 0.0, 0.0, 0.0, 0.0, 0.0, 1.6635922379531977E9, 0.0, 2022-09-19 17:57:17.953
44.0, 354.7445362501784, 7702.14291836535, -76411.71829840164, -33968.05780745242, -61976.91702567542, -187500.02235174447, -51611.16142406004, -39165.397186922695, 0.506, -0.858, 0.166, 192.0, 0.0, 0.0, 0.0, 0.0, 0.0, 0.0, 0.0, 0.0, 0.0, 1.6635922379562385E9, 0.0, 2022-09-19 17:57:17.956
45.0, 501.14846243243966, 7796.802556133575, -76528.10383178042, -34078.45307331718, -62101.662111480495, -187500.02235174447, -51650.23227336792, -39297.40658967574, 0.51, -0.862, 0.168, 192.0, 15.0, 240.0, 229.0, 16.0, 5.0, 64.0, 0.0, 0.0, 0.0, 1.6635922379592872E9, 0.0, 2022-09-19 17:57:17.959
46.0, 657.9906532753294, 7891.2386764572475, -76632.86645804244, -34180.19821407774, -62198.914551605536, -187500.02235174447, -51801.91121124163, -39397.27418390205, 0.51, -0.862, 0.168, 192.0, 0.0, 0.0, 0.0, 0.0, 0.0, 0.0, 0.0, 0.0, 0.0, 1.6635922379642808E9, 0.0, 2022-09-19 17:57:17.964
47.0, 476.44978480932537, 7768.192323230783, -76474.66081078778, -34015.62231965331, -62035.27743044823, -187500.02235174447, -51762.3709753002, -39212.8052369124, 0.51, -0.862, 0.168, 192.0, 0.0, 0.0, 0.0, 0.0, 0.0, 0.0, 0.0, 0.0, 0.0, 1.6635922379682777E9, 0.0, 2022-09-19 17:57:17.968
48.0, 311.4268554957933, 7650.510388673591, -76372.49098688258, -33899.057972318886, -61935.275725755186, -187500.02235174447, -51637.71529647295, -39099.392485546174, 0.51, -0.862, 0.168, 192.0, 0.0, 0.0, 0.0, 0.0, 0.0, 0.0, 0.0, 0.0, 0.0, 1.6635922379723222E9, 0.0, 2022-09-19 17:57:17.972
49.0, 342.8310564554997, 7672.437449984247, -76409.32666174491, -33927.66820522168, -61973.251339584756, -187500.02235174447, -51618.42574100802, -39139.06683195434, 0.51, -0.862, 0.168, 192.0, 0.0, 0.0, 0.0, 0.0, 0.0, 0.0, 0.0, 0.0, 0.0, 1.663592237976286E9, 0.0, 2022-09-19 17:57:17.976
50.0, 501.3049246436268, 7783.212695504749, -76531.85892484892, -34045.238381056595, -62107.13828887204, -187500.02235174447, -51655.194360637, -39267.1199759388, 0.51, -0.862, 0.168, 192.0, 0.0, 0.0, 0.0, 0.0, 0.0, 0.0, 0.0, 0.0, 0.0, 1.6635922379802723E9, 0.0, 2022-09-19 17:57:17.980
51.0, 635.6389088200223, 7866.003556967206, -76617.39905087936, -34157.82411787798, -62188.94567357847, -187500.02235174447, -51767.467173036006, -39347.11686934434, 0.51, -0.862, 0.168, 192.0, 0.0, 0.0, 0.0, 0.0, 0.0, 0.0, 0.0, 0.0, 0.0, 1.6635922379842925E9, 0.0, 2022-09-19 17:57:17.984
52.0, 451.3711275304708, 7748.366325898925, -76444.91063891776, -34040.45510774316, -62014.91499124945, -187500.02235174447, -51701.37306468166, -39188.93357383413, 0.51, -0.862, 0.168, 192.0, 0.0, 0.0, 0.0, 0.0, 0.0, 0.0, 0.0, 0.0, 0.0, 1.6635922379883144E9, 0.0, 2022-09-19 17:57:17.988
53.0, 319.7193526887122, 7676.371357008381, -76349.55809707142, -33926.885894165745, -61919.65185638093, -187500.02235174447, -51591.67070289501, -39088.19426157406, 0.51, -0.862, 0.168, 192.0, 0.0, 0.0, 0.0, 0.0, 0.0, 0.0, 0.0, 0.0, 0.0, 1.6635922379923053E9, 0.0, 2022-09-19 17:57:17.992
54.0, 371.5753998250246, 7704.333389321971, -76402.0846965414, -33972.170528432194, -61968.825694182604, -187500.02235174447, -51600.723159399415, -39146.17468669113, 0.51, -0.862, 0.168, 192.0, 0.0, 0.0, 0.0, 0.0, 0.0, 0.0, 0.0, 0.0, 0.0, 1.663592237996306E9, 0.0, 2022-09-19 17:57:17.996
55.0, 561.7216899063218, 7814.59454472, -76552.824861148, -34115.04287899052, -62109.10524238411, -187500.02235174447, -51702.088320504234, -39287.035380248475, 0.504, -0.856, 0.17200000000000001, 192.0, 15.0, 192.0, 229.0, 64.0, 5.0, 96.0, 0.0, 0.0, 0.0, 1.663592238000419E9, 0.0, 2022-09-19 17:57:18.000
56.0, 705.3316480316697, 7905.163813252904, -76641.71774884674, -34210.88715921488, -62186.84460959967, -187500.02235174447, -51829.24739471047, -39369.826241710936, 0.504, -0.856, 0.17200000000000001, 192.0, 0.0, 0.0, 0.0, 0.0, 0.0, 0.0, 0.0, 0.0, 0.0, 1.6635922380042999E9, 0.0, 2022-09-19 17:57:18.004
57.0, 518.4487126408474, 7790.789936875098, -76476.2477846441, -34086.32088736545, -62010.981084225314, -187500.02235174447, -51772.60807426072, -39207.552576965405, 0.504, -0.856, 0.17200000000000001, 192.0, 0.0, 0.0, 0.0, 0.0, 0.0, 0.0, 0.0, 0.0, 0.0, 1.6635922380094967E9, 0.0, 2022-09-19 17:57:18.009
58.0, 380.2478766736838, 7700.019502642096, -76396.85438833886, -34001.07133401291, -61928.54785067414, -187500.02235174447, -51662.726898518435, -39133.724765029525, 0.504, -0.856, 0.17200000000000001, 192.0, 0.0, 0.0, 0.0, 0.0, 0.0, 0.0, 0.0, 0.0, 0.0, 1.663592238012361E9, 0.0, 2022-09-19 17:57:18.012
59.0, 420.1904440153175, 7723.488834320168, -76438.7415574481, -34009.05090678345, -61984.22604611231, -187500.02235174447, -51639.70460172947, -39168.5934863798, 0.504, -0.856, 0.17200000000000001, 192.0, 0.0, 0.0, 0.0, 0.0, 0.0, 0.0, 0.0, 0.0, 0.0, 1.6635922380153809E9, 0.0, 2022-09-19 17:57:18.015
60.0, 594.131719366517, 7828.966716404762, -76564.80539617603, -34116.8533702914, -62135.6144113081, -187500.02235174447, -51666.5937503092, -39301.2734414665, 0.504, -0.856, 0.17200000000000001, 192.0, 0.0, 0.0, 0.0, 0.0, 0.0, 0.0, 0.0, 0.0, 0.0, 1.6635922380203235E9, 0.0, 2022-09-19 17:57:18.020
61.0, 709.9584591339183, 7903.845060330041, -76635.30279818807, -34209.36724059191, -62212.50441223436, -187500.02235174447, -51760.33696655476, -39389.719294276154, 0.504, -0.856, 0.17200000000000001, 192.0, 0.0, 0.0, 0.0, 0.0, 0.0, 0.0, 0.0, 0.0, 0.0, 1.6635922380243611E9, 0.0, 2022-09-19 17:57:18.024
62.0, 516.973497506797, 7784.196172260782, -76469.38579909633, -34057.040102128994, -62030.0918257346, -187500.02235174447, -51713.86768983218, -39204.78096065295, 0.504, -0.856, 0.17200000000000001, 192.0, 0.0, 0.0, 0.0, 0.0, 0.0, 0.0, 0.0, 0.0, 0.0, 1.6635922380284119E9, 0.0, 2022-09-19 17:57:18.028
63.0, 392.07194949054116, 7698.030197385574, -76413.19351353569, -33971.835252265366, -61945.73634216027, -187500.02235174447, -51675.98148298043, -39115.86572120973, 0.504, -0.856, 0.17200000000000001, 192.0, 0.0, 0.0, 0.0, 0.0, 0.0, 0.0, 0.0, 0.0, 0.0, 1.6635922380323813E9, 0.0, 2022-09-19 17:57:18.032
64.0, 440.23995879172793, 7721.924212208297, -76468.89406071832, -34009.45323818365, -62012.32218889263, -187500.02235174447, -51675.243875413405, -39175.455471927584, 0.504, -0.856, 0.17200000000000001, 192.0, 0.0, 0.0, 0.0, 0.0, 0.0, 0.0, 0.0, 0.0, 0.0, 1.663592238036354E9, 0.0, 2022-09-19 17:57:18.036
65.0, 624.775961014743, 7832.744161217709, -76621.46706837024, -34145.77652761657, -62180.92139731901, -187500.02235174447, -51754.592568229746, -39344.09938384288, 0.506, -0.848, 0.178, 192.0, 15.0, 208.0, 229.0, 128.0, 5.0, 144.0, 0.0, 0.0, 0.0, 1.6635922380404072E9, 0.0, 2022-09-19 17:57:18.040
66.0, 752.2703113878144, 7911.444653444845, -76691.38332502644, -34263.81609008504, -62246.724932995436, -187500.02235174447, -51878.48828774552, -39430.24300697363, 0.506, -0.848, 0.178, 192.0, 0.0, 0.0, 0.0, 0.0, 0.0, 0.0, 0.0, 0.0, 0.0, 1.6635922380434322E9, 0.0, 2022-09-19 17:57:18.043
67.0, 559.2853497606933, 7800.803518391075, -76496.78903779853, -34134.28773096654, -62075.95760535689, -187500.02235174447, -51740.62272794518, -39273.11024345282, 0.506, -0.848, 0.178, 192.0, 0.0, 0.0, 0.0, 0.0, 0.0, 0.0, 0.0, 0.0, 0.0, 1.6635922380476117E9, 0.0, 2022-09-19 17:57:18.047
68.0, 410.1992142437952, 7717.967953439707, -76402.48702794159, -34033.32490126192, -62004.45437484436, -187500.02235174447, -51587.02154004831, -39178.45060568459, 0.506, -0.848, 0.178, 192.0, 0.0, 0.0, 0.0, 0.0, 0.0, 0.0, 0.0, 0.0, 0.0, 1.663592238052407E9, 0.0, 2022-09-19 17:57:18.052
69.0, 444.6432524494234, 7743.1360176963835, -76475.51017707709, -34058.18004109622, -62061.22780576084, -187500.02235174447, -51640.442209296496, -39208.84897814381, 0.506, -0.848, 0.178, 192.0, 0.0, 0.0, 0.0, 0.0, 0.0, 0.0, 0.0, 0.0, 0.0, 1.6635922380564172E9, 0.0, 2022-09-19 17:57:18.056
70.0, 649.0723072376618, 7860.616786553477, -76630.51952487463, -34161.37804524637, -62216.438319258494, -187500.02235174447, -51742.09794307923, -39332.14120055929, 0.506, -0.848, 0.178, 192.0, 0.0, 0.0, 0.0, 0.0, 0.0, 0.0, 0.0, 0.0, 0.0, 1.6635922380604942E9, 0.0, 2022-09-19 17:57:18.060
71.0, 760.026366713806, 7930.533043209678, -76667.69047590382, -34231.80839202504, -62265.47804659344, -187500.02235174447, -51796.16681291662, -39381.44914882769, 0.506, -0.848, 0.178, 192.0, 0.0, 0.0, 0.0, 0.0, 0.0, 0.0, 0.0, 0.0, 0.0, 1.663592238066473E9, 0.0, 2022-09-19 17:57:18.066
72.0, 552.8256956131096, 7805.720902171243, -76479.3546771234, -34105.431628874736, -62079.913864125476, -187500.02235174447, -51696.27686694585, -39230.686632476645, 0.506, -0.848, 0.178, 192.0, 0.0, 0.0, 0.0, 0.0, 0.0, 0.0, 0.0, 0.0, 0.0, 1.6635922380694847E9, 0.0, 2022-09-19 17:57:18.069
73.0, 419.92222308185376, 7719.152595895839, -76403.76107737554, -34019.93620633319, -62011.09284294759, -187500.02235174447, -51576.69503410996, -39150.287407670905, 0.506, -0.848, 0.178, 192.0, 0.0, 0.0, 0.0, 0.0, 0.0, 0.0, 0.0, 0.0, 0.0, 1.6635922380724657E9, 0.0, 2022-09-19 17:57:18.072
74.0, 460.04360437913, 7744.790046786076, -76471.06217993048, -34076.37436108284, -62065.34052674062, -187500.02235174447, -51613.39659850557, -39195.12500704825, 0.506, -0.848, 0.178, 192.0, 0.0, 0.0, 0.0, 0.0, 0.0, 0.0, 0.0, 0.0, 0.0, 1.6635922380764377E9, 0.0, 2022-09-19 17:57:18.076
75.0, 668.7865458472427, 7868.4622488572895, -76642.6341703694, -34231.96485423623, -62218.047644859274, -187500.02235174447, -51759.420545032095, -39347.586255977905, 0.512, -0.856, 0.176, 192.0, 16.0, 0.0, 229.0, 64.0, 5.0, 128.0, 0.0, 0.0, 0.0, 1.6635922380805144E9, 0.0, 2022-09-19 17:57:18.080
76.0, 792.6822653630097, 7941.440694503867, -76694.66903146137, -34315.26980582116, -62272.34003214122, -187500.02235174447, -51865.07724107233, -39405.521977606055, 0.512, -0.856, 0.176, 192.0, 0.0, 0.0, 0.0, 0.0, 0.0, 0.0, 0.0, 0.0, 0.0, 1.6635922380844522E9, 0.0, 2022-09-19 17:57:18.084
77.0, 573.5681144676346, 7811.778224918631, -76497.88427327684, -34149.19634451823, -62087.71462294038, -187500.02235174447, -51730.29622200683, -39244.23178961656, 0.512, -0.856, 0.176, 192.0, 0.0, 0.0, 0.0, 0.0, 0.0, 0.0, 0.0, 0.0, 0.0, 1.6635922380884483E9, 0.0, 2022-09-19 17:57:18.088
78.0, 451.818162419577, 7731.24488964616, -76427.67744394272, -34078.63188727282, -62029.8906600345, -187500.02235174447, -51613.21778454993, -39186.56428892187, 0.512, -0.856, 0.176, 192.0, 0.0, 0.0, 0.0, 0.0, 0.0, 0.0, 0.0, 0.0, 0.0, 1.6635922380925083E9, 0.0, 2022-09-19 17:57:18.092
79.0, 516.7946835511545, 7764.996023773673, -76502.62284310137, -34129.37034718637, -62095.850657922114, -187500.02235174447, -51674.30510214628, -39239.3144058364, 0.512, -0.856, 0.176, 192.0, 0.0, 0.0, 0.0, 0.0, 0.0, 0.0, 0.0, 0.0, 0.0, 1.6635922380964985E9, 0.0, 2022-09-19 17:57:18.096
80.0, 720.7767034502868, 7889.0035020117175, -76686.48829299072, -34274.41081695686, -62257.766694756356, -187500.02235174447, -51842.4349239391, -39388.534651820024, 0.512, -0.856, 0.176, 192.0, 0.0, 0.0, 0.0, 0.0, 0.0, 0.0, 0.0, 0.0, 0.0, 1.663592238099512E9, 0.0, 2022-09-19 17:57:18.099
81.0, 817.1574255415709, 7953.823560932107, -76714.67384274886, -34325.998643159706, -62289.99791026091, -187500.02235174447, -51918.453206831604, -39417.59191961192, 0.512, -0.856, 0.176, 192.0, 0.0, 0.0, 0.0, 0.0, 0.0, 0.0, 0.0, 0.0, 0.0, 1.6635922381035688E9, 0.0, 2022-09-19 17:57:18.103
82.0, 578.552553481168, 7814.438082508813, -76492.47515111866, -34168.061216838505, -62097.325873056165, -187500.02235174447, -51721.62374515817, -39240.744917481534, 0.512, -0.856, 0.176, 192.0, 0.0, 0.0, 0.0, 0.0, 0.0, 0.0, 0.0, 0.0, 0.0, 1.6635922381084943E9, 0.0, 2022-09-19 17:57:18.108
83.0, 445.15734257189547, 7734.6870582922775, -76422.67065318473, -34106.72803005314, -62039.367799683554, -187500.02235174447, -51592.52006918431, -39181.71396037507, 0.512, -0.856, 0.176, 192.0, 0.0, 0.0, 0.0, 0.0, 0.0, 0.0, 0.0, 0.0, 0.0, 1.6635922381125298E9, 0.0, 2022-09-19 17:57:18.112
84.0, 512.0337619821742, 7765.8006865740645, -76503.53926462404, -34132.32077745447, -62102.33266381415, -187500.02235174447, -51668.44894509899, -39210.74887642251, 0.512, -0.856, 0.176, 192.0, 0.0, 0.0, 0.0, 0.0, 0.0, 0.0, 0.0, 0.0, 0.0, 1.663592238116512E9, 0.0, 2022-09-19 17:57:18.116
85.0, 733.6513082565438, 7877.5594088505995, -76693.14911283841, -34281.02693331563, -62266.12624718264, -187500.02235174447, -51862.663252671155, -39383.50550931758, 0.51, -0.862, 0.17, 192.0, 15.0, 240.0, 229.0, 16.0, 5.0, 80.0, 0.0, 0.0, 0.0, 1.6635922381206837E9, 0.0, 2022-09-19 17:57:18.120
86.0, 822.7900651443083, 7933.461121733323, -76729.20247664482, -34364.89067851194, -62292.724823084456, -187500.02235174447, -51982.11097504032, -39438.80372510001, 0.51, -0.862, 0.17, 192.0, 0.0, 0.0, 0.0, 0.0, 0.0, 0.0, 0.0, 0.0, 0.0, 1.6635922381256323E9, 0.0, 2022-09-19 17:57:18.125
87.0, 561.4087654839475, 7794.54502994359, -76500.18650295574, -34174.16324307481, -62110.84867845162, -187500.02235174447, -51743.14847506863, -39247.472792562585, 0.51, -0.862, 0.17, 192.0, 0.0, 0.0, 0.0, 0.0, 0.0, 0.0, 0.0, 0.0, 0.0, 1.6635922381296165E9, 0.0, 2022-09-19 17:57:18.129
88.0, 428.8405691195213, 7710.010732413618, -76416.70273741517, -34063.209183598665, -62053.73997136831, -187500.02235174447, -51559.86417053511, -39171.70037885909, 0.51, -0.862, 0.17, 192.0, 0.0, 0.0, 0.0, 0.0, 0.0, 0.0, 0.0, 0.0, 0.0, 1.663592238132578E9, 0.0, 2022-09-19 17:57:18.132
89.0, 493.3700553619928, 7732.876566991397, -76486.14960743781, -34102.70471605119, -62113.396777319525, -187500.02235174447, -51585.903952825545, -39234.35231856732, 0.51, -0.862, 0.17, 192.0, 0.0, 0.0, 0.0, 0.0, 0.0, 0.0, 0.0, 0.0, 0.0, 1.6635922381366124E9, 0.0, 2022-09-19 17:57:18.136
90.0, 699.3413805176474, 7855.095905673016, -76669.72448464924, -34283.39621822789, -62284.32056716926, -187500.02235174447, -51728.95511733951, -39403.42091362726, 0.51, -0.862, 0.17, 192.0, 0.0, 0.0, 0.0, 0.0, 0.0, 0.0, 0.0, 0.0, 0.0, 1.663592238140607E9, 0.0, 2022-09-19 17:57:18.140
91.0, 756.6289015565994, 7912.383426711968, -76700.88281641994, -34354.94415222933, -62300.212657476986, -187500.02235174447, -51849.49807518698, -39444.16814376928, 0.51, -0.862, 0.17, 192.0, 0.0, 0.0, 0.0, 0.0, 0.0, 0.0, 0.0, 0.0, 0.0, 1.6635922381446326E9, 0.0, 2022-09-19 17:57:18.144
92.0, 529.9375092908751, 7786.900733339875, -76513.48579090665, -34175.30318204203, -62103.539658014735, -187500.02235174447, -51753.542036240346, -39259.54273456845, 0.51, -0.862, 0.17, 192.0, 0.0, 0.0, 0.0, 0.0, 0.0, 0.0, 0.0, 0.0, 0.0, 1.663592238148601E9, 0.0, 2022-09-19 17:57:18.148
93.0, 446.0067088611971, 7716.671552261299, -76470.97277295265, -34115.6016726019, -62059.84199760461, -187500.02235174447, -51658.1447909051, -39207.552576965405, 0.51, -0.862, 0.17, 192.0, 0.0, 0.0, 0.0, 0.0, 0.0, 0.0, 0.0, 0.0, 0.0, 1.6635922381515703E9, 0.0, 2022-09-19 17:57:18.151
94.0, 533.4020296814477, 7757.418782403324, -76555.75293967163, -34184.73561820217, -62128.41714959349, -187500.02235174447, -51709.44204443003, -39264.86244974881, 0.51, -0.862, 0.17, 192.0, 0.0, 0.0, 0.0, 0.0, 0.0, 0.0, 0.0, 0.0, 0.0, 1.6635922381557212E9, 0.0, 2022-09-19 17:57:18.155
95.0, 741.1391426490716, 7887.684749088854, -76711.79046771413, -34332.25713160719, -62285.035822991835, -187500.02235174447, -51818.429150394106, -39415.602614355405, 0.51, -0.864, 0.162, 192.0, 15.0, 240.0, 229.0, 0.0, 5.0, 16.0, 0.0, 0.0, 0.0, 1.6635922381596093E9, 0.0, 2022-09-19 17:57:18.159
96.0, 794.895088064085, 7933.706990922331, -76705.68844147783, -34358.02869296416, -62285.66167183658, -187500.02235174447, -51869.61464519676, -39425.81736157148, 0.51, -0.864, 0.162, 192.0, 0.0, 0.0, 0.0, 0.0, 0.0, 0.0, 0.0, 0.0, 0.0, 1.663592238164611E9, 0.0, 2022-09-19 17:57:18.164
97.0, 565.1862102968944, 7787.705396140265, -76504.16511346879, -34201.00768816563, -62093.79429743222, -187500.02235174447, -51736.554710454315, -39233.92763542267, 0.51, -0.864, 0.162, 192.0, 0.0, 0.0, 0.0, 0.0, 0.0, 0.0, 0.0, 0.0, 0.0, 1.6635922381686337E9, 0.0, 2022-09-19 17:57:18.168
98.0, 485.52459305818, 7721.231308130183, -76489.79294178402, -34160.37221674588, -62050.92365156695, -187500.02235174447, -51728.597489428226, -39194.56621343687, 0.51, -0.864, 0.162, 192.0, 0.0, 0.0, 0.0, 0.0, 0.0, 0.0, 0.0, 0.0, 0.0, 1.6635922381727707E9, 0.0, 2022-09-19 17:57:18.172
99.0, 563.1522015514614, 7762.179703972305, -76563.19607057526, -34247.275799188115, -62118.87295471108, -187500.02235174447, -51757.587701986755, -39286.70010408165, 0.51, -0.864, 0.162, 192.0, 0.0, 0.0, 0.0, 0.0, 0.0, 0.0, 0.0, 0.0, 0.0, 1.6635922381766007E9, 0.0, 2022-09-19 17:57:18.176
100.0, 743.4413723279682, 7887.349472922025, -76705.97901415575, -34410.75645813423, -62284.58878810272, -187500.02235174447, -51809.622563078716, -39456.2604375196, 0.51, -0.864, 0.162, 192.0, 0.0, 0.0, 0.0, 0.0, 0.0, 0.0, 0.0, 0.0, 0.0, 1.6635922381796134E9, 0.0, 2022-09-19 17:57:18.179
101.0, 786.2896664487919, 7919.692447148854, -76697.17242684036, -34421.082964072586, -62285.50520962539, -187500.02235174447, -51840.646784382676, -39455.2099055302, 0.51, -0.864, 0.162, 192.0, 0.0, 0.0, 0.0, 0.0, 0.0, 0.0, 0.0, 0.0, 0.0, 1.6635922381836529E9, 0.0, 2022-09-19 17:57:18.183
102.0, 545.136695520484, 7775.523695412123, -76508.38959317084, -34225.30403438855, -62092.27437880926, -187500.02235174447, -51722.227242258465, -39258.33574036786, 0.51, -0.864, 0.162, 192.0, 0.0, 0.0, 0.0, 0.0, 0.0, 0.0, 0.0, 0.0, 0.0, 1.6635922381876566E9, 0.0, 2022-09-19 17:57:18.187
103.0, 462.1223166134735, 7715.509261549624, -76488.36243013888, -34166.586001704454, -62053.71761962386, -187500.02235174447, -51695.76277682338, -39219.354298037804, 0.51, -0.864, 0.162, 192.0, 0.0, 0.0, 0.0, 0.0, 0.0, 0.0, 0.0, 0.0, 0.0, 1.6635922381918297E9, 0.0, 2022-09-19 17:57:18.191
104.0, 530.2057302243388, 7751.8308462894975, -76561.40793101882, -34250.44974690077, -62124.48324256936, -187500.02235174447, -51720.260288746395, -39295.32787744139, 0.51, -0.864, 0.162, 192.0, 0.0, 0.0, 0.0, 0.0, 0.0, 0.0, 0.0, 0.0, 0.0, 1.663592238196673E9, 0.0, 2022-09-19 17:57:18.196
105.0, 743.4637240724235, 7885.874257787974, -76716.48433404975, -34407.42604821039, -62275.8492560207, -187500.02235174447, -51806.940353744074, -39450.538390939044, 0.512, -0.858, 0.164, 192.0, 16.0, 0.0, 229.0, 48.0, 5.0, 32.0, 0.0, 0.0, 0.0, 1.6635922382006452E9, 0.0, 2022-09-19 17:57:18.200
106.0, 791.5199746513337, 7911.109377278016, -76711.34343282503, -34442.16065909394, -62253.87749122113, -187500.02235174447, -51910.80891022789, -39457.57919044247, 0.512, -0.858, 0.164, 192.0, 0.0, 0.0, 0.0, 0.0, 0.0, 0.0, 0.0, 0.0, 0.0, 1.6635922382046862E9, 0.0, 2022-09-19 17:57:18.204
107.0, 562.2134282843385, 7773.601445388967, -76502.89106403483, -34276.46717744675, -62052.13064576753, -187500.02235174447, -51741.98618435695, -39273.892554508755, 0.512, -0.858, 0.164, 192.0, 0.0, 0.0, 0.0, 0.0, 0.0, 0.0, 0.0, 0.0, 0.0, 1.6635922382077975E9, 0.0, 2022-09-19 17:57:18.207
108.0, 459.97654914576407, 7712.625886514889, -76480.2487469016, -34164.931972614766, -62013.52918309322, -187500.02235174447, -51668.09131718771, -39203.19398679662, 0.512, -0.858, 0.164, 192.0, 0.0, 0.0, 0.0, 0.0, 0.0, 0.0, 0.0, 0.0, 0.0, 1.6635922382117472E9, 0.0, 2022-09-19 17:57:18.211
109.0, 544.8461228425649, 7750.221520688716, -76555.30590478252, -34198.884272442374, -62090.19566657492, -187500.02235174447, -51690.219544198466, -39271.232696918574, 0.512, -0.858, 0.164, 192.0, 0.0, 0.0, 0.0, 0.0, 0.0, 0.0, 0.0, 0.0, 0.0, 1.6635922382157445E9, 0.0, 2022-09-19 17:57:18.215
110.0, 737.4511048139459, 7866.361184878491, -76693.43968551632, -34360.867364509984, -62241.047589903785, -187500.02235174447, -51760.82870493278, -39427.270224961074, 0.512, -0.858, 0.164, 192.0, 0.0, 0.0, 0.0, 0.0, 0.0, 0.0, 0.0, 0.0, 0.0, 1.6635922382196755E9, 0.0, 2022-09-19 17:57:18.219
111.0, 773.1915441979819, 7881.22509494127, -76683.22493830025, -34377.9664490183, -62206.111813320145, -187500.02235174447, -51872.945055120595, -39412.13809396483, 0.512, -0.858, 0.164, 192.0, 0.0, 0.0, 0.0, 0.0, 0.0, 0.0, 0.0, 0.0, 0.0, 1.6635922382247803E9, 0.0, 2022-09-19 17:57:18.224
112.0, 584.1404895949947, 7750.668555577822, -76518.7160991092, -34236.41285138283, -62030.494157134795, -187500.02235174447, -51793.171679159605, -39268.014045717006, 0.512, -0.858, 0.164, 192.0, 0.0, 0.0, 0.0, 0.0, 0.0, 0.0, 0.0, 0.0, 0.0, 1.66359223822877E9, 0.0, 2022-09-19 17:57:18.228
113.0, 490.03964543815204, 7701.852345687431, -76448.86689768636, -34149.822193362976, -61995.29015961769, -187500.02235174447, -51602.9806855894, -39209.34071652183, 0.512, -0.858, 0.164, 192.0, 0.0, 0.0, 0.0, 0.0, 0.0, 0.0, 0.0, 0.0, 0.0, 1.6635922382327363E9, 0.0, 2022-09-19 17:57:18.232
114.0, 547.0142420547297, 7735.335258881481, -76516.63738687485, -34158.47231846718, -62056.288070236216, -187500.02235174447, -51605.34997050166, -39260.90619098022, 0.512, -0.858, 0.164, 192.0, 0.0, 0.0, 0.0, 0.0, 0.0, 0.0, 0.0, 0.0, 0.0, 1.663592238235694E9, 0.0, 2022-09-19 17:57:18.235
115.0, 763.6249975711105, 7858.962757463784, -76678.82164464255, -34306.44086676131, -62207.16234530954, -187500.02235174447, -51741.3603355122, -39421.749344080614, 0.506, -0.854, 0.166, 192.0, 15.0, 208.0, 229.0, 80.0, 5.0, 48.0, 0.0, 0.0, 0.0, 1.6635922382397828E9, 0.0, 2022-09-19 17:57:18.239
116.0, 776.544305866278, 7868.775173279664, -76648.82560358354, -34329.12788738345, -62173.522969904305, -187500.02235174447, -51814.15996720314, -39389.40636985378, 0.506, -0.854, 0.166, 192.0, 0.0, 0.0, 0.0, 0.0, 0.0, 0.0, 0.0, 0.0, 0.0, 1.6635922382437236E9, 0.0, 2022-09-19 17:57:18.243
117.0, 549.1600095224392, 7724.6511250318445, -76474.61610729888, -34193.85512993993, -62001.25807538725, -187500.02235174447, -51705.306971705795, -39227.28916731944, 0.506, -0.854, 0.166, 192.0, 0.0, 0.0, 0.0, 0.0, 0.0, 0.0, 0.0, 0.0, 0.0, 1.663592238247782E9, 0.0, 2022-09-19 17:57:18.247
118.0, 490.5984390495347, 7686.161421079805, -76458.41109256877, -34145.66476889429, -61992.69735726087, -187500.02235174447, -51644.17495062053, -39211.128856078256, 0.506, -0.854, 0.166, 192.0, 0.0, 0.0, 0.0, 0.0, 0.0, 0.0, 0.0, 0.0, 0.0, 1.663592238252712E9, 0.0, 2022-09-19 17:57:18.252
119.0, 565.5438382081793, 7745.706468308744, -76546.7675384006, -34186.657868225324, -62082.797239160216, -187500.02235174447, -51683.51402086187, -39272.75261554153, 0.506, -0.854, 0.166, 192.0, 0.0, 0.0, 0.0, 0.0, 0.0, 0.0, 0.0, 0.0, 0.0, 1.6635922382568626E9, 0.0, 2022-09-19 17:57:18.256
120.0, 796.5938206426885, 7880.398080396424, -76707.07424963407, -34307.73726793972, -62246.81433997326, -187500.02235174447, -51800.100719940754, -39417.16723646727, 0.506, -0.854, 0.166, 192.0, 0.0, 0.0, 0.0, 0.0, 0.0, 0.0, 0.0, 0.0, 0.0, 1.66359223826085E9, 0.0, 2022-09-19 17:57:18.260
121.0, 779.7182535789316, 7877.157077450404, -76644.91404830385, -34292.76159915466, -62193.863057358634, -187500.02235174447, -51803.78875777588, -39372.463747556656, 0.506, -0.854, 0.166, 192.0, 0.0, 0.0, 0.0, 0.0, 0.0, 0.0, 0.0, 0.0, 0.0, 1.6635922382637784E9, 0.0, 2022-09-19 17:57:18.263
122.0, 543.9967565532633, 7727.422741344302, -76481.6569068023, -34134.69006236673, -62014.356197638066, -187500.02235174447, -51718.04746604532, -39204.3562775083, 0.506, -0.854, 0.166, 192.0, 0.0, 0.0, 0.0, 0.0, 0.0, 0.0, 0.0, 0.0, 0.0, 1.6635922382677476E9, 0.0, 2022-09-19 17:57:18.267
123.0, 496.1640234189062, 7681.266389044094, -76486.82015977147, -34134.33243445545, -62008.812965013145, -187500.02235174447, -51692.99116051092, -39207.23965254303, 0.506, -0.854, 0.166, 192.0, 0.0, 0.0, 0.0, 0.0, 0.0, 0.0, 0.0, 0.0, 0.0, 1.6635922382718096E9, 0.0, 2022-09-19 17:57:18.271
124.0, 584.3193035506372, 7737.168101926816, -76555.48471873817, -34210.17190339231, -62093.19080033193, -187500.02235174447, -51689.39252965362, -39280.598077845345, 0.506, -0.854, 0.166, 192.0, 0.0, 0.0, 0.0, 0.0, 0.0, 0.0, 0.0, 0.0, 0.0, 1.6635922382757812E9, 0.0, 2022-09-19 17:57:18.275
125.0, 800.8183003447415, 7871.859714014497, -76713.73506948174, -34330.35723332849, -62249.876528963636, -187500.02235174447, -51789.95302795804, -39435.450963431715, 0.506, -0.854, 0.162, 192.0, 15.0, 208.0, 229.0, 80.0, 5.0, 16.0, 0.0, 0.0, 0.0, 1.663592238279807E9, 0.0, 2022-09-19 17:57:18.279
126.0, 775.9408087659847, 7864.438934855335, -76646.74689134919, -34282.703314149774, -62186.174057266006, -187500.02235174447, -51795.16098441613, -39374.83303246892, 0.506, -0.854, 0.162, 192.0, 0.0, 0.0, 0.0, 0.0, 0.0, 0.0, 0.0, 0.0, 0.0, 1.663592238284798E9, 0.0, 2022-09-19 17:57:18.284
127.0, 534.8325413265874, 7725.791063999065, -76478.90764223429, -34133.9077513108, -61998.24058988578, -187500.02235174447, -51707.72096010697, -39214.48161774655, 0.506, -0.854, 0.162, 192.0, 0.0, 0.0, 0.0, 0.0, 0.0, 0.0, 0.0, 0.0, 0.0, 1.6635922382888527E9, 0.0, 2022-09-19 17:57:18.288
128.0, 520.1921487083613, 7697.784328196565, -76495.71615406468, -34103.77759978505, -61993.09968866107, -187500.02235174447, -51709.39734094112, -39194.18623378113, 0.506, -0.854, 0.162, 192.0, 0.0, 0.0, 0.0, 0.0, 0.0, 0.0, 0.0, 0.0, 0.0, 1.6635922382919009E9, 0.0, 2022-09-19 17:57:18.291
129.0, 602.2454026037935, 7747.226386931705, -76531.79186961554, -34129.5044576531, -62075.84584663461, -187500.02235174447, -51615.00592410636, -39255.58647579986, 0.506, -0.854, 0.162, 192.0, 0.0, 0.0, 0.0, 0.0, 0.0, 0.0, 0.0, 0.0, 0.0, 1.6635922382958603E9, 0.0, 2022-09-19 17:57:18.295
130.0, 782.6239803581215, 7867.9928622237285, -76670.21622302727, -34259.32338944953, -62234.051493889274, -187500.02235174447, -51676.80849752528, -39414.30621317699, 0.506, -0.854, 0.162, 192.0, 0.0, 0.0, 0.0, 0.0, 0.0, 0.0, 0.0, 0.0, 0.0, 1.6635922383015666E9, 0.0, 2022-09-19 17:57:18.301
131.0, 746.0118229403286, 7846.110504401983, -76623.4340218823, -34238.536267106094, -62176.048717027756, -187500.02235174447, -51751.6644897061, -39357.97981714962, 0.506, -0.854, 0.162, 192.0, 0.0, 0.0, 0.0, 0.0, 0.0, 0.0, 0.0, 0.0, 0.0, 1.663592238304839E9, 0.0, 2022-09-19 17:57:18.304
132.0, 537.9617855503304, 7709.071959146495, -76476.8512817444, -34083.549271052994, -62005.72842427831, -187500.02235174447, -51699.83079431424, -39187.681876144634, 0.506, -0.854, 0.162, 192.0, 0.0, 0.0, 0.0, 0.0, 0.0, 0.0, 0.0, 0.0, 0.0, 1.6635922383079731E9, 0.0, 2022-09-19 17:57:18.307
133.0, 483.66939826838956, 7670.80577263901, -76463.39553158231, -34053.79909918298, -61997.212409640844, -187500.02235174447, -51634.45194178247, -39179.9481725631, 0.506, -0.854, 0.162, 192.0, 0.0, 0.0, 0.0, 0.0, 0.0, 0.0, 0.0, 0.0, 0.0, 1.6635922383128254E9, 0.0, 2022-09-19 17:57:18.312
134.0, 587.2697338187378, 7723.511186064624, -76558.5245559841, -34177.33719078746, -62095.40362303301, -187500.02235174447, -51685.92800926304, -39297.317182697916, 0.506, -0.854, 0.162, 192.0, 0.0, 0.0, 0.0, 0.0, 0.0, 0.0, 0.0, 0.0, 0.0, 1.663592238316861E9, 0.0, 2022-09-19 17:57:18.316
135.0, 813.44703596199, 7856.548769062611, -76720.68646200735, -34319.471933778754, -62261.27591863584, -187500.02235174447, -51803.54288858687, -39447.63266415986, 0.51, -0.854, 0.168, 192.0, 15.0, 240.0, 229.0, 80.0, 5.0, 64.0, 0.0, 0.0, 0.0, 1.6635922383198442E9, 0.0, 2022-09-19 17:57:18.319
136.0, 752.8961602325631, 7828.877309426941, -76634.76635632114, -34211.28949061507, -62171.6230716256, -187500.02235174447, -51796.41268210563, -39343.093555342384, 0.51, -0.854, 0.168, 192.0, 0.0, 0.0, 0.0, 0.0, 0.0, 0.0, 0.0, 0.0, 0.0, 1.6635922383238964E9, 0.0, 2022-09-19 17:57:18.323
137.0, 521.6897155868669, 7693.023406627585, -76451.12442387635, -34044.746642678576, -61993.39026133899, -187500.02235174447, -51639.27991858482, -39179.925820818644, 0.51, -0.854, 0.168, 192.0, 0.0, 0.0, 0.0, 0.0, 0.0, 0.0, 0.0, 0.0, 0.0, 1.6635922383279328E9, 0.0, 2022-09-19 17:57:18.327
138.0, 486.97745644777495, 7664.681394658255, -76449.58215350892, -34039.60574145386, -61982.4826100448, -187500.02235174447, -51604.61236293463, -39180.86459408577, 0.51, -0.854, 0.168, 192.0, 0.0, 0.0, 0.0, 0.0, 0.0, 0.0, 0.0, 0.0, 0.0, 1.66359223833189E9, 0.0, 2022-09-19 17:57:18.331
139.0, 621.9596412133743, 7739.269165905615, -76568.42637877779, -34136.92523681226, -62075.62232919006, -187500.02235174447, -51711.0066665419, -39284.19670870265, 0.51, -0.854, 0.168, 192.0, 0.0, 0.0, 0.0, 0.0, 0.0, 0.0, 0.0, 0.0, 0.0, 1.663592238335984E9, 0.0, 2022-09-19 17:57:18.335
140.0, 836.2458153064032, 7869.669243057877, -76715.14322938243, -34273.695561134286, -62235.884336934614, -187500.02235174447, -51806.4262636216, -39416.54138762252, 0.51, -0.854, 0.168, 192.0, 0.0, 0.0, 0.0, 0.0, 0.0, 0.0, 0.0, 0.0, 0.0, 1.6635922383399312E9, 0.0, 2022-09-19 17:57:18.339
141.0, 756.4724393454122, 7830.687800727821, -76623.5904840935, -34200.82887420999, -62148.82429228119, -187500.02235174447, -51800.458347852036, -39317.41140096324, 0.51, -0.854, 0.168, 192.0, 0.0, 0.0, 0.0, 0.0, 0.0, 0.0, 0.0, 0.0, 0.0, 1.6635922383449605E9, 0.0, 2022-09-19 17:57:18.344
142.0, 542.521541419213, 7691.682301960266, -76451.52675527654, -34026.55232269196, -61986.32711009111, -187500.02235174447, -51651.30515710177, -39165.397186922695, 0.51, -0.854, 0.168, 192.0, 0.0, 0.0, 0.0, 0.0, 0.0, 0.0, 0.0, 0.0, 0.0, 1.6635922383479028E9, 0.0, 2022-09-19 17:57:18.347
143.0, 502.0425322106519, 7663.384993479847, -76444.32949356193, -34014.907063830746, -61994.59725553957, -187500.02235174447, -51580.025444033796, -39169.95694279158, 0.51, -0.854, 0.168, 192.0, 0.0, 0.0, 0.0, 0.0, 0.0, 0.0, 0.0, 0.0, 0.0, 1.663592238351899E9, 0.0, 2022-09-19 17:57:18.351
144.0, 619.1433214120057, 7728.4062181003355, -76572.36028580193, -34101.65418406179, -62096.76707944478, -187500.02235174447, -51712.928916565055, -39268.77400502849, 0.51, -0.854, 0.168, 192.0, 0.0, 0.0, 0.0, 0.0, 0.0, 0.0, 0.0, 0.0, 0.0, 1.663592238355931E9, 0.0, 2022-09-19 17:57:18.355
145.0, 861.8385627077297, 7847.250443369204, -76775.09060801157, -34256.32825569251, -62251.754075497876, -187500.02235174447, -51974.891361581256, -39429.19247498423, 0.51, -0.854, 0.168, 192.0, 0.0, 0.0, 0.0, 0.0, 0.0, 0.0, 0.0, 0.0, 0.0, 1.6635922383599572E9, 0.0, 2022-09-19 17:57:18.359
146.0, 798.963105554951, 7811.733521429721, -76651.15018500689, -34210.86480747042, -62167.55505413474, -187500.02235174447, -51896.146165865204, -39369.15568937727, 0.516, -0.854, 0.17200000000000001, 192.0, 16.0, 32.0, 229.0, 80.0, 5.0, 96.0, 0.0, 0.0, 0.0, 1.663592238363953E9, 0.0, 2022-09-19 17:57:18.363
147.0, 525.2883464441712, 7680.014691354596, -76415.80866763696, -34015.84583709787, -61995.20075263987, -187500.02235174447, -51560.55707461323, -39198.120140805266, 0.516, -0.854, 0.17200000000000001, 192.0, 0.0, 0.0, 0.0, 0.0, 0.0, 0.0, 0.0, 0.0, 0.0, 1.6635922383679233E9, 0.0, 2022-09-19 17:57:18.367
