%OpenBCI Raw EEG Data
%Number of channels = 8
%Sample Rate = 250 Hz
%Board = OpenBCI_GUI$BoardCytonSerial
Sample Index, EXG Channel 0, EXG Channel 1, EXG Channel 2, EXG Channel 3, EXG Channel 4, EXG Channel 5, EXG Channel 6, EXG Channel 7, Accel Channel 0, Accel Channel 1, Accel Channel 2, Other, Other, Other, Other, Other, Other, Other, Analog Channel 0, Analog Channel 1, Analog Channel 2, Timestamp, Other, Timestamp (Formatted)
41.0, -74097.59749145478, -22996.569931098216, -64638.65216239121, -20559.87215755846, -187500.02235174447, 187500.0, -50267.77687880718, -14740.77430257491, 0.648, -0.546, 0.5700000000000001, 192.0, 20.0, 64.0, 238.0, 240.0, 17.0, 208.0, 0.0, 0.0, 0.0, 1.663592926638198E9, 0.0, 2022-09-19 18:08:46.638
42.0, -74163.35632364229, -22978.241500644865, -64653.918403854186, -20546.77403530765, -187500.02235174447, 187500.0, -50223.18514861884, -14740.215508963527, 0.648, -0.546, 0.5700000000000001, 192.0, 0.0, 0.0, 0.0, 0.0, 0.0, 0.0, 0.0, 0.0, 0.0, 1.6635929266382267E9, 0.0, 2022-09-19 18:08:46.638
43.0, -74064.29339221638, -22941.897564160536, -64709.95422720364, -20557.547576135108, -187500.02235174447, 187500.0, -50206.93543039983, -14749.782055590398, 0.648, -0.546, 0.5700000000000001, 192.0, 0.0, 0.0, 0.0, 0.0, 0.0, 0.0, 0.0, 0.0, 0.0, 1.663592926638244E9, 0.0, 2022-09-19 18:08:46.638
0.0, 0.0, 0.0, 0.0, 0.0, 0.0, 0.0, 0.0, 0.0, 0.648, -0.546, 0.5700000000000001, 192.0, 0.0, 0.0, 0.0, 0.0, 0.0, 0.0, 0.0, 0.0, 0.0, 1.6635929267425513E9, 0.0, 2022-09-19 18:08:46.742
1.0, -51297.67820807436, -22412.407089758766, -65398.65617736056, -20193.86234210281, -150495.10008038284, 187500.0, -52414.08078838358, -15210.518564047643, 0.65, -0.548, 0.56, 192.0, 20.0, 80.0, 238.0, 224.0, 17.0, 128.0, 0.0, 0.0, 0.0, 1.6635929267596097E9, 0.0, 2022-09-19 18:08:46.759
2.0, -51083.50379270361, -22422.19715383019, -65437.05647433478, -20235.794214700963, -150396.86416350177, 187500.0, -52519.2457460458, -15222.92378222034, 0.65, -0.548, 0.56, 192.0, 0.0, 0.0, 0.0, 0.0, 0.0, 0.0, 0.0, 0.0, 0.0, 1.6635929267625751E9, 0.0, 2022-09-19 18:08:46.762
3.0, -51354.83161864658, -22490.101753485415, -65316.647626954036, -20214.448298746145, -150472.88244639427, 187500.0, -52558.137781398036, -15239.039389972615, 0.65, -0.548, 0.56, 192.0, 0.0, 0.0, 0.0, 0.0, 0.0, 0.0, 0.0, 0.0, 0.0, 1.6635929267665608E9, 0.0, 2022-09-19 18:08:46.766
4.0, -51577.857324821634, -22486.771343561573, -65263.87515829506, -20169.856568557807, -150541.0329152385, 187500.0, -52455.72208830382, -15227.77411076714, 0.65, -0.548, 0.56, 192.0, 0.0, 0.0, 0.0, 0.0, 0.0, 0.0, 0.0, 0.0, 0.0, 1.6635929267695613E9, 0.0, 2022-09-19 18:08:46.769
5.0, -51575.39863293155, -22460.95507871569, -65304.912961115006, -20170.974155780576, -150533.74624654607, 187500.0, -52414.86309943952, -15221.448567086289, 0.65, -0.548, 0.56, 192.0, 0.0, 0.0, 0.0, 0.0, 0.0, 0.0, 0.0, 0.0, 0.0, 1.6635929267735963E9, 0.0, 2022-09-19 18:08:46.773
6.0, -51311.53628963665, -22421.705415452172, -65415.218820001945, -20212.615455700812, -150429.4530069176, 187500.0, -52419.80283496414, -15223.504927576178, 0.65, -0.548, 0.56, 192.0, 0.0, 0.0, 0.0, 0.0, 0.0, 0.0, 0.0, 0.0, 0.0, 1.663592926776644E9, 0.0, 2022-09-19 18:08:46.776
7.0, -51098.23359229966, -22437.642209248806, -65460.81637869077, -20255.955488199652, -150329.8312818803, 187500.0, -52537.19419684341, -15235.44075911531, 0.65, -0.548, 0.56, 192.0, 0.0, 0.0, 0.0, 0.0, 0.0, 0.0, 0.0, 0.0, 0.0, 1.6635929267806349E9, 0.0, 2022-09-19 18:08:46.780
8.0, -51369.98610138728, -22499.243616967633, -65333.18791785096, -20222.226705816593, -150401.42391937066, 187500.0, -52566.13970591303, -15241.92276500735, 0.66, -0.562, 0.55, 192.0, 20.0, 160.0, 238.0, 112.0, 17.0, 48.0, 0.0, 0.0, 0.0, 1.6635929267846208E9, 0.0, 2022-09-19 18:08:46.784
9.0, -51594.35291222965, -22489.34179417393, -65288.01504230679, -20177.120885505785, -150467.42862074717, 187500.0, -52466.51798087573, -15231.193927668803, 0.66, -0.562, 0.55, 192.0, 0.0, 0.0, 0.0, 0.0, 0.0, 0.0, 0.0, 0.0, 0.0, 1.6635929267886553E9, 0.0, 2022-09-19 18:08:46.788
10.0, -51574.14693524205, -22454.62953503484, -65324.56014449122, -20169.007202268505, -150446.44033270364, 187500.0, -52416.24890759575, -15218.386378095911, 0.66, -0.562, 0.55, 192.0, 0.0, 0.0, 0.0, 0.0, 0.0, 0.0, 0.0, 0.0, 0.0, 1.6635929267927344E9, 0.0, 2022-09-19 18:08:46.792
11.0, -51303.15438546591, -22421.750118941083, -65437.32469526824, -20208.94976961014, -150336.76032266146, 187500.0, -52420.62984950899, -15215.480651316722, 0.66, -0.562, 0.55, 192.0, 0.0, 0.0, 0.0, 0.0, 0.0, 0.0, 0.0, 0.0, 0.0, 1.6635929267975984E9, 0.0, 2022-09-19 18:08:46.797
12.0, -51095.66314168729, -22439.609162760873, -65479.86006496669, -20251.239270119582, -150240.73722848145, 187500.0, -52547.11837138157, -15223.683741531819, 0.66, -0.562, 0.55, 192.0, 0.0, 0.0, 0.0, 0.0, 0.0, 0.0, 0.0, 0.0, 0.0, 1.6635929268016477E9, 0.0, 2022-09-19 18:08:46.801
13.0, -51374.50115376725, -22496.673166355275, -65348.387104080575, -20216.86228714732, -150317.91780208563, 187500.0, -52577.47204035187, -15229.942229979306, 0.66, -0.562, 0.55, 192.0, 0.0, 0.0, 0.0, 0.0, 0.0, 0.0, 0.0, 0.0, 0.0, 1.6635929268046741E9, 0.0, 2022-09-19 18:08:46.804
14.0, -51597.370397731116, -22485.2067214497, -65303.52715295877, -20173.209330226106, -150388.72812852004, 187500.0, -52477.04565251418, -15223.549631065087, 0.66, -0.562, 0.55, 192.0, 0.0, 0.0, 0.0, 0.0, 0.0, 0.0, 0.0, 0.0, 0.0, 1.6635929268086135E9, 0.0, 2022-09-19 18:08:46.808
15.0, -51574.81748757571, -22444.1465668853, -65337.94883941994, -20169.878920302264, -150370.22088411104, 187500.0, -52427.00009667875, -15210.652674514375, 0.66, -0.562, 0.55, 192.0, 0.0, 0.0, 0.0, 0.0, 0.0, 0.0, 0.0, 0.0, 0.0, 1.6635929268126857E9, 0.0, 2022-09-19 18:08:46.812
16.0, -51296.44886212932, -22397.565531440443, -65442.30913428177, -20210.447336488647, -150254.55060655484, 187500.0, -52426.03897166717, -15205.690587245297, 0.66, -0.562, 0.55, 192.0, 0.0, 0.0, 0.0, 0.0, 0.0, 0.0, 0.0, 0.0, 0.0, 1.6635929268186643E9, 0.0, 2022-09-19 18:08:46.818
17.0, -51088.287066017045, -22410.19426705769, -65474.83092246424, -20251.172214886217, -150157.5887391077, 187500.0, -52541.73160096784, -15214.899505960884, 0.66, -0.562, 0.55, 192.0, 0.0, 0.0, 0.0, 0.0, 0.0, 0.0, 0.0, 0.0, 0.0, 1.6635929268216956E9, 0.0, 2022-09-19 18:08:46.821
18.0, -51370.790764187666, -22484.938500516237, -65353.55035704975, -20230.899182665253, -150239.79845521433, 187500.0, -52581.629464820566, -15234.032599214626, 0.65, -0.562, 0.552, 192.0, 20.0, 80.0, 238.0, 112.0, 17.0, 64.0, 0.0, 0.0, 0.0, 1.6635929268246927E9, 0.0, 2022-09-19 18:08:46.824
19.0, -51582.41708069052, -22476.511892856586, -65302.163696547, -20185.346327465337, -150301.24340072196, 187500.0, -52467.747326820776, -15223.594334553998, 0.65, -0.562, 0.552, 192.0, 0.0, 0.0, 0.0, 0.0, 0.0, 0.0, 0.0, 0.0, 0.0, 1.663592926828748E9, 0.0, 2022-09-19 18:08:46.828
20.0, -51559.327728668184, -22445.666485508264, -65345.593136023665, -20184.94399606514, -150282.33382491278, 187500.0, -52421.34510533156, -15217.760529251163, 0.65, -0.562, 0.552, 192.0, 0.0, 0.0, 0.0, 0.0, 0.0, 0.0, 0.0, 0.0, 0.0, 1.6635929268326657E9, 0.0, 2022-09-19 18:08:46.832
21.0, -51282.76959452267, -22410.14956356878, -65464.370306059165, -20227.591124485865, -150169.79279158032, 187500.0, -52437.70658227284, -15220.53214556362, 0.65, -0.562, 0.552, 192.0, 0.0, 0.0, 0.0, 0.0, 0.0, 0.0, 0.0, 0.0, 0.0, 1.6635929268366864E9, 0.0, 2022-09-19 18:08:46.836
22.0, -51075.03248155505, -22427.427462032734, -65491.080640683256, -20258.43653183419, -150068.69585140896, 187500.0, -52550.2029121164, -15227.058854944571, 0.65, -0.562, 0.552, 192.0, 0.0, 0.0, 0.0, 0.0, 0.0, 0.0, 0.0, 0.0, 0.0, 1.6635929268406472E9, 0.0, 2022-09-19 18:08:46.840
23.0, -51350.56243545561, -22485.27377668307, -65344.22967961189, -20211.967255111605, -150139.66264005456, 187500.0, -52566.83260999115, -15226.812985755561, 0.65, -0.562, 0.552, 192.0, 0.0, 0.0, 0.0, 0.0, 0.0, 0.0, 0.0, 0.0, 0.0, 1.6635929268436904E9, 0.0, 2022-09-19 18:08:46.843
24.0, -51566.23441770487, -22488.425372651265, -65300.152039546025, -20168.738981335042, -150205.71204492, 187500.0, -52463.612254096544, -15218.945171707293, 0.65, -0.562, 0.552, 192.0, 0.0, 0.0, 0.0, 0.0, 0.0, 0.0, 0.0, 0.0, 0.0, 1.6635929268487976E9, 0.0, 2022-09-19 18:08:46.848
25.0, -51542.02747845978, -22461.089189182425, -65340.87691794359, -20171.734115092055, -150185.5954749102, 187500.0, -52421.14393963146, -15211.792613481595, 0.65, -0.562, 0.552, 192.0, 0.0, 0.0, 0.0, 0.0, 0.0, 0.0, 0.0, 0.0, 0.0, 1.663592926852712E9, 0.0, 2022-09-19 18:08:46.852
26.0, -51259.23320761123, -22419.403185773277, -65444.76782617186, -20212.838973145364, -150069.679328165, 187500.0, -52422.99913442125, -15207.165802379348, 0.65, -0.562, 0.552, 192.0, 0.0, 0.0, 0.0, 0.0, 0.0, 0.0, 0.0, 0.0, 0.0, 1.6635929268567119E9, 0.0, 2022-09-19 18:08:46.856
27.0, -51059.49801915861, -22440.972619172648, -65475.81439922028, -20256.223709133115, -149973.18684735143, 187500.0, -52543.4526852909, -15215.592410038998, 0.65, -0.562, 0.552, 192.0, 0.0, 0.0, 0.0, 0.0, 0.0, 0.0, 0.0, 0.0, 0.0, 1.6635929268606937E9, 0.0, 2022-09-19 18:08:46.860
28.0, -51346.00267958673, -22505.569160648487, -65341.45806329943, -20223.321941294904, -150048.53457791026, 187500.0, -52572.465249593886, -15224.242535143201, 0.65, -0.56, 0.544, 192.0, 20.0, 80.0, 238.0, 128.0, 17.0, 0.0, 0.0, 0.0, 0.0, 1.6635929268648353E9, 0.0, 2022-09-19 18:08:46.864
29.0, -51572.09057475216, -22514.085175285956, -65298.185086033955, -20183.848760586832, -150118.65200026656, 187500.0, -52474.22933271281, -15221.001532197182, 0.65, -0.56, 0.544, 192.0, 0.0, 0.0, 0.0, 0.0, 0.0, 0.0, 0.0, 0.0, 0.0, 1.6635929268687055E9, 0.0, 2022-09-19 18:08:46.868
30.0, -51540.77578077028, -22470.789846276028, -65334.59607775165, -20176.919719805686, -150088.678310952, 187500.0, -52432.40921883693, -15204.260075600158, 0.65, -0.56, 0.544, 192.0, 0.0, 0.0, 0.0, 0.0, 0.0, 0.0, 0.0, 0.0, 0.0, 1.6635929268717792E9, 0.0, 2022-09-19 18:08:46.871
31.0, -51254.42758255334, -22421.213677074156, -65440.588049958715, -20220.416214515713, -149968.24711182681, 187500.0, -52439.964108462824, -15200.125002875926, 0.65, -0.56, 0.544, 192.0, 0.0, 0.0, 0.0, 0.0, 0.0, 0.0, 0.0, 0.0, 0.0, 1.6635929268766973E9, 0.0, 2022-09-19 18:08:46.876
32.0, -51067.41053669579, -22443.96775292966, -65475.65793700909, -20268.360706372347, -149882.6846340519, 187500.0, -52561.3564325996, -15216.195907139292, 0.65, -0.56, 0.544, 192.0, 0.0, 0.0, 0.0, 0.0, 0.0, 0.0, 0.0, 0.0, 0.0, 1.6635929268808584E9, 0.0, 2022-09-19 18:08:46.880
33.0, -51358.407897759425, -22507.22318973818, -65343.51442378932, -20233.24611583306, -149967.77772519324, 187500.0, -52581.160078187, -15225.740102021708, 0.65, -0.56, 0.544, 192.0, 0.0, 0.0, 0.0, 0.0, 0.0, 0.0, 0.0, 0.0, 0.0, 1.6635929268847935E9, 0.0, 2022-09-19 18:08:46.884
34.0, -51573.25286546384, -22492.381631419856, -65298.85563836761, -20188.65438564472, -150036.39758067104, 187500.0, -52477.49268740329, -15220.733311263719, 0.65, -0.56, 0.544, 192.0, 0.0, 0.0, 0.0, 0.0, 0.0, 0.0, 0.0, 0.0, 0.0, 1.6635929268887634E9, 0.0, 2022-09-19 18:08:46.888
35.0, -51542.58627207116, -22448.01341867607, -65343.44736855595, -20183.111153019807, -150015.3645891386, 187500.0, -52436.678402027894, -15210.25034311418, 0.65, -0.56, 0.544, 192.0, 0.0, 0.0, 0.0, 0.0, 0.0, 0.0, 0.0, 0.0, 0.0, 1.6635929268928928E9, 0.0, 2022-09-19 18:08:46.892
36.0, -51253.689974986315, -22408.987272857103, -65458.46944552296, -20224.752452940043, -149899.98488426028, 187500.0, -52446.08848644358, -15206.495250045687, 0.65, -0.56, 0.544, 192.0, 0.0, 0.0, 0.0, 0.0, 0.0, 0.0, 0.0, 0.0, 0.0, 1.6635929268969386E9, 0.0, 2022-09-19 18:08:46.896
37.0, -51059.2521499696, -22424.454680020175, -65475.72499224246, -20256.268412622027, -149806.8675168595, 187500.0, -52554.78501972974, -15210.563267536554, 0.65, -0.56, 0.544, 192.0, 0.0, 0.0, 0.0, 0.0, 0.0, 0.0, 0.0, 0.0, 0.0, 1.6635929268997886E9, 0.0, 2022-09-19 18:08:46.899
38.0, -51355.055136091134, -22493.432163409256, -65338.373522564594, -20217.6222464588, -149893.0781952236, 187500.0, -52569.89479898153, -15220.688607774808, 0.654, -0.5680000000000001, 0.542, 192.0, 20.0, 112.0, 238.0, 64.0, 16.0, 240.0, 0.0, 0.0, 0.0, 1.6635929269047835E9, 0.0, 2022-09-19 18:08:46.904
39.0, -51575.130411998085, -22491.21934070818, -65298.1627342895, -20179.46781867359, -149965.98958563682, 187500.0, -52465.86978028653, -15222.901430475884, 0.654, -0.5680000000000001, 0.542, 192.0, 0.0, 0.0, 0.0, 0.0, 0.0, 0.0, 0.0, 0.0, 0.0, 1.663592926908842E9, 0.0, 2022-09-19 18:08:46.908
40.0, -51544.12854243858, -22454.00368619009, -65341.659228999524, -20175.33274594936, -149946.9458993609, 187500.0, -52432.05159092565, -15213.91602920485, 0.654, -0.5680000000000001, 0.542, 192.0, 0.0, 0.0, 0.0, 0.0, 0.0, 0.0, 0.0, 0.0, 0.0, 1.6635929269128623E9, 0.0, 2022-09-19 18:08:46.912
41.0, -51247.65500398338, -22406.550932711474, -65444.61136396067, -20205.462897475114, -149828.21343281431, 187500.0, -52431.738666503275, -15200.952017420772, 0.654, -0.5680000000000001, 0.542, 192.0, 0.0, 0.0, 0.0, 0.0, 0.0, 0.0, 0.0, 0.0, 0.0, 1.6635929269168005E9, 0.0, 2022-09-19 18:08:46.916
42.0, -51063.70014711621, -22425.3934532873, -65462.98449790294, -20242.09740663736, -149744.57320506254, 187500.0, -52546.045487647716, -15212.843145470995, 0.654, -0.5680000000000001, 0.542, 192.0, 0.0, 0.0, 0.0, 0.0, 0.0, 0.0, 0.0, 0.0, 0.0, 1.6635929269208126E9, 0.0, 2022-09-19 18:08:46.920
43.0, -51363.43704026187, -22489.140628473837, -65323.39785377954, -20205.932284108672, -149835.99183988475, 187500.0, -52557.51193255329, -15225.650695043887, 0.654, -0.5680000000000001, 0.542, 192.0, 0.0, 0.0, 0.0, 0.0, 0.0, 0.0, 0.0, 0.0, 0.0, 1.663592926924842E9, 0.0, 2022-09-19 18:08:46.924
44.0, -51574.236342219876, -22480.31168941399, -65279.07434452467, -20160.737056820042, -149905.84104130758, 187500.0, -52451.36349813503, -15216.01709318365, 0.654, -0.5680000000000001, 0.542, 192.0, 0.0, 0.0, 0.0, 0.0, 0.0, 0.0, 0.0, 0.0, 0.0, 1.663592926927873E9, 0.0, 2022-09-19 18:08:46.927
45.0, -51541.647498804035, -22445.308857596978, -65326.3706357921, -20156.624335840268, -149887.55731434314, 187500.0, -52414.30430582813, -15204.371834322434, 0.654, -0.5680000000000001, 0.542, 192.0, 0.0, 0.0, 0.0, 0.0, 0.0, 0.0, 0.0, 0.0, 0.0, 1.6635929269318483E9, 0.0, 2022-09-19 18:08:46.931
46.0, -51244.43635278182, -22404.963958855147, -65444.656067449585, -20202.110135806815, -149764.19803669432, 187500.0, -52426.59776527855, -15205.645883756386, 0.654, -0.5680000000000001, 0.542, 192.0, 0.0, 0.0, 0.0, 0.0, 0.0, 0.0, 0.0, 0.0, 0.0, 1.6635929269368303E9, 0.0, 2022-09-19 18:08:46.936
47.0, -51065.13065876134, -22433.64124699131, -65471.54521602931, -20249.875813707808, -149678.4790967082, 187500.0, -52552.84041796213, -15223.907258976373, 0.654, -0.5680000000000001, 0.542, 192.0, 0.0, 0.0, 0.0, 0.0, 0.0, 0.0, 0.0, 0.0, 0.0, 1.6635929269408567E9, 0.0, 2022-09-19 18:08:46.940
48.0, -51360.53131348269, -22487.68776508424, -65324.29192355775, -20204.546475952444, -149761.76169654867, 187500.0, -52562.339909355636, -15228.556421823076, 0.648, -0.5680000000000001, 0.536, 192.0, 20.0, 64.0, 238.0, 64.0, 16.0, 192.0, 0.0, 0.0, 0.0, 1.663592926944971E9, 0.0, 2022-09-19 18:08:46.944
49.0, -51566.14501072705, -22483.530340615554, -65287.836228351145, -20163.441617899134, -149825.2630025462, 187500.0, -52457.37611739351, -15223.795500254095, 0.648, -0.5680000000000001, 0.536, 192.0, 0.0, 0.0, 0.0, 0.0, 0.0, 0.0, 0.0, 0.0, 0.0, 1.6635929269488156E9, 0.0, 2022-09-19 18:08:46.948
50.0, -51525.33072535166, -22449.66744776576, -65337.14417661956, -20162.12286497627, -149800.3184557341, 187500.0, -52421.23334660928, -15210.563267536554, 0.648, -0.5680000000000001, 0.536, 192.0, 0.0, 0.0, 0.0, 0.0, 0.0, 0.0, 0.0, 0.0, 0.0, 1.6635929269538555E9, 0.0, 2022-09-19 18:08:46.953
51.0, -51224.56565196105, -22411.736537425106, -65456.83776817773, -20207.228685287082, -149676.42273621832, 187500.0, -52439.785294507186, -15201.711976732253, 0.648, -0.5680000000000001, 0.536, 192.0, 0.0, 0.0, 0.0, 0.0, 0.0, 0.0, 0.0, 0.0, 0.0, 1.6635929269569204E9, 0.0, 2022-09-19 18:08:46.956
52.0, -51044.61175735138, -22452.1484914003, -65487.794934248326, -20256.827206233407, -149586.32285431898, 187500.0, -52575.59449381763, -15217.96169495126, 0.648, -0.5680000000000001, 0.536, 192.0, 0.0, 0.0, 0.0, 0.0, 0.0, 0.0, 0.0, 0.0, 0.0, 1.6635929269618716E9, 0.0, 2022-09-19 18:08:46.961
53.0, -51335.49735969274, -22507.737279860652, -65335.91483067451, -20212.86132488982, -149665.09040177948, 187500.0, -52568.68780478094, -15224.287238632112, 0.648, -0.5680000000000001, 0.536, 192.0, 0.0, 0.0, 0.0, 0.0, 0.0, 0.0, 0.0, 0.0, 0.0, 1.66359292696489E9, 0.0, 2022-09-19 18:08:46.964
54.0, -51537.55712956872, -22488.626538351364, -65295.0111383213, -20172.60583312581, -149724.4342833083, 187500.0, -52457.08554471559, -15221.269753130646, 0.648, -0.5680000000000001, 0.536, 192.0, 0.0, 0.0, 0.0, 0.0, 0.0, 0.0, 0.0, 0.0, 0.0, 1.6635929269689095E9, 0.0, 2022-09-19 18:08:46.968
55.0, -51490.99844586831, -22443.788938974016, -65341.256897599334, -20167.621394112277, -149694.03591084908, 187500.0, -52417.56766051861, -15206.741119234697, 0.648, -0.5680000000000001, 0.536, 192.0, 0.0, 0.0, 0.0, 0.0, 0.0, 0.0, 0.0, 0.0, 0.0, 1.6635929269729097E9, 0.0, 2022-09-19 18:08:46.972
56.0, -51179.61629386143, -22403.287578021, -65460.23523333493, -20204.457068974625, -149561.78063890705, 187500.0, -52435.53846306068, -15197.82277319703, 0.648, -0.5680000000000001, 0.536, 192.0, 0.0, 0.0, 0.0, 0.0, 0.0, 0.0, 0.0, 0.0, 0.0, 1.6635929269769342E9, 0.0, 2022-09-19 18:08:46.976
57.0, -51002.81399521995, -22429.57322950044, -65478.80953297729, -20243.237345604583, -149472.6418820193, 187500.0, -52568.28547338075, -15211.524392548132, 0.648, -0.5680000000000001, 0.536, 192.0, 0.0, 0.0, 0.0, 0.0, 0.0, 0.0, 0.0, 0.0, 0.0, 1.6635929269809327E9, 0.0, 2022-09-19 18:08:46.980
58.0, -51311.62569661447, -22493.096887242424, -65339.781682465284, -20211.363758011314, -149566.34039477594, 187500.0, -52582.657645065505, -15229.651657301387, 0.652, -0.5700000000000001, 0.538, 192.0, 20.0, 96.0, 238.0, 48.0, 16.0, 208.0, 0.0, 0.0, 0.0, 1.6635929269839368E9, 0.0, 2022-09-19 18:08:46.983
59.0, -51511.450292044916, -22482.63627083734, -65300.64377792404, -20167.95667027911, -149630.48990136266, 187500.0, -52472.17297222292, -15221.448567086289, 0.652, -0.5700000000000001, 0.538, 192.0, 0.0, 0.0, 0.0, 0.0, 0.0, 0.0, 0.0, 0.0, 0.0, 1.663592926987886E9, 0.0, 2022-09-19 18:08:46.987
60.0, -51470.9489310919, -22452.863747222873, -65347.71655174692, -20167.733152834553, -149604.83009872795, 187500.0, -52433.973840948805, -15213.111366404459, 0.652, -0.5700000000000001, 0.538, 192.0, 0.0, 0.0, 0.0, 0.0, 0.0, 0.0, 0.0, 0.0, 0.0, 1.663592926992919E9, 0.0, 2022-09-19 18:08:46.992
61.0, -51158.806819773534, -22404.069889076938, -65454.490835009914, -20203.42888872968, -149471.85957096334, 187500.0, -52440.90288172995, -15200.974369165227, 0.652, -0.5700000000000001, 0.538, 192.0, 0.0, 0.0, 0.0, 0.0, 0.0, 0.0, 0.0, 0.0, 0.0, 1.6635929269969535E9, 0.0, 2022-09-19 18:08:46.996
62.0, -50981.669244965226, -22429.05913937797, -65468.57243401676, -20237.515299024024, -149381.1561919637, 187500.0, -52567.704328024905, -15209.780956480618, 0.652, -0.5700000000000001, 0.538, 192.0, 0.0, 0.0, 0.0, 0.0, 0.0, 0.0, 0.0, 0.0, 0.0, 1.663592927000957E9, 0.0, 2022-09-19 18:08:47.000
63.0, -51292.425548127365, -22491.375802919367, -65329.47752827138, -20203.09361256285, -149475.0782221649, 187500.0, -52575.818011262185, -15228.914049734361, 0.652, -0.5700000000000001, 0.538, 192.0, 0.0, 0.0, 0.0, 0.0, 0.0, 0.0, 0.0, 0.0, 0.0, 1.6635929270049145E9, 0.0, 2022-09-19 18:08:47.004
64.0, -51490.79728016821, -22465.716000284672, -65286.96451031739, -20156.065542228884, -149537.01490605055, 187500.0, -52461.645300584474, -15221.605029297476, 0.652, -0.5700000000000001, 0.538, 192.0, 0.0, 0.0, 0.0, 0.0, 0.0, 0.0, 0.0, 0.0, 0.0, 1.663592927007972E9, 0.0, 2022-09-19 18:08:47.007
65.0, -51446.25025346879, -22434.28944758051, -65335.534851018776, -20157.317239918382, -149508.89641152578, 187500.0, -52427.6259455235, -15209.669197758341, 0.652, -0.5700000000000001, 0.538, 192.0, 0.0, 0.0, 0.0, 0.0, 0.0, 0.0, 0.0, 0.0, 0.0, 1.6635929270119896E9, 0.0, 2022-09-19 18:08:47.011
66.0, -51135.181025884274, -22396.80557212896, -65458.80472168979, -20203.451240474136, -149377.0658227284, 187500.0, -52449.9329864899, -15205.556476778565, 0.652, -0.5700000000000001, 0.538, 192.0, 0.0, 0.0, 0.0, 0.0, 0.0, 0.0, 0.0, 0.0, 0.0, 1.6635929270159724E9, 0.0, 2022-09-19 18:08:47.015
67.0, -50971.8344774049, -22431.853107434883, -65481.64820452312, -20249.629944518798, -149295.99604558898, 187500.0, -52582.56823808769, -15228.042331700604, 0.652, -0.5700000000000001, 0.538, 192.0, 0.0, 0.0, 0.0, 0.0, 0.0, 0.0, 0.0, 0.0, 0.0, 1.6635929270209517E9, 0.0, 2022-09-19 18:08:47.020
68.0, -51287.50816434719, -22498.953044289716, -65332.517365517306, -20209.463859732612, -149393.82963106988, 187500.0, -52583.12703169907, -15246.437817387321, 0.648, -0.5680000000000001, 0.544, 192.0, 20.0, 64.0, 238.0, 64.0, 17.0, 0.0, 0.0, 0.0, 0.0, 1.663592927025E9, 0.0, 2022-09-19 18:08:47.025
69.0, -51490.66316970148, -22487.844227295427, -65283.16471375999, -20163.106341732306, -149462.15891386973, 187500.0, -52470.07190824413, -15240.58166034003, 0.648, -0.5680000000000001, 0.544, 192.0, 0.0, 0.0, 0.0, 0.0, 0.0, 0.0, 0.0, 0.0, 0.0, 1.6635929270290124E9, 0.0, 2022-09-19 18:08:47.029
70.0, -51443.81391332316, -22448.68397100973, -65328.65051372654, -20162.055809742906, -149436.18618681267, 187500.0, -52430.1740443914, -15228.15409042288, 0.648, -0.5680000000000001, 0.544, 192.0, 0.0, 0.0, 0.0, 0.0, 0.0, 0.0, 0.0, 0.0, 0.0, 1.663592927033007E9, 0.0, 2022-09-19 18:08:47.033
71.0, -51123.84869144543, -22399.376022741322, -65438.12935806863, -20201.640749173253, -149301.1816503026, 187500.0, -52446.89314924397, -15214.765395494152, 0.648, -0.5680000000000001, 0.544, 192.0, 0.0, 0.0, 0.0, 0.0, 0.0, 0.0, 0.0, 0.0, 0.0, 1.6635929270369613E9, 0.0, 2022-09-19 18:08:47.036
72.0, -50958.62459643181, -22424.521735253544, -65443.33731452672, -20240.331618825392, -149218.23432662897, 187500.0, -52567.8607902361, -15230.165747423858, 0.648, -0.5680000000000001, 0.544, 192.0, 0.0, 0.0, 0.0, 0.0, 0.0, 0.0, 0.0, 0.0, 0.0, 1.6635929270400255E9, 0.0, 2022-09-19 18:08:47.040
73.0, -51276.198181652806, -22491.867541297383, -65303.34833900313, -20203.406536985225, -149319.51008075598, 187500.0, -52569.313653625686, -15249.052971488592, 0.648, -0.5680000000000001, 0.544, 192.0, 0.0, 0.0, 0.0, 0.0, 0.0, 0.0, 0.0, 0.0, 0.0, 1.6635929270440438E9, 0.0, 2022-09-19 18:08:47.044
74.0, -51474.48050671584, -22482.815084792983, -65270.73714384284, -20159.798283552922, -149385.4700786436, 187500.0, -52460.259492428246, -15240.49225336221, 0.648, -0.5680000000000001, 0.544, 192.0, 0.0, 0.0, 0.0, 0.0, 0.0, 0.0, 0.0, 0.0, 0.0, 1.6635929270480483E9, 0.0, 2022-09-19 18:08:47.048
75.0, -51434.78380856321, -22453.82487223445, -65338.597040009154, -20166.928490034163, -149362.93952023264, 187500.0, -52441.48402708579, -15235.038427715115, 0.648, -0.5680000000000001, 0.544, 192.0, 0.0, 0.0, 0.0, 0.0, 0.0, 0.0, 0.0, 0.0, 0.0, 1.6635929270530064E9, 0.0, 2022-09-19 18:08:47.053
76.0, -51119.98183965467, -22419.269075306544, -65461.26341357987, -20214.738871424066, -149231.19833841306, 187500.0, -52475.838658313594, -15229.942229979306, 0.648, -0.5680000000000001, 0.544, 192.0, 0.0, 0.0, 0.0, 0.0, 0.0, 0.0, 0.0, 0.0, 0.0, 1.6635929270571518E9, 0.0, 2022-09-19 18:08:47.057
77.0, -50959.38455574329, -22441.553764528486, -65450.869852408156, -20242.835014204386, -149147.26753798337, 187500.0, -52579.528400841766, -15234.032599214626, 0.648, -0.5680000000000001, 0.544, 192.0, 0.0, 0.0, 0.0, 0.0, 0.0, 0.0, 0.0, 0.0, 0.0, 1.6635929270600538E9, 0.0, 2022-09-19 18:08:47.060
78.0, -51280.892047988425, -22512.341739218446, -65303.03541458076, -20199.316167749905, -149246.5316351094, 187500.0, -52569.64892979252, -15245.990782498217, 0.648, -0.5680000000000001, 0.544, 192.0, 0.0, 0.0, 0.0, 0.0, 0.0, 0.0, 0.0, 0.0, 0.0, 1.663592927064012E9, 0.0, 2022-09-19 18:08:47.064
79.0, -51478.459117228886, -22509.592474650442, -65271.36299268759, -20155.663210828687, -149310.3458655293, 187500.0, -52469.28959718819, -15236.223070171247, 0.654, -0.5680000000000001, 0.542, 192.0, 20.0, 112.0, 238.0, 64.0, 16.0, 240.0, 0.0, 0.0, 0.0, 1.663592927068063E9, 0.0, 2022-09-19 18:08:47.068
80.0, -51428.257099182265, -22471.326288142955, -65320.31331304471, -20154.389161394734, -149279.05342329186, 187500.0, -52428.296497857154, -15224.756625265674, 0.654, -0.5680000000000001, 0.542, 192.0, 0.0, 0.0, 0.0, 0.0, 0.0, 0.0, 0.0, 0.0, 0.0, 1.6635929270721183E9, 0.0, 2022-09-19 18:08:47.072
81.0, -51101.854574901416, -22402.684080920706, -65438.12935806863, -20189.70491763412, -149137.2539564674, 187500.0, -52443.60744280904, -15207.702244246275, 0.654, -0.5680000000000001, 0.542, 192.0, 0.0, 0.0, 0.0, 0.0, 0.0, 0.0, 0.0, 0.0, 0.0, 1.663592927076092E9, 0.0, 2022-09-19 18:08:47.076
82.0, -50950.1756370277, -22429.126194611337, -65453.19443383151, -20233.402578044246, -149059.31342355174, 187500.0, -52578.27670315227, -15224.4437008433, 0.654, -0.5680000000000001, 0.542, 192.0, 0.0, 0.0, 0.0, 0.0, 0.0, 0.0, 0.0, 0.0, 0.0, 1.6635929270810785E9, 0.0, 2022-09-19 18:08:47.081
83.0, -51279.72975727675, -22505.54680890403, -65312.02081585179, -20195.829295614876, -149163.22668352447, 187500.0, -52579.2601799083, -15245.476692375743, 0.654, -0.5680000000000001, 0.542, 192.0, 0.0, 0.0, 0.0, 0.0, 0.0, 0.0, 0.0, 0.0, 0.0, 1.6635929270851076E9, 0.0, 2022-09-19 18:08:47.085
84.0, -51477.408585239486, -22510.88887582885, -65283.231768993355, -20157.339591662836, -149228.4267221006, 187500.0, -52473.93876003489, -15244.739084808718, 0.654, -0.5680000000000001, 0.542, 192.0, 0.0, 0.0, 0.0, 0.0, 0.0, 0.0, 0.0, 0.0, 0.0, 1.6635929270881207E9, 0.0, 2022-09-19 18:08:47.088
85.0, -51420.25517466726, -22462.87732873885, -65333.299676573246, -20155.61850733978, -149192.216896083, 187500.0, -52437.103085172545, -15227.908221233873, 0.654, -0.5680000000000001, 0.542, 192.0, 0.0, 0.0, 0.0, 0.0, 0.0, 0.0, 0.0, 0.0, 0.0, 1.6635929270921893E9, 0.0, 2022-09-19 18:08:47.092
86.0, -51086.63303692735, -22397.76669714054, -65446.734779683924, -20187.00035655503, -149043.7789611553, 187500.0, -52454.53744584769, -15206.048215156581, 0.654, -0.5680000000000001, 0.542, 192.0, 0.0, 0.0, 0.0, 0.0, 0.0, 0.0, 0.0, 0.0, 0.0, 1.6635929270960414E9, 0.0, 2022-09-19 18:08:47.096
87.0, -50934.79763684245, -22418.889095650804, -65440.36453251416, -20212.503696978536, -148961.0998584151, 187500.0, -52574.09692693913, -15210.406805325367, 0.654, -0.5680000000000001, 0.542, 192.0, 0.0, 0.0, 0.0, 0.0, 0.0, 0.0, 0.0, 0.0, 0.0, 1.6635929271002383E9, 0.0, 2022-09-19 18:08:47.100
88.0, -51266.2516553702, -22479.574081846964, -65299.861466868104, -20174.215158726594, -149068.56704575624, 187500.0, -52563.569255300674, -15230.188099168314, 0.654, -0.5680000000000001, 0.542, 192.0, 0.0, 0.0, 0.0, 0.0, 0.0, 0.0, 0.0, 0.0, 0.0, 1.6635929271042309E9, 0.0, 2022-09-19 18:08:47.104
89.0, -51463.32698623264, -22474.947270744717, -65277.979109046355, -20145.247297912516, -149137.23160472294, 187500.0, -52467.47910588731, -15233.898488747895, 0.654, -0.5640000000000001, 0.542, 192.0, 20.0, 112.0, 238.0, 96.0, 16.0, 240.0, 0.0, 0.0, 0.0, 1.6635929271092315E9, 0.0, 2022-09-19 18:08:47.109
90.0, -51408.36404661704, -22438.804499960483, -65326.68356021447, -20146.968382235573, -149105.2462584074, 187500.0, -52431.246928125256, -15220.800366497084, 0.654, -0.5640000000000001, 0.542, 192.0, 0.0, 0.0, 0.0, 0.0, 0.0, 0.0, 0.0, 0.0, 0.0, 1.6635929271132069E9, 0.0, 2022-09-19 18:08:47.113
91.0, -51080.01692056858, -22392.58109242691, -65448.61232621817, -20190.4648769456, -148963.87147472758, 187500.0, -52458.40429763846, -15209.177459380326, 0.654, -0.5640000000000001, 0.542, 192.0, 0.0, 0.0, 0.0, 0.0, 0.0, 0.0, 0.0, 0.0, 0.0, 1.6635929271162226E9, 0.0, 2022-09-19 18:08:47.116
92.0, -50936.2728519765, -22427.71803471065, -65446.22068956145, -20224.886563406773, -148888.56844765766, 187500.0, -52592.00067424783, -15223.303761876079, 0.654, -0.5640000000000001, 0.542, 192.0, 0.0, 0.0, 0.0, 0.0, 0.0, 0.0, 0.0, 0.0, 0.0, 1.663592927120234E9, 0.0, 2022-09-19 18:08:47.120
93.0, -51266.206951881286, -22490.727602330164, -65287.34448997313, -20178.41728668419, -148993.84516404214, 187500.0, -52572.84522924963, -15239.642887072909, 0.654, -0.5640000000000001, 0.542, 192.0, 0.0, 0.0, 0.0, 0.0, 0.0, 0.0, 0.0, 0.0, 0.0, 1.6635929271241891E9, 0.0, 2022-09-19 18:08:47.124
94.0, -51460.80123910919, -22480.93753825874, -65257.14728321401, -20140.754597277, -149057.94996713995, 187500.0, -52469.401355910464, -15235.641924815409, 0.654, -0.5640000000000001, 0.542, 192.0, 0.0, 0.0, 0.0, 0.0, 0.0, 0.0, 0.0, 0.0, 0.0, 1.6635929271282368E9, 0.0, 2022-09-19 18:08:47.128
95.0, -51407.89465998348, -22446.20292737519, -65315.68650194246, -20144.08500720084, -149029.8314726152, 187500.0, -52442.19928290836, -15226.656523544376, 0.654, -0.5640000000000001, 0.542, 192.0, 0.0, 0.0, 0.0, 0.0, 0.0, 0.0, 0.0, 0.0, 0.0, 1.663592927132184E9, 0.0, 2022-09-19 18:08:47.132
96.0, -51076.887676344835, -22398.28078726301, -65431.80381438778, -20184.027574542473, -148888.30022672418, 187500.0, -52458.516056360735, -15213.53604954911, 0.654, -0.5640000000000001, 0.542, 192.0, 0.0, 0.0, 0.0, 0.0, 0.0, 0.0, 0.0, 0.0, 0.0, 1.6635929271362243E9, 0.0, 2022-09-19 18:08:47.136
97.0, -50938.35156421085, -22435.407034803276, -65431.87086962115, -20219.924476137698, -148812.68427523188, 187500.0, -52589.40787189101, -15227.10355843348, 0.654, -0.5640000000000001, 0.542, 192.0, 0.0, 0.0, 0.0, 0.0, 0.0, 0.0, 0.0, 0.0, 0.0, 1.6635929271411333E9, 0.0, 2022-09-19 18:08:47.141
98.0, -51280.1544404214, -22500.718832101684, -65286.584530661654, -20183.781705353464, -148927.39342777652, 187500.0, -52580.86950550908, -15250.63994534492, 0.654, -0.5640000000000001, 0.542, 192.0, 0.0, 0.0, 0.0, 0.0, 0.0, 0.0, 0.0, 0.0, 0.0, 1.6635929271441467E9, 0.0, 2022-09-19 18:08:47.144
99.0, -51470.16662003596, -22482.479808626154, -65259.29305068172, -20142.565088577878, -148993.95692276442, 187500.0, -52468.797858810176, -15244.046180730604, 0.652, -0.5640000000000001, 0.542, 192.0, 20.0, 96.0, 238.0, 96.0, 16.0, 240.0, 0.0, 0.0, 0.0, 1.6635929271482923E9, 0.0, 2022-09-19 18:08:47.148
100.0, -51413.013209463745, -22444.59360177441, -65313.272513541284, -20143.861489756287, -148962.61977703808, 187500.0, -52434.95731770484, -15229.182270667825, 0.652, -0.5640000000000001, 0.542, 192.0, 0.0, 0.0, 0.0, 0.0, 0.0, 0.0, 0.0, 0.0, 0.0, 1.6635929271521797E9, 0.0, 2022-09-19 18:08:47.152
101.0, -51090.14226080683, -22402.61702568734, -65435.2459830339, -20194.443487458648, -148828.0175719282, 187500.0, -52461.46648662883, -15221.336808364013, 0.652, -0.5640000000000001, 0.542, 192.0, 0.0, 0.0, 0.0, 0.0, 0.0, 0.0, 0.0, 0.0, 0.0, 1.663592927156176E9, 0.0, 2022-09-19 18:08:47.156
102.0, -50962.06676507792, -22438.558630771477, -65431.53559345432, -20232.10617686584, -148761.18585600686, 187500.0, -52585.78688928925, -15241.20750918478, 0.652, -0.5640000000000001, 0.542, 192.0, 0.0, 0.0, 0.0, 0.0, 0.0, 0.0, 0.0, 0.0, 0.0, 1.6635929271602032E9, 0.0, 2022-09-19 18:08:47.160
103.0, -51306.596554112024, -22497.813105322493, -65280.54955965872, -20184.161685009203, -148878.57721788614, 187500.0, -52571.92880772696, -15258.954794282294, 0.652, -0.5640000000000001, 0.542, 192.0, 0.0, 0.0, 0.0, 0.0, 0.0, 0.0, 0.0, 0.0, 0.0, 1.6635929271643395E9, 0.0, 2022-09-19 18:08:47.164
104.0, -51497.0557686157, -22477.294203912523, -65251.78286454474, -20143.190937422627, -148945.02895415176, 187500.0, -52462.5840738516, -15250.483483133732, 0.652, -0.5640000000000001, 0.542, 192.0, 0.0, 0.0, 0.0, 0.0, 0.0, 0.0, 0.0, 0.0, 0.0, 1.663592927169207E9, 0.0, 2022-09-19 18:08:47.169
105.0, -51437.46601789785, -22443.16309012927, -65310.34443501764, -20149.739998548033, -148912.149538058, 187500.0, -52433.258585126234, -15239.06174171707, 0.652, -0.5640000000000001, 0.542, 192.0, 0.0, 0.0, 0.0, 0.0, 0.0, 0.0, 0.0, 0.0, 0.0, 1.6635929271722164E9, 0.0, 2022-09-19 18:08:47.172
106.0, -51102.88275514636, -22407.53440946751, -65439.962201113965, -20200.701975906133, -148770.4618299558, 187500.0, -52465.26628318623, -15227.282372389123, 0.652, -0.5640000000000001, 0.542, 192.0, 0.0, 0.0, 0.0, 0.0, 0.0, 0.0, 0.0, 0.0, 0.0, 1.6635929271762936E9, 0.0, 2022-09-19 18:08:47.176
107.0, -50976.37188152932, -22439.944438927705, -65441.90680288158, -20242.52208978201, -148706.82641349154, 187500.0, -52598.46032839541, -15243.465035374766, 0.652, -0.5640000000000001, 0.542, 192.0, 0.0, 0.0, 0.0, 0.0, 0.0, 0.0, 0.0, 0.0, 0.0, 1.6635929271803117E9, 0.0, 2022-09-19 18:08:47.180
108.0, -51323.49447292024, -22501.523494902074, -65290.18316151896, -20200.701975906133, -148826.6764672609, 187500.0, -52575.37097637308, -15261.122913494459, 0.652, -0.5640000000000001, 0.542, 192.0, 0.0, 0.0, 0.0, 0.0, 0.0, 0.0, 0.0, 0.0, 0.0, 1.663592927184301E9, 0.0, 2022-09-19 18:08:47.184
109.0, -51506.44350128693, -22477.741238801627, -65261.32705942715, -20153.718609061078, -148890.26718023626, 187500.0, -52461.69000407339, -15250.170558711357, 0.65, -0.5700000000000001, 0.546, 192.0, 20.0, 80.0, 238.0, 48.0, 17.0, 16.0, 0.0, 0.0, 0.0, 1.6635929271882906E9, 0.0, 2022-09-19 18:08:47.188
110.0, -51435.81198880816, -22428.09801436639, -65314.39010076405, -20149.292963658925, -148850.97281348382, 187500.0, -52431.76101824773, -15227.81881425605, 0.65, -0.5700000000000001, 0.546, 192.0, 0.0, 0.0, 0.0, 0.0, 0.0, 0.0, 0.0, 0.0, 0.0, 1.6635929271923213E9, 0.0, 2022-09-19 18:08:47.192
111.0, -51094.32203701998, -22372.978612539606, -65434.642485933604, -20190.420173456692, -148705.6417710354, 187500.0, -52453.5316173472, -15211.636151270408, 0.65, -0.5700000000000001, 0.546, 192.0, 0.0, 0.0, 0.0, 0.0, 0.0, 0.0, 0.0, 0.0, 0.0, 1.6635929271972885E9, 0.0, 2022-09-19 18:08:47.197
112.0, -50975.20959081764, -22412.228275803125, -65434.10604406668, -20229.356912297837, -148645.15795053935, 187500.0, -52590.2125346914, -15234.21141317027, 0.65, -0.5700000000000001, 0.546, 192.0, 0.0, 0.0, 0.0, 0.0, 0.0, 0.0, 0.0, 0.0, 0.0, 1.66359292720033E9, 0.0, 2022-09-19 18:08:47.200
113.0, -51325.148502009935, -22476.19896843421, -65281.3095189702, -20185.636900143254, -148766.55027467612, 187500.0, -52573.06874669418, -15254.037410502126, 0.65, -0.5700000000000001, 0.546, 192.0, 0.0, 0.0, 0.0, 0.0, 0.0, 0.0, 0.0, 0.0, 0.0, 1.6635929272053292E9, 0.0, 2022-09-19 18:08:47.205
114.0, -51512.52317577877, -22459.233994392634, -65253.57100410116, -20149.248260170014, -148832.3314586081, 187500.0, -52462.829943040604, -15251.377552911945, 0.65, -0.5700000000000001, 0.546, 192.0, 0.0, 0.0, 0.0, 0.0, 0.0, 0.0, 0.0, 0.0, 0.0, 1.663592927208331E9, 0.0, 2022-09-19 18:08:47.208
115.0, -51446.764343591254, -22422.644188719296, -65311.059690840215, -20150.70112355961, -148801.03901637066, 187500.0, -52436.72310551681, -15234.032599214626, 0.65, -0.5700000000000001, 0.546, 192.0, 0.0, 0.0, 0.0, 0.0, 0.0, 0.0, 0.0, 0.0, 0.0, 1.6635929272124095E9, 0.0, 2022-09-19 18:08:47.212
116.0, -51104.089749346946, -22379.304156220456, -65428.495756208395, -20193.035327557962, -148655.99854660017, 187500.0, -52465.37804190851, -15213.983084438216, 0.65, -0.5700000000000001, 0.546, 192.0, 0.0, 0.0, 0.0, 0.0, 0.0, 0.0, 0.0, 0.0, 0.0, 1.6635929272163455E9, 0.0, 2022-09-19 18:08:47.216
117.0, -50994.02975964901, -22415.491630493598, -65415.285875235306, -20227.47936576359, -148594.97828423718, 187500.0, -52594.57112486019, -15232.95971548077, 0.65, -0.5700000000000001, 0.546, 192.0, 0.0, 0.0, 0.0, 0.0, 0.0, 0.0, 0.0, 0.0, 0.0, 1.6635929272223244E9, 0.0, 2022-09-19 18:08:47.222
118.0, -51342.761676640715, -22472.980317232646, -65265.57389087366, -20182.75352510852, -148713.88956473942, 187500.0, -52571.325310626664, -15253.076285490548, 0.65, -0.5700000000000001, 0.546, 192.0, 0.0, 0.0, 0.0, 0.0, 0.0, 0.0, 0.0, 0.0, 0.0, 1.6635929272264428E9, 0.0, 2022-09-19 18:08:47.226
119.0, -51525.46483581839, -22452.17084314476, -65240.74110278382, -20136.552469319402, -148778.1731817929, 187500.0, -52462.3829081515, -15241.788654540618, 0.648, -0.5740000000000001, 0.54, 192.0, 20.0, 64.0, 238.0, 16.0, 16.0, 224.0, 0.0, 0.0, 0.0, 1.6635929272293684E9, 0.0, 2022-09-19 18:08:47.229
120.0, -51454.07336402814, -22416.944493883195, -65309.04803383924, -20144.12971068975, -148745.4502279103, 187500.0, -52440.45584684084, -15228.4446631008, 0.648, -0.5740000000000001, 0.54, 192.0, 0.0, 0.0, 0.0, 0.0, 0.0, 0.0, 0.0, 0.0, 0.0, 1.6635929272323396E9, 0.0, 2022-09-19 18:08:47.232
121.0, -51112.13637735086, -22380.75701961005, -65435.491852222905, -20195.85164735933, -148602.3767116519, 187500.0, -52466.115649475534, -15219.503965318676, 0.648, -0.5740000000000001, 0.54, 192.0, 0.0, 0.0, 0.0, 0.0, 0.0, 0.0, 0.0, 0.0, 0.0, 1.6635929272363665E9, 0.0, 2022-09-19 18:08:47.236
122.0, -51007.105530155364, -22424.298217808988, -65425.075939306735, -20230.80977568743, -148544.798617935, 187500.0, -52601.29899994123, -15236.580698082531, 0.648, -0.5740000000000001, 0.54, 192.0, 0.0, 0.0, 0.0, 0.0, 0.0, 0.0, 0.0, 0.0, 0.0, 1.6635929272402976E9, 0.0, 2022-09-19 18:08:47.240
123.0, -51362.610025717026, -22486.033735994548, -65277.33090845715, -20185.01105129851, -148669.23077931773, 187500.0, -52587.44091837895, -15257.233709959235, 0.648, -0.5740000000000001, 0.54, 192.0, 0.0, 0.0, 0.0, 0.0, 0.0, 0.0, 0.0, 0.0, 0.0, 1.66359292724438E9, 0.0, 2022-09-19 18:08:47.244
124.0, -51543.48034184937, -22472.68974455473, -65253.77216980126, -20148.443597369624, -148733.42498939336, 187500.0, -52476.30804494716, -15251.35520116749, 0.648, -0.5740000000000001, 0.54, 192.0, 0.0, 0.0, 0.0, 0.0, 0.0, 0.0, 0.0, 0.0, 0.0, 1.6635929272483592E9, 0.0, 2022-09-19 18:08:47.248
125.0, -51469.58547468013, -22432.63541849082, -65309.20449605042, -20151.170510193173, -148696.83518372002, 187500.0, -52435.650221782955, -15235.887794004417, 0.648, -0.5740000000000001, 0.54, 192.0, 0.0, 0.0, 0.0, 0.0, 0.0, 0.0, 0.0, 0.0, 0.0, 1.6635929272533567E9, 0.0, 2022-09-19 18:08:47.253
126.0, -51127.067342647, -22389.988290070094, -65436.34121851221, -20200.299644505936, -148553.6052052504, 187500.0, -52473.78229782371, -15222.186174653314, 0.648, -0.5740000000000001, 0.54, 192.0, 0.0, 0.0, 0.0, 0.0, 0.0, 0.0, 0.0, 0.0, 0.0, 1.6635929272563777E9, 0.0, 2022-09-19 18:08:47.256
127.0, -51025.1433879308, -22440.01149416107, -65418.72804388143, -20237.224726346103, -148500.11748076888, 187500.0, -52611.536098901764, -15242.749779552196, 0.648, -0.5740000000000001, 0.54, 192.0, 0.0, 0.0, 0.0, 0.0, 0.0, 0.0, 0.0, 0.0, 0.0, 1.6635929272604067E9, 0.0, 2022-09-19 18:08:47.260
128.0, -51380.156145114444, -22495.399116921322, -65261.63998384953, -20190.308414734416, -148627.85770033093, 187500.0, -52577.40498511851, -15266.710849608286, 0.648, -0.5740000000000001, 0.54, 192.0, 0.0, 0.0, 0.0, 0.0, 0.0, 0.0, 0.0, 0.0, 0.0, 1.6635929272644014E9, 0.0, 2022-09-19 18:08:47.264
129.0, -51560.177094957486, -22478.12121845737, -65241.635172562026, -20151.237565426538, -148696.41050057538, 187500.0, -52472.88822804549, -15264.319212951568, 0.656, -0.5760000000000001, 0.542, 192.0, 20.0, 128.0, 238.0, 0.0, 16.0, 240.0, 0.0, 0.0, 0.0, 1.6635929272683437E9, 0.0, 2022-09-19 18:08:47.268
130.0, -51485.432861498935, -22428.321531810943, -65301.82842038017, -20149.583536336846, -148662.30173853657, 187500.0, -52444.948547476364, -15244.716733064262, 0.656, -0.5760000000000001, 0.542, 192.0, 0.0, 0.0, 0.0, 0.0, 0.0, 0.0, 0.0, 0.0, 0.0, 1.663592927272374E9, 0.0, 2022-09-19 18:08:47.272
131.0, -51133.14701713884, -22369.33527819339, -65421.3431979827, -20190.911911834708, -148516.16603328777, 187500.0, -52466.87560878701, -15225.270715388146, 0.656, -0.5760000000000001, 0.542, 192.0, 0.0, 0.0, 0.0, 0.0, 0.0, 0.0, 0.0, 0.0, 0.0, 1.6635929272764359E9, 0.0, 2022-09-19 18:08:47.276
132.0, -51030.463103111164, -22406.10389782237, -65404.35587219666, -20223.210182572628, -148463.88530300683, 187500.0, -52596.73924407235, -15241.676895818342, 0.656, -0.5760000000000001, 0.542, 192.0, 0.0, 0.0, 0.0, 0.0, 0.0, 0.0, 0.0, 0.0, 0.0, 1.6635929272814162E9, 0.0, 2022-09-19 18:08:47.281
133.0, -51390.79557547517, -22470.476921853653, -65262.42229490547, -20182.75352510852, -148596.96758949372, 187500.0, -52577.986130474346, -15271.44941943281, 0.656, -0.5760000000000001, 0.542, 192.0, 0.0, 0.0, 0.0, 0.0, 0.0, 0.0, 0.0, 0.0, 0.0, 1.6635929272843673E9, 0.0, 2022-09-19 18:08:47.284
134.0, -51565.34034792666, -22456.171805402257, -65243.98210572983, -20146.051960712906, -148665.83331416053, 187500.0, -52467.41205065395, -15264.766247840673, 0.656, -0.5760000000000001, 0.542, 192.0, 0.0, 0.0, 0.0, 0.0, 0.0, 0.0, 0.0, 0.0, 0.0, 1.663592927287434E9, 0.0, 2022-09-19 18:08:47.287
135.0, -51482.1024515751, -22407.66851993424, -65296.866333111095, -20135.83721349683, -148627.7906450976, 187500.0, -52436.410181094434, -15239.598183583998, 0.656, -0.5760000000000001, 0.542, 192.0, 0.0, 0.0, 0.0, 0.0, 0.0, 0.0, 0.0, 0.0, 0.0, 1.663592927293425E9, 0.0, 2022-09-19 18:08:47.293
136.0, -51128.83313045897, -22363.456769401644, -65421.454956704976, -20179.08783901785, -148481.0961462374, 187500.0, -52470.451887899864, -15228.712884034263, 0.656, -0.5760000000000001, 0.542, 192.0, 0.0, 0.0, 0.0, 0.0, 0.0, 0.0, 0.0, 0.0, 0.0, 1.663592927296419E9, 0.0, 2022-09-19 18:08:47.296
137.0, -51031.71480080066, -22410.104860079868, -65401.18192448401, -20210.134412066272, -148430.35768632384, 187500.0, -52604.540002887254, -15250.528186622643, 0.656, -0.5760000000000001, 0.542, 192.0, 0.0, 0.0, 0.0, 0.0, 0.0, 0.0, 0.0, 0.0, 0.0, 1.6635929273014655E9, 0.0, 2022-09-19 18:08:47.301
138.0, -51389.29800859666, -22470.745142787116, -65247.96071624288, -20160.46883588658, -148559.12608613088, 187500.0, -52575.460383350895, -15271.516474666176, 0.656, -0.5760000000000001, 0.542, 192.0, 0.0, 0.0, 0.0, 0.0, 0.0, 0.0, 0.0, 0.0, 0.0, 1.6635929273054132E9, 0.0, 2022-09-19 18:08:47.305
139.0, -51565.60856886012, -22452.01438093357, -65229.81109974517, -20121.666207512168, -148630.71872362122, 187500.0, -52470.20601871086, -15265.749724596708, 0.648, -0.5660000000000001, 0.55, 192.0, 20.0, 64.0, 238.0, 80.0, 17.0, 48.0, 0.0, 0.0, 0.0, 1.6635929273084402E9, 0.0, 2022-09-19 18:08:47.308
140.0, -51483.488259731326, -22409.43430774621, -65289.91494058549, -20125.287190113926, -148598.04047322756, 187500.0, -52438.95827996234, -15247.823625543551, 0.648, -0.5660000000000001, 0.55, 192.0, 0.0, 0.0, 0.0, 0.0, 0.0, 0.0, 0.0, 0.0, 0.0, 1.6635929273114514E9, 0.0, 2022-09-19 18:08:47.311
141.0, -51132.83409271647, -22363.300307190457, -65412.782479856316, -20174.393972682235, -148454.67638429123, 187500.0, -52472.709414089855, -15234.792558526107, 0.648, -0.5660000000000001, 0.55, 192.0, 0.0, 0.0, 0.0, 0.0, 0.0, 0.0, 0.0, 0.0, 0.0, 1.6635929273154876E9, 0.0, 2022-09-19 18:08:47.315
142.0, -51038.55443460398, -22409.590769957398, -65393.35881392465, -20205.552304452933, -148405.6813604452, 187500.0, -52609.61384887861, -15251.958698267783, 0.648, -0.5660000000000001, 0.55, 192.0, 0.0, 0.0, 0.0, 0.0, 0.0, 0.0, 0.0, 0.0, 0.0, 1.6635929273204408E9, 0.0, 2022-09-19 18:08:47.320
143.0, -51399.35629360155, -22472.130950943345, -65239.66821904996, -20158.524234118966, -148536.55082423103, 187500.0, -52572.12997342706, -15270.175369998859, 0.648, -0.5660000000000001, 0.55, 192.0, 0.0, 0.0, 0.0, 0.0, 0.0, 0.0, 0.0, 0.0, 0.0, 1.6635929273245842E9, 0.0, 2022-09-19 18:08:47.324
144.0, -51573.74460384186, -22452.461415822676, -65223.172631641944, -20122.403815079193, -148607.5176128766, 187500.0, -52461.10885871755, -15264.162750740381, 0.648, -0.5660000000000001, 0.55, 192.0, 0.0, 0.0, 0.0, 0.0, 0.0, 0.0, 0.0, 0.0, 0.0, 1.6635929273285184E9, 0.0, 2022-09-19 18:08:47.328
145.0, -51486.99748361081, -22420.76664218505, -65289.22203650737, -20127.432957581637, -148570.30195835853, 187500.0, -52436.23136713879, -15246.795445298607, 0.648, -0.5660000000000001, 0.55, 192.0, 0.0, 0.0, 0.0, 0.0, 0.0, 0.0, 0.0, 0.0, 0.0, 1.6635929273325589E9, 0.0, 2022-09-19 18:08:47.332
146.0, -51134.53282529507, -22384.95914756765, -65427.0428928188, -20189.727269378578, -148426.46848278862, 187500.0, -52484.645245628984, -15242.526262107644, 0.648, -0.5660000000000001, 0.55, 192.0, 0.0, 0.0, 0.0, 0.0, 0.0, 0.0, 0.0, 0.0, 0.0, 1.6635929273354897E9, 0.0, 2022-09-19 18:08:47.335
147.0, -51043.36005966188, -22413.636435703807, -65393.38116566911, -20216.683473191675, -148375.3276914749, 187500.0, -52602.77421507528, -15257.703096592797, 0.648, -0.5660000000000001, 0.55, 192.0, 0.0, 0.0, 0.0, 0.0, 0.0, 0.0, 0.0, 0.0, 0.0, 1.6635929273396027E9, 0.0, 2022-09-19 18:08:47.339
148.0, -51400.429177335405, -22465.15720667329, -65240.33877138362, -20165.83325455585, -148505.3477889714, 187500.0, -52562.675185522465, -15273.081096778047, 0.648, -0.5660000000000001, 0.55, 192.0, 0.0, 0.0, 0.0, 0.0, 0.0, 0.0, 0.0, 0.0, 0.0, 1.6635929273435345E9, 0.0, 2022-09-19 18:08:47.343
149.0, -51566.055603749235, -22449.354523343387, -65228.2464776333, -20133.378521606748, -148568.93850194674, 187500.0, -52462.829943040604, -15265.59326238552, 0.652, -0.562, 0.55, 192.0, 20.0, 96.0, 238.0, 112.0, 17.0, 48.0, 0.0, 0.0, 0.0, 1.6635929273475363E9, 0.0, 2022-09-19 18:08:47.347
150.0, -51473.42997472644, -22406.70739492266, -65294.05001330972, -20143.548565333913, -148527.38660900434, 187500.0, -52434.08559967108, -15248.605936599486, 0.652, -0.562, 0.55, 192.0, 0.0, 0.0, 0.0, 0.0, 0.0, 0.0, 0.0, 0.0, 0.0, 1.6635929273525348E9, 0.0, 2022-09-19 18:08:47.352
151.0, -51114.61742098539, -22364.842577557873, -65416.04583454679, -20192.85651360232, -148377.83108685387, 187500.0, -52469.066079743636, -15235.083131204026, 0.652, -0.562, 0.55, 192.0, 0.0, 0.0, 0.0, 0.0, 0.0, 0.0, 0.0, 0.0, 0.0, 1.6635929273565404E9, 0.0, 2022-09-19 18:08:47.356
152.0, -51034.15114094629, -22414.977540371125, -65395.28106394781, -20225.735929696075, -148333.37346713227, 187500.0, -52608.250392466834, -15256.429047158845, 0.652, -0.562, 0.55, 192.0, 0.0, 0.0, 0.0, 0.0, 0.0, 0.0, 0.0, 0.0, 0.0, 1.6635929273605702E9, 0.0, 2022-09-19 18:08:47.360
153.0, -51392.941342942875, -22474.254366666602, -65248.31834415416, -20178.931376806664, -148464.84642801838, 187500.0, -52579.796621775226, -15277.104410780003, 0.652, -0.562, 0.55, 192.0, 0.0, 0.0, 0.0, 0.0, 0.0, 0.0, 0.0, 0.0, 0.0, 1.6635929273635633E9, 0.0, 2022-09-19 18:08:47.363
154.0, -51554.164475699006, -22442.179613373235, -65222.7926519862, -20139.480547843046, -148527.31955377097, 187500.0, -52466.67444308692, -15264.408619929389, 0.652, -0.562, 0.55, 192.0, 0.0, 0.0, 0.0, 0.0, 0.0, 0.0, 0.0, 0.0, 0.0, 1.6635929273675444E9, 0.0, 2022-09-19 18:08:47.367
155.0, -51457.09084952961, -22386.90374933526, -65277.24150147933, -20139.189975165125, -148481.4537741487, 187500.0, -52433.19152989287, -15236.78186378263, 0.652, -0.562, 0.55, 192.0, 0.0, 0.0, 0.0, 0.0, 0.0, 0.0, 0.0, 0.0, 0.0, 1.6635929273716252E9, 0.0, 2022-09-19 18:08:47.371
156.0, -51095.88665913185, -22347.877603516295, -65395.99631977038, -20188.47557168908, -148329.4619118526, 187500.0, -52465.26628318623, -15221.53797406411, 0.652, -0.562, 0.55, 192.0, 0.0, 0.0, 0.0, 0.0, 0.0, 0.0, 0.0, 0.0, 0.0, 1.6635929273755982E9, 0.0, 2022-09-19 18:08:47.375
157.0, -51026.01510596456, -22400.560665197452, -65373.51046484834, -20220.080938348885, -148289.72051021107, 187500.0, -52607.24456396634, -15243.465035374766, 0.652, -0.562, 0.55, 192.0, 0.0, 0.0, 0.0, 0.0, 0.0, 0.0, 0.0, 0.0, 0.0, 1.6635929273805883E9, 0.0, 2022-09-19 18:08:47.380
158.0, -51391.51083129774, -22463.145549672314, -65226.68185552143, -20170.12478949127, -148423.9427356652, 187500.0, -52576.82383976267, -15264.20745422929, 0.652, -0.562, 0.55, 192.0, 0.0, 0.0, 0.0, 0.0, 0.0, 0.0, 0.0, 0.0, 0.0, 1.6635929273846457E9, 0.0, 2022-09-19 18:08:47.384
159.0, -51551.996356486845, -22444.861822707873, -65210.85682044707, -20140.732245532545, -148489.27688470803, 187500.0, -52478.29735020368, -15258.038372759625, 0.646, -0.56, 0.55, 192.0, 20.0, 48.0, 238.0, 128.0, 17.0, 48.0, 0.0, 0.0, 0.0, 1.663592927388618E9, 0.0, 2022-09-19 18:08:47.388
160.0, -51459.571893164146, -22399.4877814636, -65261.975260016356, -20141.291039143925, -148446.67445977623, 187500.0, -52438.779466006694, -15236.200718426791, 0.646, -0.56, 0.55, 192.0, 0.0, 0.0, 0.0, 0.0, 0.0, 0.0, 0.0, 0.0, 0.0, 1.6635929273915603E9, 0.0, 2022-09-19 18:08:47.391
161.0, -51098.36770276639, -22356.058341986936, -65384.105191720155, -20182.217083241594, -148294.0567486354, 187500.0, -52472.351786178566, -15219.883944974417, 0.646, -0.56, 0.55, 192.0, 0.0, 0.0, 0.0, 0.0, 0.0, 0.0, 0.0, 0.0, 0.0, 1.6635929273955488E9, 0.0, 2022-09-19 18:08:47.395
162.0, -51029.85960601087, -22406.662691433754, -65365.19561591097, -20215.61058945782, -148255.67880340564, 187500.0, -52613.59245939165, -15249.2988406776, 0.646, -0.56, 0.55, 192.0, 0.0, 0.0, 0.0, 0.0, 0.0, 0.0, 0.0, 0.0, 0.0, 1.6635929273996613E9, 0.0, 2022-09-19 18:08:47.399
163.0, -51398.70809301235, -22468.174692174758, -65224.357274098074, -20170.638879613743, -148393.36554925033, 187500.0, -52578.99195897484, -15276.009175301693, 0.646, -0.56, 0.55, 192.0, 0.0, 0.0, 0.0, 0.0, 0.0, 0.0, 0.0, 0.0, 0.0, 1.6635929274036603E9, 0.0, 2022-09-19 18:08:47.403
164.0, -51562.43462114747, -22450.74033149962, -65219.752814740285, -20137.55829781989, -148458.38677387082, 187500.0, -52480.599579882575, -15269.862445576484, 0.646, -0.56, 0.55, 192.0, 0.0, 0.0, 0.0, 0.0, 0.0, 0.0, 0.0, 0.0, 0.0, 1.6635929274087152E9, 0.0, 2022-09-19 18:08:47.408
165.0, -51466.85856185658, -22403.354633254366, -65283.38823120454, -20140.911059488186, -148414.4208925272, 187500.0, -52450.69294580138, -15249.2988406776, 0.646, -0.56, 0.55, 192.0, 0.0, 0.0, 0.0, 0.0, 0.0, 0.0, 0.0, 0.0, 0.0, 1.6635929274126692E9, 0.0, 2022-09-19 18:08:47.412
166.0, -51099.84291790044, -22355.74541756456, -65405.74168035289, -20187.067411788394, -148255.96937608355, 187500.0, -52489.20500149787, -15230.903354990884, 0.646, -0.56, 0.55, 192.0, 0.0, 0.0, 0.0, 0.0, 0.0, 0.0, 0.0, 0.0, 0.0, 1.6635929274166868E9, 0.0, 2022-09-19 18:08:47.416
167.0, -51038.95676600418, -22405.366290255344, -65371.83408401419, -20217.4210807587, -148220.96654426653, 187500.0, -52625.170663019504, -15255.266756447169, 0.646, -0.56, 0.55, 192.0, 0.0, 0.0, 0.0, 0.0, 0.0, 0.0, 0.0, 0.0, 0.0, 1.663592927419675E9, 0.0, 2022-09-19 18:08:47.419
168.0, -51407.58173556111, -22471.281584654043, -65233.81206200267, -20176.159760494204, -148356.55222613242, 187500.0, -52590.03372073576, -15283.497009694222, 0.646, -0.56, 0.55, 192.0, 0.0, 0.0, 0.0, 0.0, 0.0, 0.0, 0.0, 0.0, 0.0, 1.6635929274236767E9, 0.0, 2022-09-19 18:08:47.423
169.0, -51560.177094957486, -22453.310782111977, -65227.33005611063, -20143.257992655992, -148411.8727936593, 187500.0, -52493.72005387784, -15272.768172355674, 0.644, -0.562, 0.55, 192.0, 20.0, 32.0, 238.0, 112.0, 17.0, 48.0, 0.0, 0.0, 0.0, 1.6635929274276657E9, 0.0, 2022-09-19 18:08:47.427
170.0, -51464.51162868877, -22410.753060669074, -65292.35128073112, -20151.930469504652, -148368.1751332492, 187500.0, -52462.33820466259, -15255.378515169445, 0.644, -0.562, 0.55, 192.0, 0.0, 0.0, 0.0, 0.0, 0.0, 0.0, 0.0, 0.0, 0.0, 1.6635929274316626E9, 0.0, 2022-09-19 18:08:47.431
171.0, -51102.36866502389, -22369.04470551547, -65418.23630550341, -20205.395842241745, -148214.8868697747, 187500.0, -52497.85512660207, -15239.933459750828, 0.644, -0.562, 0.55, 192.0, 0.0, 0.0, 0.0, 0.0, 0.0, 0.0, 0.0, 0.0, 0.0, 1.6635929274357429E9, 0.0, 2022-09-19 18:08:47.435
172.0, -51048.500960886595, -22421.30308405198, -65377.06439221674, -20237.269429835014, -148182.11921240322, 187500.0, -52628.00933456532, -15263.11221875098, 0.644, -0.562, 0.55, 192.0, 0.0, 0.0, 0.0, 0.0, 0.0, 0.0, 0.0, 0.0, 0.0, 1.6635929274407248E9, 0.0, 2022-09-19 18:08:47.440
173.0, -51417.50591009926, -22488.045392995526, -65228.51469856676, -20187.80501935542, -148317.97311520256, 187500.0, -52589.67609282448, -15285.285149250645, 0.644, -0.562, 0.55, 192.0, 0.0, 0.0, 0.0, 0.0, 0.0, 0.0, 0.0, 0.0, 0.0, 1.6635929274446907E9, 0.0, 2022-09-19 18:08:47.444
174.0, -51572.11292649662, -22453.266078623066, -65219.79751822919, -20152.31044916039, -148376.84761009784, 187500.0, -52493.00479805527, -15277.953777069304, 0.644, -0.562, 0.55, 192.0, 0.0, 0.0, 0.0, 0.0, 0.0, 0.0, 0.0, 0.0, 0.0, 1.6635929274477112E9, 0.0, 2022-09-19 18:08:47.447
175.0, -51471.261855514276, -22403.220522787637, -65294.67586215447, -20158.814806796887, -148331.1606444312, 187500.0, -52479.79491708218, -15260.005326271694, 0.644, -0.562, 0.55, 192.0, 0.0, 0.0, 0.0, 0.0, 0.0, 0.0, 0.0, 0.0, 0.0, 1.663592927452712E9, 0.0, 2022-09-19 18:08:47.452
176.0, -51101.58635396795, -22347.98936223857, -65409.273255976834, -20206.356967253323, -148174.34080533276, 187500.0, -52503.97950458283, -15241.721599307251, 0.644, -0.562, 0.55, 192.0, 0.0, 0.0, 0.0, 0.0, 0.0, 0.0, 0.0, 0.0, 0.0, 1.6635929274557133E9, 0.0, 2022-09-19 18:08:47.455
177.0, -51038.66619332626, -22381.87460683282, -65358.40068559655, -20223.321941294904, -148132.8559676237, 187500.0, -52612.854851824624, -15253.657430846386, 0.644, -0.562, 0.55, 192.0, 0.0, 0.0, 0.0, 0.0, 0.0, 0.0, 0.0, 0.0, 0.0, 1.6635929274597156E9, 0.0, 2022-09-19 18:08:47.459
178.0, -51408.207584405856, -22454.20485189019, -65230.3475416121, -20188.587330411356, -148272.73318442501, 187500.0, -52582.72470029887, -15284.368727727979, 0.644, -0.562, 0.55, 192.0, 0.0, 0.0, 0.0, 0.0, 0.0, 0.0, 0.0, 0.0, 0.0, 1.6635929274636767E9, 0.0, 2022-09-19 18:08:47.463
179.0, -51557.807810045226, -22434.512965025064, -65218.970503684344, -20152.981001494052, -148329.0595804524, 187500.0, -52478.230294970315, -15271.963509555282, 0.644, -0.562, 0.55, 192.0, 0.0, 0.0, 0.0, 0.0, 0.0, 0.0, 0.0, 0.0, 0.0, 1.663592927469782E9, 0.0, 2022-09-19 18:08:47.469
180.0, -51453.201645994384, -22391.86583660434, -65294.11706854309, -20163.441617899134, -148284.8031264309, 187500.0, -52452.972823735814, -15255.199701213802, 0.642, -0.56, 0.55, 192.0, 20.0, 16.0, 238.0, 128.0, 17.0, 48.0, 0.0, 0.0, 0.0, 1.66359292747277E9, 0.0, 2022-09-19 18:08:47.472
181.0, -51091.17044105178, -22359.81343505543, -65429.45688121997, -20222.494926750056, -148135.02408683588, 187500.0, -52510.930897108425, -15249.835282544529, 0.642, -0.56, 0.55, 192.0, 0.0, 0.0, 0.0, 0.0, 0.0, 0.0, 0.0, 0.0, 0.0, 1.6635929274767444E9, 0.0, 2022-09-19 18:08:47.476
182.0, -51039.09087647091, -22411.334206024912, -65387.815581299736, -20244.019656660515, -148097.54021138433, 187500.0, -52640.25809052683, -15272.097620022014, 0.642, -0.56, 0.55, 192.0, 0.0, 0.0, 0.0, 0.0, 0.0, 0.0, 0.0, 0.0, 0.0, 1.6635929274797704E9, 0.0, 2022-09-19 18:08:47.479
183.0, -51406.82177624962, -22465.73835202913, -65233.81206200267, -20187.17917051067, -148231.27069846043, 187500.0, -52581.54005784274, -15289.5096289527, 0.642, -0.56, 0.55, 192.0, 0.0, 0.0, 0.0, 0.0, 0.0, 0.0, 0.0, 0.0, 0.0, 1.6635929274837584E9, 0.0, 2022-09-19 18:08:47.483
184.0, -51552.57750184268, -22439.96679067216, -65219.395186828995, -20145.716684546078, -148286.81478343188, 187500.0, -52475.503382146766, -15275.338622968035, 0.642, -0.56, 0.55, 192.0, 0.0, 0.0, 0.0, 0.0, 0.0, 0.0, 0.0, 0.0, 0.0, 1.6635929274877584E9, 0.0, 2022-09-19 18:08:47.487
185.0, -51441.01994526624, -22390.591787170386, -65278.02381253527, -20145.962553735084, -148234.6458118732, 187500.0, -52444.50151258725, -15250.617593600464, 0.642, -0.56, 0.55, 192.0, 0.0, 0.0, 0.0, 0.0, 0.0, 0.0, 0.0, 0.0, 0.0, 1.6635929274918172E9, 0.0, 2022-09-19 18:08:47.491
186.0, -51072.64084489833, -22349.41987388371, -65404.04294777429, -20192.7671066245, -148077.78126928583, 187500.0, -52490.05436778717, -15234.166709681358, 0.642, -0.56, 0.55, 192.0, 0.0, 0.0, 0.0, 0.0, 0.0, 0.0, 0.0, 0.0, 0.0, 1.663592927496818E9, 0.0, 2022-09-19 18:08:47.496
187.0, -51032.76533279006, -22403.82401988793, -65368.61543281263, -20218.04692960345, -148049.70747824997, 187500.0, -52630.64684041105, -15257.121951236959, 0.642, -0.56, 0.55, 192.0, 0.0, 0.0, 0.0, 0.0, 0.0, 0.0, 0.0, 0.0, 0.0, 1.6635929275008318E9, 0.0, 2022-09-19 18:08:47.500
188.0, -51402.798462247665, -22462.00561070509, -65217.092957150104, -20169.677754602166, -148187.34952060576, 187500.0, -52579.59545607513, -15274.757477612196, 0.642, -0.56, 0.55, 192.0, 0.0, 0.0, 0.0, 0.0, 0.0, 0.0, 0.0, 0.0, 0.0, 1.6635929275037944E9, 0.0, 2022-09-19 18:08:47.503
189.0, -51549.694126807946, -22440.05619764998, -65207.3923000565, -20134.630219296243, -148242.06659103234, 187500.0, -52476.30804494716, -15260.050029760603, 0.642, -0.56, 0.55, 192.0, 0.0, 0.0, 0.0, 0.0, 0.0, 0.0, 0.0, 0.0, 0.0, 1.6635929275078423E9, 0.0, 2022-09-19 18:08:47.507
190.0, -51439.432971409915, -22398.616063429843, -65281.80125734821, -20142.565088577878, -148193.6303607977, 187500.0, -52449.776524278706, -15240.224032428747, 0.65, -0.5640000000000001, 0.55, 192.0, 20.0, 80.0, 238.0, 96.0, 17.0, 48.0, 0.0, 0.0, 0.0, 1.6635929275117965E9, 0.0, 2022-09-19 18:08:47.511
191.0, -51077.06649030048, -22367.591842125876, -65413.1401077676, -20197.304510748927, -148045.17007412555, 187500.0, -52500.71614989235, -15228.936401478817, 0.65, -0.5640000000000001, 0.55, 192.0, 0.0, 0.0, 0.0, 0.0, 0.0, 0.0, 0.0, 0.0, 0.0, 1.6635929275158603E9, 0.0, 2022-09-19 18:08:47.515
192.0, -51042.26482418356, -22426.041653876502, -65379.65719457355, -20226.451185518647, -148021.2984110473, 187500.0, -52629.75277063284, -15256.719619836764, 0.65, -0.5640000000000001, 0.55, 192.0, 0.0, 0.0, 0.0, 0.0, 0.0, 0.0, 0.0, 0.0, 0.0, 1.6635929275198753E9, 0.0, 2022-09-19 18:08:47.519
193.0, -51406.06181693814, -22474.58964283343, -65237.34363762661, -20173.924586048674, -148152.4137440221, 187500.0, -52574.566313572686, -15274.198684000814, 0.65, -0.5640000000000001, 0.55, 192.0, 0.0, 0.0, 0.0, 0.0, 0.0, 0.0, 0.0, 0.0, 0.0, 1.6635929275237787E9, 0.0, 2022-09-19 18:08:47.523
194.0, -51549.604719830124, -22453.713113512174, -65238.908259738484, -20140.84400425482, -148207.0190557264, 187500.0, -52479.90667580446, -15268.297823464613, 0.65, -0.5640000000000001, 0.55, 192.0, 0.0, 0.0, 0.0, 0.0, 0.0, 0.0, 0.0, 0.0, 0.0, 1.663592927528851E9, 0.0, 2022-09-19 18:08:47.528
195.0, -51437.93540453141, -22405.567455955443, -65313.78660366376, -20150.8575857708, -148157.80051443583, 187500.0, -52447.317832388624, -15253.21039595728, 0.65, -0.5640000000000001, 0.55, 192.0, 0.0, 0.0, 0.0, 0.0, 0.0, 0.0, 0.0, 0.0, 0.0, 1.6635929275318773E9, 0.0, 2022-09-19 18:08:47.531
196.0, -51067.41053669579, -22368.687077604187, -65444.32079128275, -20204.09944106334, -148000.9359718485, 187500.0, -52494.3906062115, -15243.35327665249, 0.65, -0.5640000000000001, 0.55, 192.0, 0.0, 0.0, 0.0, 0.0, 0.0, 0.0, 0.0, 0.0, 0.0, 1.6635929275358927E9, 0.0, 2022-09-19 18:08:47.535
197.0, -51035.11226595787, -22412.407089758766, -65387.92734002201, -20222.651388961243, -147973.80095407975, 187500.0, -52605.3670174321, -15262.955756539794, 0.65, -0.5640000000000001, 0.55, 192.0, 0.0, 0.0, 0.0, 0.0, 0.0, 0.0, 0.0, 0.0, 0.0, 1.6635929275398915E9, 0.0, 2022-09-19 18:08:47.539
198.0, -51398.03754067869, -22455.25538387959, -65251.22407093336, -20169.074257501874, -148104.71512135447, 187500.0, -52549.97939467185, -15281.708870137796, 0.65, -0.5640000000000001, 0.55, 192.0, 0.0, 0.0, 0.0, 0.0, 0.0, 0.0, 0.0, 0.0, 0.0, 1.6635929275438752E9, 0.0, 2022-09-19 18:08:47.543
199.0, -51532.63974578855, -22425.974598643137, -65247.781902287235, -20128.12586165975, -148154.6712702121, 187500.0, -52455.67738481491, -15267.82843683105, 0.65, -0.5640000000000001, 0.55, 192.0, 0.0, 0.0, 0.0, 0.0, 0.0, 0.0, 0.0, 0.0, 0.0, 1.6635929275478652E9, 0.0, 2022-09-19 18:08:47.547
200.0, -51416.231860665306, -22376.15256025226, -65311.327911773675, -20128.058806426383, -148100.13301374114, 187500.0, -52423.44616931036, -15243.487387119221, 0.644, -0.56, 0.554, 192.0, 20.0, 32.0, 238.0, 128.0, 17.0, 80.0, 0.0, 0.0, 0.0, 1.6635929275518885E9, 0.0, 2022-09-19 18:08:47.551
201.0, -51048.43390565323, -22342.021446469003, -65433.815471388756, -20180.875978574273, -147941.94971823093, 187500.0, -52463.2322744408, -15230.612782312965, 0.644, -0.56, 0.554, 192.0, 0.0, 0.0, 0.0, 0.0, 0.0, 0.0, 0.0, 0.0, 0.0, 1.6635929275568979E9, 0.0, 2022-09-19 18:08:47.556
202.0, -51028.496149599094, -22403.06406057645, -65384.2840056758, -20207.56396145391, -147918.34627608614, 187500.0, -52596.426319649974, -15256.809026814584, 0.644, -0.56, 0.554, 192.0, 0.0, 0.0, 0.0, 0.0, 0.0, 0.0, 0.0, 0.0, 0.0, 1.6635929275598936E9, 0.0, 2022-09-19 18:08:47.559
203.0, -51395.109462155044, -22458.518738570063, -65240.07055045016, -20156.22200444007, -148051.04858291728, 187500.0, -52544.19029285792, -15272.611710144487, 0.644, -0.56, 0.554, 192.0, 0.0, 0.0, 0.0, 0.0, 0.0, 0.0, 0.0, 0.0, 0.0, 1.663592927563915E9, 0.0, 2022-09-19 18:08:47.563
204.0, -51530.873957976575, -22436.994008659603, -65241.210489417375, -20130.852774483297, -148103.19520273153, 187500.0, -52448.52482658921, -15264.252157718201, 0.644, -0.56, 0.554, 192.0, 0.0, 0.0, 0.0, 0.0, 0.0, 0.0, 0.0, 0.0, 0.0, 1.663592927567907E9, 0.0, 2022-09-19 18:08:47.567
205.0, -51422.35623864606, -22396.24677851758, -65315.395929264545, -20147.147196191218, -148054.11077190767, 187500.0, -52428.94469844636, -15250.818759300562, 0.644, -0.56, 0.554, 192.0, 0.0, 0.0, 0.0, 0.0, 0.0, 0.0, 0.0, 0.0, 0.0, 1.6635929275718863E9, 0.0, 2022-09-19 18:08:47.571
206.0, -51053.3512894334, -22354.47136813061, -65437.011770845864, -20199.249112516536, -147894.63107521905, 187500.0, -52476.330396691614, -15241.63219232943, 0.644, -0.56, 0.554, 192.0, 0.0, 0.0, 0.0, 0.0, 0.0, 0.0, 0.0, 0.0, 0.0, 1.6635929275759308E9, 0.0, 2022-09-19 18:08:47.575
207.0, -51032.65357406779, -22408.495534479087, -65387.99439525538, -20222.58433372788, -147871.42996447443, 187500.0, -52604.3164854427, -15266.487332163731, 0.644, -0.56, 0.554, 192.0, 0.0, 0.0, 0.0, 0.0, 0.0, 0.0, 0.0, 0.0, 0.0, 1.663592927579928E9, 0.0, 2022-09-19 18:08:47.579
208.0, -51394.19304063237, -22456.86470948037, -65244.2503266633, -20167.80020806792, -148000.9806753374, 187500.0, -52546.58192951464, -15279.11606778098, 0.644, -0.56, 0.554, 192.0, 0.0, 0.0, 0.0, 0.0, 0.0, 0.0, 0.0, 0.0, 0.0, 1.663592927583928E9, 0.0, 2022-09-19 18:08:47.583
209.0, -51523.94491719543, -22431.920162668248, -65247.8042540317, -20137.17831816415, -148046.42177181505, 187500.0, -52457.66669007143, -15268.92367230936, 0.644, -0.56, 0.554, 192.0, 0.0, 0.0, 0.0, 0.0, 0.0, 0.0, 0.0, 0.0, 0.0, 1.6635929275869591E9, 0.0, 2022-09-19 18:08:47.586
210.0, -51400.585639546596, -22389.47419994762, -65315.08300484217, -20147.236603169036, -147989.89421008757, 187500.0, -52432.81155023713, -15249.656468588886, 0.638, -0.562, 0.554, 192.0, 19.0, 240.0, 238.0, 112.0, 17.0, 80.0, 0.0, 0.0, 0.0, 1.663592927591993E9, 0.0, 2022-09-19 18:08:47.591
211.0, -51032.60887057887, -22357.935888521184, -65436.45297723448, -20199.56203693891, -147833.49905413378, 187500.0, -52484.15350725097, -15237.564174838564, 0.638, -0.562, 0.554, 192.0, 0.0, 0.0, 0.0, 0.0, 0.0, 0.0, 0.0, 0.0, 0.0, 1.6635929275959213E9, 0.0, 2022-09-19 18:08:47.595
212.0, -51020.471873339644, -22414.262284548557, -65385.155723709555, -20221.71261569412, -147812.77898702372, 187500.0, -52608.78683433376, -15267.716678108774, 0.638, -0.562, 0.554, 192.0, 0.0, 0.0, 0.0, 0.0, 0.0, 0.0, 0.0, 0.0, 0.0, 1.6635929275999568E9, 0.0, 2022-09-19 18:08:47.599
213.0, -51387.30870334014, -22468.465264852675, -65245.613783075074, -20172.918757548185, -147944.14018918757, 187500.0, -52554.002708673805, -15288.459096963299, 0.638, -0.562, 0.554, 192.0, 0.0, 0.0, 0.0, 0.0, 0.0, 0.0, 0.0, 0.0, 0.0, 1.6635929276040452E9, 0.0, 2022-09-19 18:08:47.604
214.0, -51519.698085748925, -22458.16111065878, -65248.407751131985, -20144.64380081222, -147991.81646011074, 187500.0, -52463.20992269635, -15277.774963113663, 0.638, -0.562, 0.554, 192.0, 0.0, 0.0, 0.0, 0.0, 0.0, 0.0, 0.0, 0.0, 0.0, 1.663592927608021E9, 0.0, 2022-09-19 18:08:47.608
215.0, -51396.94230520038, -22415.20105781568, -65327.197650336944, -20157.339591662836, -147936.33943037267, 187500.0, -52446.15554167695, -15262.754590839695, 0.638, -0.562, 0.554, 192.0, 0.0, 0.0, 0.0, 0.0, 0.0, 0.0, 0.0, 0.0, 0.0, 1.663592927612014E9, 0.0, 2022-09-19 18:08:47.612
216.0, -51026.61860306485, -22362.629754856796, -65452.836805920226, -20212.682510934177, -147782.02298665323, 187500.0, -52500.0903010476, -15255.870253547462, 0.638, -0.562, 0.554, 192.0, 0.0, 0.0, 0.0, 0.0, 0.0, 0.0, 0.0, 0.0, 0.0, 1.663592927615024E9, 0.0, 2022-09-19 18:08:47.615
217.0, -51012.089969168905, -22399.063098318948, -65392.50944763535, -20228.842822175364, -147759.11244858653, 187500.0, -52615.671171625996, -15273.774000856163, 0.638, -0.562, 0.554, 192.0, 0.0, 0.0, 0.0, 0.0, 0.0, 0.0, 0.0, 0.0, 0.0, 1.6635929276200776E9, 0.0, 2022-09-19 18:08:47.620
218.0, -51374.38939504497, -22443.74423548511, -65247.29016390922, -20169.74480983553, -147889.53487748324, 187500.0, -52559.88121746555, -15288.235579518747, 0.638, -0.562, 0.554, 192.0, 0.0, 0.0, 0.0, 0.0, 0.0, 0.0, 0.0, 0.0, 0.0, 1.6635929276240082E9, 0.0, 2022-09-19 18:08:47.624
219.0, -51499.87208841707, -22419.11261309536, -65240.76345452827, -20133.378521606748, -147935.33360187217, 187500.0, -52460.97474825082, -15274.221035745268, 0.638, -0.562, 0.554, 192.0, 0.0, 0.0, 0.0, 0.0, 0.0, 0.0, 0.0, 0.0, 0.0, 1.6635929276280472E9, 0.0, 2022-09-19 18:08:47.628
220.0, -51373.29415956666, -22373.00096428406, -65313.83130715267, -20141.022818210462, -147877.84491513312, 187500.0, -52431.85042522555, -15254.484445391232, 0.642, -0.5680000000000001, 0.55, 192.0, 20.0, 16.0, 238.0, 64.0, 17.0, 48.0, 0.0, 0.0, 0.0, 1.663592927633038E9, 0.0, 2022-09-19 18:08:47.633
221.0, -51005.295038854485, -22343.116681947315, -65447.60649771768, -20205.731118408577, -147726.1659772594, 187500.0, -52492.15543176597, -15250.148206966902, 0.642, -0.5680000000000001, 0.55, 192.0, 0.0, 0.0, 0.0, 0.0, 0.0, 0.0, 0.0, 0.0, 0.0, 1.6635929276370115E9, 0.0, 2022-09-19 18:08:47.637
222.0, -50999.774157974025, -22395.01743257254, -65392.017709257336, -20228.686359964177, -147707.92695378387, 187500.0, -52617.5710699047, -15275.651547390407, 0.642, -0.5680000000000001, 0.55, 192.0, 0.0, 0.0, 0.0, 0.0, 0.0, 0.0, 0.0, 0.0, 0.0, 1.6635929276399865E9, 0.0, 2022-09-19 18:08:47.639
223.0, -51364.129944339984, -22442.11255813987, -65253.70511456789, -20172.203501725617, -147838.48349314733, 187500.0, -52556.88608370854, -15292.035376076148, 0.642, -0.5680000000000001, 0.55, 192.0, 0.0, 0.0, 0.0, 0.0, 0.0, 0.0, 0.0, 0.0, 0.0, 1.6635929276430323E9, 0.0, 2022-09-19 18:08:47.643
224.0, -51490.97609412386, -22419.380834028823, -65256.163806457975, -20146.61075432429, -147886.22681930385, 187500.0, -52462.04763198467, -15287.945006840828, 0.642, -0.5680000000000001, 0.55, 192.0, 0.0, 0.0, 0.0, 0.0, 0.0, 0.0, 0.0, 0.0, 0.0, 1.6635929276480408E9, 0.0, 2022-09-19 18:08:47.648
225.0, -51364.420517017905, -22370.430513671698, -65321.56501073421, -20150.83523402634, -147827.3970278975, 187500.0, -52430.62107928051, -15265.459151918789, 0.642, -0.5680000000000001, 0.55, 192.0, 0.0, 0.0, 0.0, 0.0, 0.0, 0.0, 0.0, 0.0, 0.0, 1.6635929276520383E9, 0.0, 2022-09-19 18:08:47.652
226.0, -50998.34364632889, -22346.245926171057, -65452.43447452003, -20205.95463585313, -147673.6617295339, 187500.0, -52495.977580067825, -15260.564119883076, 0.642, -0.5680000000000001, 0.55, 192.0, 0.0, 0.0, 0.0, 0.0, 0.0, 0.0, 0.0, 0.0, 0.0, 1.6635929276560125E9, 0.0, 2022-09-19 18:08:47.656
227.0, -51003.6410097648, -22409.81428740195, -65395.504581392364, -20226.115909351818, -147660.02716541616, 187500.0, -52623.427226951986, -15289.68844290834, 0.642, -0.5680000000000001, 0.55, 192.0, 0.0, 0.0, 0.0, 0.0, 0.0, 0.0, 0.0, 0.0, 0.0, 1.6635929276599941E9, 0.0, 2022-09-19 18:08:47.659
228.0, -51372.13186885499, -22465.31366888448, -65263.53988212823, -20177.99260353954, -147796.0822339156, 187500.0, -52569.5595228147, -15311.391986774444, 0.642, -0.5680000000000001, 0.55, 192.0, 0.0, 0.0, 0.0, 0.0, 0.0, 0.0, 0.0, 0.0, 0.0, 1.6635929276640644E9, 0.0, 2022-09-19 18:08:47.664
229.0, -51489.43382375644, -22434.177688858235, -65264.23278620635, -20137.804167008897, -147835.33189717913, 187500.0, -52470.42953615541, -15287.185047529347, 0.642, -0.5680000000000001, 0.55, 192.0, 0.0, 0.0, 0.0, 0.0, 0.0, 0.0, 0.0, 0.0, 0.0, 1.6635929276671128E9, 0.0, 2022-09-19 18:08:47.667
230.0, -51357.26795879221, -22396.649109917773, -65351.739865748874, -20152.26574567148, -147774.91513191644, 187500.0, -52456.43734412639, -15268.744858353719, 0.642, -0.5640000000000001, 0.544, 192.0, 20.0, 16.0, 238.0, 96.0, 17.0, 0.0, 0.0, 0.0, 0.0, 1.6635929276710646E9, 0.0, 2022-09-19 18:08:47.671
231.0, -50989.82763169141, -22369.89407180477, -65482.22934987895, -20211.386109755767, -147621.35864750846, 187500.0, -52524.67721994844, -15261.055858261092, 0.642, -0.5640000000000001, 0.544, 192.0, 0.0, 0.0, 0.0, 0.0, 0.0, 0.0, 0.0, 0.0, 0.0, 1.6635929276750572E9, 0.0, 2022-09-19 18:08:47.675
232.0, -50998.94714342918, -22425.304046309477, -65410.815526344246, -20223.076072105894, -147609.26635375814, 187500.0, -52640.86158762713, -15279.45134394781, 0.642, -0.5640000000000001, 0.544, 192.0, 0.0, 0.0, 0.0, 0.0, 0.0, 0.0, 0.0, 0.0, 0.0, 1.6635929276801243E9, 0.0, 2022-09-19 18:08:47.680
233.0, -51365.58280772958, -22474.254366666602, -65266.08798099613, -20170.281251702458, -147741.78984663368, 187500.0, -52568.888970481035, -15292.840038876539, 0.642, -0.5640000000000001, 0.544, 192.0, 0.0, 0.0, 0.0, 0.0, 0.0, 0.0, 0.0, 0.0, 0.0, 1.6635929276841502E9, 0.0, 2022-09-19 18:08:47.684
234.0, -51486.72926267735, -22444.59360177441, -65269.19487347542, -20145.716684546078, -147785.8227832106, 187500.0, -52475.16810597994, -15283.809934116594, 0.642, -0.5640000000000001, 0.544, 192.0, 0.0, 0.0, 0.0, 0.0, 0.0, 0.0, 0.0, 0.0, 0.0, 1.663592927688207E9, 0.0, 2022-09-19 18:08:47.688
235.0, -51351.25533953373, -22397.498476207074, -65347.962420935924, -20159.239489941538, -147724.28843072517, 187500.0, -52458.06902147162, -15264.430971673844, 0.642, -0.5640000000000001, 0.544, 192.0, 0.0, 0.0, 0.0, 0.0, 0.0, 0.0, 0.0, 0.0, 0.0, 1.6635929276922188E9, 0.0, 2022-09-19 18:08:47.692
236.0, -50977.89180015228, -22361.311001933933, -65472.03695440733, -20217.219915058606, -147562.99824273566, 187500.0, -52518.66460068996, -15251.466959889765, 0.642, -0.5640000000000001, 0.544, 192.0, 0.0, 0.0, 0.0, 0.0, 0.0, 0.0, 0.0, 0.0, 0.0, 1.663592927695135E9, 0.0, 2022-09-19 18:08:47.695
237.0, -50997.538983528495, -22416.855086905372, -65416.694035135995, -20243.3267525824, -147556.829161266, 187500.0, -52647.32124177471, -15280.97126257077, 0.642, -0.5640000000000001, 0.544, 192.0, 0.0, 0.0, 0.0, 0.0, 0.0, 0.0, 0.0, 0.0, 0.0, 1.6635929276991324E9, 0.0, 2022-09-19 18:08:47.699
238.0, -51363.235874561775, -22463.21260490568, -65280.32604221416, -20194.063507802904, -147690.73846229774, 187500.0, -52581.338892142645, -15300.126707568968, 0.642, -0.5640000000000001, 0.544, 192.0, 0.0, 0.0, 0.0, 0.0, 0.0, 0.0, 0.0, 0.0, 0.0, 1.6635929277031996E9, 0.0, 2022-09-19 18:08:47.703
239.0, -51478.25795152879, -22439.899735438794, -65279.811952091695, -20159.172434708173, -147728.8258348496, 187500.0, -52483.4382514284, -15286.715660895785, 0.642, -0.5640000000000001, 0.544, 192.0, 0.0, 0.0, 0.0, 0.0, 0.0, 0.0, 0.0, 0.0, 0.0, 1.6635929277081542E9, 0.0, 2022-09-19 18:08:47.708
240.0, -51340.63826091746, -22397.09614480688, -65355.91964196201, -20168.359001679302, -147664.31870035158, 187500.0, -52456.01266098174, -15264.54273039612, 0.646, -0.5700000000000001, 0.544, 192.0, 20.0, 48.0, 238.0, 48.0, 17.0, 0.0, 0.0, 0.0, 0.0, 1.6635929277121468E9, 0.0, 2022-09-19 18:08:47.712
241.0, -50963.56433195643, -22346.692961060162, -65470.8523119512, -20214.291836534958, -147499.31812278248, 187500.0, -52513.814272143165, -15242.749779552196, 0.646, -0.5700000000000001, 0.544, 192.0, 0.0, 0.0, 0.0, 0.0, 0.0, 0.0, 0.0, 0.0, 0.0, 1.6635929277161274E9, 0.0, 2022-09-19 18:08:47.716
242.0, -50985.04435837798, -22402.86289487635, -65408.781517598814, -20233.313171066424, -147491.1150325674, 187500.0, -52639.65459342654, -15268.990727542727, 0.646, -0.5700000000000001, 0.544, 192.0, 0.0, 0.0, 0.0, 0.0, 0.0, 0.0, 0.0, 0.0, 0.0, 1.663592927720154E9, 0.0, 2022-09-19 18:08:47.720
243.0, -51357.49147623676, -22460.061008937482, -65277.420315434974, -20183.7146501201, -147627.1477493224, 187500.0, -52577.427336862966, -15291.901265609416, 0.646, -0.5700000000000001, 0.544, 192.0, 0.0, 0.0, 0.0, 0.0, 0.0, 0.0, 0.0, 0.0, 0.0, 1.6635929277241352E9, 0.0, 2022-09-19 18:08:47.724
244.0, -51470.77011713626, -22435.831717947927, -65280.2589869808, -20154.053885227906, -147667.22442713077, 187500.0, -52486.902771818975, -15283.631120160953, 0.646, -0.5700000000000001, 0.544, 192.0, 0.0, 0.0, 0.0, 0.0, 0.0, 0.0, 0.0, 0.0, 0.0, 1.6635929277271707E9, 0.0, 2022-09-19 18:08:47.727
245.0, -51335.36324922601, -22389.22833075861, -65350.197595381454, -20161.94405102063, -147607.72408339073, 187500.0, -52469.08843148809, -15265.056820518592, 0.646, -0.5700000000000001, 0.544, 192.0, 0.0, 0.0, 0.0, 0.0, 0.0, 0.0, 0.0, 0.0, 0.0, 1.6635929277311363E9, 0.0, 2022-09-19 18:08:47.731
246.0, -50969.308730281446, -22351.386827395778, -65468.5053787834, -20213.397766756745, -147454.39111642732, 187500.0, -52525.32542053764, -15258.016021015172, 0.646, -0.5700000000000001, 0.544, 192.0, 0.0, 0.0, 0.0, 0.0, 0.0, 0.0, 0.0, 0.0, 0.0, 1.6635929277361364E9, 0.0, 2022-09-19 18:08:47.736
247.0, -51000.66822775224, -22403.42168848773, -65401.38309018411, -20230.362740798326, -147451.61950011487, 187500.0, -52645.48839872937, -15291.588341187042, 0.646, -0.5700000000000001, 0.544, 192.0, 0.0, 0.0, 0.0, 0.0, 0.0, 0.0, 0.0, 0.0, 0.0, 1.6635929277403517E9, 0.0, 2022-09-19 18:08:47.740
248.0, -51370.47783976529, -22447.946363442705, -65260.4553413934, -20173.32108894838, -147586.7357953472, 187500.0, -52571.81704900468, -15308.352149528522, 0.646, -0.5700000000000001, 0.544, 192.0, 0.0, 0.0, 0.0, 0.0, 0.0, 0.0, 0.0, 0.0, 0.0, 1.663592927744182E9, 0.0, 2022-09-19 18:08:47.744
249.0, -51482.88476263103, -22420.00668287357, -65263.49517863932, -20138.385312364735, -147626.11956907745, 187500.0, -52481.18072523842, -15289.93431209735, 0.646, -0.5700000000000001, 0.544, 192.0, 0.0, 0.0, 0.0, 0.0, 0.0, 0.0, 0.0, 0.0, 0.0, 1.6635929277481804E9, 0.0, 2022-09-19 18:08:47.748
250.0, -51341.26410976221, -22378.32067946442, -65347.045999413254, -20150.79053053743, -147561.12069620143, 187500.0, -52463.34403316308, -15268.722506609263, 0.634, -0.56, 0.548, 192.0, 19.0, 208.0, 238.0, 128.0, 17.0, 32.0, 0.0, 0.0, 0.0, 1.663592927751171E9, 0.0, 2022-09-19 18:08:47.751
251.0, -50969.62165470382, -22345.173042437204, -65466.58312876024, -20206.75929865352, -147401.81981346844, 187500.0, -52523.872557148046, -15262.173445483859, 0.634, -0.56, 0.548, 192.0, 0.0, 0.0, 0.0, 0.0, 0.0, 0.0, 0.0, 0.0, 0.0, 1.6635929277551732E9, 0.0, 2022-09-19 18:08:47.755
252.0, -51003.8868789538, -22406.48387747811, -65388.2849679333, -20211.833144644876, -147399.9422669342, 187500.0, -52627.85287235414, -15286.40273647341, 0.634, -0.56, 0.548, 192.0, 0.0, 0.0, 0.0, 0.0, 0.0, 0.0, 0.0, 0.0, 0.0, 1.663592927759199E9, 0.0, 2022-09-19 18:08:47.759
253.0, -51367.39329903046, -22451.813215233473, -65261.03648674923, -20151.818710782376, -147529.20240511923, 187500.0, -52562.11639191108, -15297.690367423342, 0.634, -0.56, 0.548, 192.0, 0.0, 0.0, 0.0, 0.0, 0.0, 0.0, 0.0, 0.0, 0.0, 1.6635929277632232E9, 0.0, 2022-09-19 18:08:47.763
254.0, -51477.38623349503, -22424.924066653737, -65269.61955662007, -20120.369806333758, -147566.44041138177, 187500.0, -52473.268207701236, -15283.228788760756, 0.634, -0.56, 0.548, 192.0, 0.0, 0.0, 0.0, 0.0, 0.0, 0.0, 0.0, 0.0, 0.0, 1.6635929277682276E9, 0.0, 2022-09-19 18:08:47.768
255.0, -51337.77723762718, -22382.947490566672, -65344.74376973436, -20136.50776583049, -147503.60965771793, 187500.0, -52449.79887602316, -15264.565082140576, 0.634, -0.56, 0.548, 192.0, 0.0, 0.0, 0.0, 0.0, 0.0, 0.0, 0.0, 0.0, 0.0, 1.6635929277722352E9, 0.0, 2022-09-19 18:08:47.772
0.0, -50969.82282040392, -22350.269240173013, -65467.56660551627, -20196.499847948533, -147346.6333564083, 187500.0, -52513.389588998514, -15256.227881458746, 0.634, -0.56, 0.548, 192.0, 0.0, 0.0, 0.0, 0.0, 0.0, 0.0, 0.0, 0.0, 0.0, 1.6635929277763124E9, 0.0, 2022-09-19 18:08:47.776
1.0, -51002.3893120753, -22404.80749664396, -65392.86707554664, -20208.100403320837, -147338.72083887112, 187500.0, -52627.18232002048, -15277.618500902476, 0.634, -0.56, 0.548, 192.0, 0.0, 0.0, 0.0, 0.0, 0.0, 0.0, 0.0, 0.0, 0.0, 1.6635929277792764E9, 0.0, 2022-09-19 18:08:47.779
2.0, -51368.488534508775, -22456.596488546907, -65271.47475140986, -20165.85560630031, -147472.49602943612, 187500.0, -52569.44776409242, -15299.411451746399, 0.634, -0.56, 0.548, 192.0, 0.0, 0.0, 0.0, 0.0, 0.0, 0.0, 0.0, 0.0, 0.0, 1.6635929277832246E9, 0.0, 2022-09-19 18:08:47.783
3.0, -51475.95572184989, -22431.875459179337, -65276.59330089013, -20144.666152556678, -147512.39389328886, 187500.0, -52480.01843452674, -15287.319157996079, 0.634, -0.56, 0.548, 192.0, 0.0, 0.0, 0.0, 0.0, 0.0, 0.0, 0.0, 0.0, 0.0, 1.663592927787239E9, 0.0, 2022-09-19 18:08:47.787
4.0, -51327.584842155564, -22390.882359848307, -65356.67960127349, -20162.838120798842, -147445.048087245, 187500.0, -52467.68027158741, -15264.766247840673, 0.64, -0.5640000000000001, 0.55, 192.0, 20.0, 0.0, 238.0, 96.0, 17.0, 48.0, 0.0, 0.0, 0.0, 1.6635929277933724E9, 0.0, 2022-09-19 18:08:47.793
5.0, -50958.870465620814, -22366.876586303304, -65476.954338187505, -20220.75149068254, -147286.68597777915, 187500.0, -52543.944423668916, -15254.97618376925, 0.64, -0.5640000000000001, 0.55, 192.0, 0.0, 0.0, 0.0, 0.0, 0.0, 0.0, 0.0, 0.0, 0.0, 1.663592927796252E9, 0.0, 2022-09-19 18:08:47.796
6.0, -51002.74693998658, -22433.976523158137, -65404.33352045221, -20236.777691457, -147287.08830917935, 187500.0, -52658.34065179118, -15283.11703003848, 0.64, -0.5640000000000001, 0.55, 192.0, 0.0, 0.0, 0.0, 0.0, 0.0, 0.0, 0.0, 0.0, 0.0, 1.6635929278002539E9, 0.0, 2022-09-19 18:08:47.800
7.0, -51366.4768775078, -22483.68680282674, -65274.067553766676, -20181.300661718924, -147418.22599389864, 187500.0, -52585.69748231143, -15301.199591302824, 0.64, -0.5640000000000001, 0.55, 192.0, 0.0, 0.0, 0.0, 0.0, 0.0, 0.0, 0.0, 0.0, 0.0, 1.663592927804368E9, 0.0, 2022-09-19 18:08:47.804
8.0, -51472.8488293706, -22450.270944866057, -65285.08696378314, -20148.577707836357, -147452.3571076819, 187500.0, -52500.738501636806, -15289.666091163886, 0.64, -0.5640000000000001, 0.55, 192.0, 0.0, 0.0, 0.0, 0.0, 0.0, 0.0, 0.0, 0.0, 0.0, 1.6635929278073173E9, 0.0, 2022-09-19 18:08:47.807
9.0, -51326.55666191062, -22397.09614480688, -65365.84381650017, -20160.80411205341, -147384.47485977112, 187500.0, -52482.49947816128, -15271.382364199444, 0.64, -0.5640000000000001, 0.55, 192.0, 0.0, 0.0, 0.0, 0.0, 0.0, 0.0, 0.0, 0.0, 0.0, 1.6635929278113155E9, 0.0, 2022-09-19 18:08:47.811
10.0, -50953.19312252917, -22356.594783853863, -65480.53061730035, -20217.979874370085, -147222.22354677005, 187500.0, -52541.30691782319, -15261.569948383565, 0.64, -0.5640000000000001, 0.55, 192.0, 0.0, 0.0, 0.0, 0.0, 0.0, 0.0, 0.0, 0.0, 0.0, 1.6635929278153012E9, 0.0, 2022-09-19 18:08:47.815
11.0, -51003.819823720434, -22410.57424671343, -65405.987549541904, -20232.754377455043, -147225.71041890507, 187500.0, -52655.166704078525, -15290.426050475366, 0.64, -0.5640000000000001, 0.55, 192.0, 0.0, 0.0, 0.0, 0.0, 0.0, 0.0, 0.0, 0.0, 0.0, 1.6635929278193665E9, 0.0, 2022-09-19 18:08:47.819
12.0, -51366.63333971898, -22452.39436058931, -65275.98980378984, -20177.299699461426, -147357.11632455784, 187500.0, -52579.14842118602, -15306.564009972099, 0.64, -0.5640000000000001, 0.55, 192.0, 0.0, 0.0, 0.0, 0.0, 0.0, 0.0, 0.0, 0.0, 0.0, 1.6635929278233316E9, 0.0, 2022-09-19 18:08:47.823
13.0, -51469.33960549112, -22421.68306370772, -65284.550521916215, -20145.671981057167, -147393.41555755323, 187500.0, -52489.07089103114, -15297.735070912251, 0.64, -0.5640000000000001, 0.55, 192.0, 0.0, 0.0, 0.0, 0.0, 0.0, 0.0, 0.0, 0.0, 0.0, 1.663592927828396E9, 0.0, 2022-09-19 18:08:47.828
14.0, -51319.58291764056, -22376.353725952355, -65367.94488047897, -20161.18409170915, -147329.1319404998, 187500.0, -52475.838658313594, -15282.714698638285, 0.648, -0.5700000000000001, 0.556, 192.0, 20.0, 64.0, 238.0, 48.0, 17.0, 96.0, 0.0, 0.0, 0.0, 1.6635929278324156E9, 0.0, 2022-09-19 18:08:47.832
15.0, -50953.41663997372, -22336.83584175537, -65481.067059167275, -20213.75539466803, -147175.4413456251, 187500.0, -52536.54599625421, -15270.39888744341, 0.648, -0.5700000000000001, 0.556, 192.0, 0.0, 0.0, 0.0, 0.0, 0.0, 0.0, 0.0, 0.0, 0.0, 1.6635929278354201E9, 0.0, 2022-09-19 18:08:47.835
16.0, -51005.38444583231, -22384.556816167453, -65394.43169765851, -20216.348197024847, -147179.1964386936, 187500.0, -52641.956823105436, -15288.59320743003, 0.648, -0.5700000000000001, 0.556, 192.0, 0.0, 0.0, 0.0, 0.0, 0.0, 0.0, 0.0, 0.0, 0.0, 1.6635929278393364E9, 0.0, 2022-09-19 18:08:47.839
17.0, -51367.46035426383, -22426.332226554423, -65269.99953627581, -20165.587385366845, -147312.34578041386, 187500.0, -52566.07265067967, -15304.395890759934, 0.648, -0.5700000000000001, 0.556, 192.0, 0.0, 0.0, 0.0, 0.0, 0.0, 0.0, 0.0, 0.0, 0.0, 1.6635929278434367E9, 0.0, 2022-09-19 18:08:47.843
18.0, -51468.154963034984, -22398.4372494742, -65277.86735032408, -20133.155004162196, -147348.71206864264, 187500.0, -52479.2361234708, -15286.760364384696, 0.648, -0.5700000000000001, 0.556, 192.0, 0.0, 0.0, 0.0, 0.0, 0.0, 0.0, 0.0, 0.0, 0.0, 1.6635929278473363E9, 0.0, 2022-09-19 18:08:47.847
19.0, -51313.92792629337, -22354.04668498596, -65354.15385415004, -20142.520385088967, -147279.15343989772, 187500.0, -52455.83384702609, -15264.54273039612, 0.648, -0.5700000000000001, 0.556, 192.0, 0.0, 0.0, 0.0, 0.0, 0.0, 0.0, 0.0, 0.0, 0.0, 1.6635929278513904E9, 0.0, 2022-09-19 18:08:47.851
20.0, -50946.26408174802, -22328.141013162258, -65476.93198644304, -20203.7194614076, -147122.24419382148, 187500.0, -52529.21462407287, -15259.670050104864, 0.648, -0.5700000000000001, 0.556, 192.0, 0.0, 0.0, 0.0, 0.0, 0.0, 0.0, 0.0, 0.0, 0.0, 1.6635929278563476E9, 0.0, 2022-09-19 18:08:47.856
21.0, -51007.396102833285, -22397.76669714054, -65402.61243612915, -20215.63294120228, -147129.59791774725, 187500.0, -52641.06275332723, -15287.162695784891, 0.648, -0.5700000000000001, 0.556, 192.0, 0.0, 0.0, 0.0, 0.0, 0.0, 0.0, 0.0, 0.0, 0.0, 1.663592927860401E9, 0.0, 2022-09-19 18:08:47.860
22.0, -51369.69552870936, -22447.164052386768, -65278.51555091328, -20163.933356277154, -147261.38380305574, 187500.0, -52563.16692390048, -15305.245257049235, 0.648, -0.5700000000000001, 0.556, 192.0, 0.0, 0.0, 0.0, 0.0, 0.0, 0.0, 0.0, 0.0, 0.0, 1.6635929278634508E9, 0.0, 2022-09-19 18:08:47.863
23.0, -51461.0471082982, -22418.218543317147, -65282.5612166597, -20130.584553549834, -147288.38471035776, 187500.0, -52474.22933271281, -15287.676785907363, 0.648, -0.5700000000000001, 0.556, 192.0, 0.0, 0.0, 0.0, 0.0, 0.0, 0.0, 0.0, 0.0, 0.0, 1.6635929278674047E9, 0.0, 2022-09-19 18:08:47.867
24.0, -51299.064016230586, -22373.962089295637, -65354.198557638956, -20140.732245532545, -147213.5510699214, 187500.0, -52448.94950973386, -15262.26285246168, 0.648, -0.5700000000000001, 0.556, 192.0, 0.0, 0.0, 0.0, 0.0, 0.0, 0.0, 0.0, 0.0, 0.0, 1.6635929278724055E9, 0.0, 2022-09-19 18:08:47.872
25.0, -50934.28354671998, -22348.3246384054, -65472.551044529806, -20200.38905148376, -147058.69818433502, 187500.0, -52527.53824323872, -15256.764323325673, 0.644, -0.556, 0.544, 192.0, 20.0, 32.0, 238.0, 160.0, 17.0, 0.0, 0.0, 0.0, 0.0, 1.6635929278764205E9, 0.0, 2022-09-19 18:08:47.876
26.0, -51003.14927138678, -22412.00475835857, -65396.30924419275, -20211.877848133787, -147066.67775710556, 187500.0, -52642.582671950186, -15285.5086666952, 0.644, -0.556, 0.544, 192.0, 0.0, 0.0, 0.0, 0.0, 0.0, 0.0, 0.0, 0.0, 0.0, 1.6635929278814983E9, 0.0, 2022-09-19 18:08:47.881
27.0, -51358.85493264854, -22450.67327626625, -65263.29401293922, -20153.875071272265, -147192.0933952443, 187500.0, -52552.57219702866, -15297.466849978788, 0.644, -0.556, 0.544, 192.0, 0.0, 0.0, 0.0, 0.0, 0.0, 0.0, 0.0, 0.0, 0.0, 1.6635929278844423E9, 0.0, 2022-09-19 18:08:47.884
28.0, -51455.83915184011, -22422.15245034128, -65273.41935317747, -20130.51749831647, -147224.99516308252, 187500.0, -52468.66374834344, -15285.5086666952, 0.644, -0.556, 0.544, 192.0, 0.0, 0.0, 0.0, 0.0, 0.0, 0.0, 0.0, 0.0, 0.0, 1.6635929278874145E9, 0.0, 2022-09-19 18:08:47.887
29.0, -51292.067920216075, -22373.71622010663, -65352.11984540461, -20145.6049258238, -147149.71448775704, 187500.0, -52450.04474521217, -15267.448457175311, 0.644, -0.556, 0.544, 192.0, 0.0, 0.0, 0.0, 0.0, 0.0, 0.0, 0.0, 0.0, 0.0, 1.6635929278914032E9, 0.0, 2022-09-19 18:08:47.891
30.0, -50927.153340238736, -22353.46553963012, -65475.23325386444, -20206.75929865352, -146991.68765445802, 187500.0, -52526.733580438326, -15262.77694258415, 0.644, -0.556, 0.544, 192.0, 0.0, 0.0, 0.0, 0.0, 0.0, 0.0, 0.0, 0.0, 0.0, 1.6635929278954332E9, 0.0, 2022-09-19 18:08:47.895
31.0, -51004.4903760541, -22423.78412768652, -65393.09059299119, -20214.783574912977, -147002.61765749665, 187500.0, -52641.30862251623, -15287.654434162909, 0.644, -0.556, 0.544, 192.0, 0.0, 0.0, 0.0, 0.0, 0.0, 0.0, 0.0, 0.0, 0.0, 1.663592927899477E9, 0.0, 2022-09-19 18:08:47.899
32.0, -51368.53323799768, -22474.142607944323, -65274.6039956336, -20165.05094349992, -147134.5376532719, 187500.0, -52565.02211869027, -15307.279265794668, 0.644, -0.556, 0.544, 192.0, 0.0, 0.0, 0.0, 0.0, 0.0, 0.0, 0.0, 0.0, 0.0, 1.6635929279035163E9, 0.0, 2022-09-19 18:08:47.903
33.0, -51458.43195419693, -22446.40409307529, -65289.669071396485, -20139.07821644285, -147163.37140361924, 187500.0, -52484.220562484334, -15296.841001134038, 0.644, -0.556, 0.544, 192.0, 0.0, 0.0, 0.0, 0.0, 0.0, 0.0, 0.0, 0.0, 0.0, 1.6635929279074843E9, 0.0, 2022-09-19 18:08:47.907
34.0, -51288.62575156996, -22390.636490659297, -65366.93905197848, -20149.36001889229, -147083.19569625804, 187500.0, -52459.700698816865, -15272.254082233201, 0.644, -0.556, 0.544, 192.0, 0.0, 0.0, 0.0, 0.0, 0.0, 0.0, 0.0, 0.0, 0.0, 1.663592927913071E9, 0.0, 2022-09-19 18:08:47.913
35.0, -50920.425465157685, -22362.674458345708, -65484.39746909112, -20208.033348087472, -146924.76653155882, 187500.0, -52533.57321424165, -15264.676840862852, 0.65, -0.5720000000000001, 0.544, 192.0, 20.0, 80.0, 238.0, 32.0, 17.0, 0.0, 0.0, 0.0, 0.0, 1.663592927916489E9, 0.0, 2022-09-19 18:08:47.916
36.0, -51000.80233821897, -22425.99695038759, -65412.15663101157, -20222.24905756105, -146940.90449105555, 187500.0, -52659.011204124836, -15297.511553467699, 0.65, -0.5720000000000001, 0.544, 192.0, 0.0, 0.0, 0.0, 0.0, 0.0, 0.0, 0.0, 0.0, 0.0, 1.6635929279195938E9, 0.0, 2022-09-19 18:08:47.919
37.0, -51356.77622041419, -22450.11448265487, -65288.23855975134, -20167.219062712084, -147071.0139955299, 187500.0, -52579.12606944157, -15309.73795768475, 0.65, -0.5720000000000001, 0.544, 192.0, 0.0, 0.0, 0.0, 0.0, 0.0, 0.0, 0.0, 0.0, 0.0, 1.663592927923518E9, 0.0, 2022-09-19 18:08:47.923
38.0, -51445.98203253532, -22417.793860172496, -65300.66612966849, -20142.140405433227, -147101.68058892258, 187500.0, -52494.70353063387, -15296.729242411762, 0.65, -0.5720000000000001, 0.544, 192.0, 0.0, 0.0, 0.0, 0.0, 0.0, 0.0, 0.0, 0.0, 0.0, 1.6635929279274893E9, 0.0, 2022-09-19 18:08:47.927
39.0, -51275.997015952715, -22366.630717114298, -65374.96332823794, -20152.355152649303, -147024.0976839182, 187500.0, -52466.696794831376, -15272.20937874429, 0.65, -0.5720000000000001, 0.544, 192.0, 0.0, 0.0, 0.0, 0.0, 0.0, 0.0, 0.0, 0.0, 0.0, 1.6635929279314733E9, 0.0, 2022-09-19 18:08:47.931
40.0, -50907.68497081816, -22340.61328656832, -65488.130210415155, -20210.603798699834, -146866.0708506192, 187500.0, -52544.68203123594, -15263.760419340184, 0.65, -0.5720000000000001, 0.544, 192.0, 0.0, 0.0, 0.0, 0.0, 0.0, 0.0, 0.0, 0.0, 0.0, 1.66359292793562E9, 0.0, 2022-09-19 18:08:47.935
41.0, -50994.186221860204, -22409.903694379773, -65402.88065706261, -20232.597915243856, -146886.45564156244, 187500.0, -52661.246378570366, -15296.282207522656, 0.65, -0.5720000000000001, 0.544, 192.0, 0.0, 0.0, 0.0, 0.0, 0.0, 0.0, 0.0, 0.0, 0.0, 1.6635929279405107E9, 0.0, 2022-09-19 18:08:47.940
42.0, -51347.81317088761, -22439.25153484959, -65279.58843464714, -20180.85362682982, -147013.39119832413, 187500.0, -52579.81897351969, -15311.682559452363, 0.65, -0.5720000000000001, 0.544, 192.0, 0.0, 0.0, 0.0, 0.0, 0.0, 0.0, 0.0, 0.0, 0.0, 1.663592927944571E9, 0.0, 2022-09-19 18:08:47.944
43.0, -51435.07438124113, -22406.595636200385, -65286.47277193938, -20153.495091616525, -147040.9508992375, 187500.0, -52497.92218183544, -15296.326911011567, 0.65, -0.5720000000000001, 0.544, 192.0, 0.0, 0.0, 0.0, 0.0, 0.0, 0.0, 0.0, 0.0, 0.0, 1.6635929279475386E9, 0.0, 2022-09-19 18:08:47.947
44.0, -51265.491696058714, -22363.233251957092, -65362.11107517613, -20168.38135342376, -146964.30676750027, 187500.0, -52477.872667059026, -15279.74191662573, 0.65, -0.5720000000000001, 0.544, 192.0, 0.0, 0.0, 0.0, 0.0, 0.0, 0.0, 0.0, 0.0, 0.0, 1.6635929279516795E9, 0.0, 2022-09-19 18:08:47.951
45.0, -50897.20200266862, -22337.28287664448, -65466.56077701578, -20219.879772648786, -146804.73766383383, 187500.0, -52549.77822897175, -15272.11997176647, 0.648, -0.5700000000000001, 0.554, 192.0, 20.0, 64.0, 238.0, 48.0, 17.0, 80.0, 0.0, 0.0, 0.0, 1.6635929279556108E9, 0.0, 2022-09-19 18:08:47.955
46.0, -50989.20178284666, -22410.417784502242, -65370.87295900261, -20221.645560460754, -146823.17785300946, 187500.0, -52657.245416312864, -15296.2598557782, 0.648, -0.5700000000000001, 0.554, 192.0, 0.0, 0.0, 0.0, 0.0, 0.0, 0.0, 0.0, 0.0, 0.0, 1.6635929279596393E9, 0.0, 2022-09-19 18:08:47.959
47.0, -51343.052249318636, -22448.996895432105, -65248.0501232207, -20165.788551066944, -146951.11923827164, 187500.0, -52576.19799091792, -15305.669940193886, 0.648, -0.5700000000000001, 0.554, 192.0, 0.0, 0.0, 0.0, 0.0, 0.0, 0.0, 0.0, 0.0, 0.0, 1.663592927963532E9, 0.0, 2022-09-19 18:08:47.963
48.0, -51431.9898405063, -22425.907543409772, -65271.005364776305, -20145.426111868157, -146981.31644503077, 187500.0, -52508.96394359636, -15295.723413911273, 0.648, -0.5700000000000001, 0.554, 192.0, 0.0, 0.0, 0.0, 0.0, 0.0, 0.0, 0.0, 0.0, 0.0, 1.663592927968712E9, 0.0, 2022-09-19 18:08:47.968
49.0, -51262.27304485715, -22383.2827667335, -65350.93520294848, -20158.4571788856, -146905.678141794, 187500.0, -52487.88624857501, -15272.522303166665, 0.648, -0.5700000000000001, 0.554, 192.0, 0.0, 0.0, 0.0, 0.0, 0.0, 0.0, 0.0, 0.0, 0.0, 1.6635929279716332E9, 0.0, 2022-09-19 18:08:47.971
50.0, -50898.140775935746, -22363.009734512536, -65467.74541947192, -20220.058586604428, -146749.66296549595, 187500.0, -52564.843304734626, -15268.029602531149, 0.648, -0.5700000000000001, 0.554, 192.0, 0.0, 0.0, 0.0, 0.0, 0.0, 0.0, 0.0, 0.0, 0.0, 1.6635929279745953E9, 0.0, 2022-09-19 18:08:47.974
51.0, -50991.79458520348, -22432.411901046267, -65377.7796480393, -20230.720368709608, -146766.60558779308, 187500.0, -52675.931474677505, -15296.438669733843, 0.648, -0.5700000000000001, 0.554, 192.0, 0.0, 0.0, 0.0, 0.0, 0.0, 0.0, 0.0, 0.0, 0.0, 1.6635929279795425E9, 0.0, 2022-09-19 18:08:47.979
52.0, -51347.45554297633, -22465.000744462104, -65251.53699535573, -20172.359963936804, -146890.43425207547, 187500.0, -52586.54684860073, -15306.072271594081, 0.648, -0.5700000000000001, 0.554, 192.0, 0.0, 0.0, 0.0, 0.0, 0.0, 0.0, 0.0, 0.0, 0.0, 1.6635929279835815E9, 0.0, 2022-09-19 18:08:47.983
53.0, -51430.82754979462, -22429.617932989353, -65274.78280958925, -20144.88967000123, -146915.19998493194, 187500.0, -52513.523699465244, -15292.750631898718, 0.648, -0.5700000000000001, 0.554, 192.0, 0.0, 0.0, 0.0, 0.0, 0.0, 0.0, 0.0, 0.0, 0.0, 1.6635929279877276E9, 0.0, 2022-09-19 18:08:47.987
54.0, -51254.69580348681, -22378.76771435353, -65358.78066525229, -20155.774969550966, -146833.7949316257, 187500.0, -52495.687007389904, -15269.482465920742, 0.648, -0.5700000000000001, 0.554, 192.0, 0.0, 0.0, 0.0, 0.0, 0.0, 0.0, 0.0, 0.0, 0.0, 1.6635929279916744E9, 0.0, 2022-09-19 18:08:47.991
55.0, -50890.18355490966, -22350.76097855103, -65467.96893691647, -20208.636845187768, -146672.97413026978, 187500.0, -52563.792772745226, -15259.625346615952, 0.648, -0.5740000000000001, 0.552, 192.0, 20.0, 64.0, 238.0, 16.0, 17.0, 64.0, 0.0, 0.0, 0.0, 1.6635929279956448E9, 0.0, 2022-09-19 18:08:47.995
56.0, -50994.65560849376, -22426.66750272125, -65383.0323079863, -20221.444394760656, -146693.24716249076, 187500.0, -52679.86538170164, -15292.54946619862, 0.648, -0.5740000000000001, 0.552, 192.0, 0.0, 0.0, 0.0, 0.0, 0.0, 0.0, 0.0, 0.0, 0.0, 1.6635929279996068E9, 0.0, 2022-09-19 18:08:47.999
57.0, -51346.36030749802, -22465.984221218136, -65266.020925762765, -20172.42701917017, -146816.8523093286, 187500.0, -52595.44284289394, -15308.061576850603, 0.648, -0.5740000000000001, 0.552, 192.0, 0.0, 0.0, 0.0, 0.0, 0.0, 0.0, 0.0, 0.0, 0.0, 1.6635929280026667E9, 0.0, 2022-09-19 18:08:48.002
58.0, -51422.91503225744, -22431.361369056867, -65280.840132336634, -20145.202594423605, -146838.93583285046, 187500.0, -52511.0426558307, -15294.02468133267, 0.648, -0.5740000000000001, 0.552, 192.0, 0.0, 0.0, 0.0, 0.0, 0.0, 0.0, 0.0, 0.0, 0.0, 1.6635929280067067E9, 0.0, 2022-09-19 18:08:48.006
59.0, -51243.698745214795, -22378.052458530958, -65371.118828191626, -20155.61850733978, -146756.7931719772, 187500.0, -52493.36242596655, -15273.729297367252, 0.648, -0.5740000000000001, 0.552, 192.0, 0.0, 0.0, 0.0, 0.0, 0.0, 0.0, 0.0, 0.0, 0.0, 1.6635929280116324E9, 0.0, 2022-09-19 18:08:48.011
60.0, -50881.06404317189, -22356.684190831686, -65491.840599994735, -20207.698071920644, -146598.00637936668, 187500.0, -52579.34958688612, -15265.25798621869, 0.648, -0.5740000000000001, 0.552, 192.0, 0.0, 0.0, 0.0, 0.0, 0.0, 0.0, 0.0, 0.0, 0.0, 1.6635929280156147E9, 0.0, 2022-09-19 18:08:48.015
61.0, -50987.77127120153, -22428.25447657758, -65398.90204654957, -20211.319054522402, -146619.64286799944, 187500.0, -52688.3366928502, -15295.388137744445, 0.648, -0.5740000000000001, 0.552, 192.0, 0.0, 0.0, 0.0, 0.0, 0.0, 0.0, 0.0, 0.0, 0.0, 1.6635929280197475E9, 0.0, 2022-09-19 18:08:48.019
62.0, -51335.85498760403, -22449.622744276854, -65276.503893912304, -20156.04319048443, -146741.79515144767, 187500.0, -52590.54781085823, -15309.536791984654, 0.648, -0.5740000000000001, 0.552, 192.0, 0.0, 0.0, 0.0, 0.0, 0.0, 0.0, 0.0, 0.0, 0.0, 1.6635929280236957E9, 0.0, 2022-09-19 18:08:48.023
63.0, -51412.633229808, -22408.316720523446, -65290.65254815252, -20135.323123374357, -146763.67750926942, 187500.0, -52506.885231362015, -15298.65149243492, 0.648, -0.5740000000000001, 0.552, 192.0, 0.0, 0.0, 0.0, 0.0, 0.0, 0.0, 0.0, 0.0, 0.0, 1.6635929280276933E9, 0.0, 2022-09-19 18:08:48.027
64.0, -51226.26438453965, -22358.718199577117, -65373.42105787052, -20149.069446214373, -146674.09171749256, 187500.0, -52484.377024695525, -15271.851750833006, 0.648, -0.5740000000000001, 0.552, 192.0, 0.0, 0.0, 0.0, 0.0, 0.0, 0.0, 0.0, 0.0, 0.0, 1.6635929280326495E9, 0.0, 2022-09-19 18:08:48.032
65.0, -50859.740478961525, -22333.773652764994, -65488.621948793174, -20208.79330739895, -146514.56731731503, 187500.0, -52564.99976694582, -15267.78373334214, 0.646, -0.5660000000000001, 0.552, 192.0, 20.0, 48.0, 238.0, 80.0, 17.0, 64.0, 0.0, 0.0, 0.0, 1.6635929280357285E9, 0.0, 2022-09-19 18:08:48.035
66.0, -50968.2805500365, -22409.411956001753, -65399.0361570163, -20222.919609894707, -146539.42245714934, 187500.0, -52680.75945147985, -15302.898323881427, 0.646, -0.5660000000000001, 0.552, 192.0, 0.0, 0.0, 0.0, 0.0, 0.0, 0.0, 0.0, 0.0, 0.0, 1.6635929280406795E9, 0.0, 2022-09-19 18:08:48.040
67.0, -51315.89487980543, -22444.995933174603, -65269.23957696433, -20166.615565611788, -146662.82643828707, 187500.0, -52588.22322943488, -15311.190821074346, 0.646, -0.5660000000000001, 0.552, 192.0, 0.0, 0.0, 0.0, 0.0, 0.0, 0.0, 0.0, 0.0, 0.0, 1.6635929280446863E9, 0.0, 2022-09-19 18:08:48.044
68.0, -51391.53318304219, -22413.792897914995, -65279.76724860278, -20140.441672854624, -146686.25106647625, 187500.0, -52511.33322850862, -15294.806992388607, 0.646, -0.5660000000000001, 0.552, 192.0, 0.0, 0.0, 0.0, 0.0, 0.0, 0.0, 0.0, 0.0, 0.0, 1.6635929280486996E9, 0.0, 2022-09-19 18:08:48.048
69.0, -51199.576401660015, -22366.295440947466, -65362.55811006524, -20157.965440507585, -146598.07343460005, 187500.0, -52492.91539107745, -15271.650585132908, 0.646, -0.5660000000000001, 0.552, 192.0, 0.0, 0.0, 0.0, 0.0, 0.0, 0.0, 0.0, 0.0, 0.0, 1.66359292805379E9, 0.0, 2022-09-19 18:08:48.053
70.0, -50837.455789739586, -22349.285763416978, -65471.2546433514, -20223.165479083716, -146438.14670302233, 187500.0, -52574.09692693913, -15269.97420429876, 0.646, -0.5660000000000001, 0.552, 192.0, 0.0, 0.0, 0.0, 0.0, 0.0, 0.0, 0.0, 0.0, 0.0, 1.6635929280568318E9, 0.0, 2022-09-19 18:08:48.056
71.0, -50953.349584740354, -22422.644188719296, -65370.64944155806, -20228.507546008535, -146463.80650565703, 187500.0, -52675.03740489929, -15301.132536069457, 0.646, -0.5660000000000001, 0.552, 192.0, 0.0, 0.0, 0.0, 0.0, 0.0, 0.0, 0.0, 0.0, 0.0, 1.6635929280598035E9, 0.0, 2022-09-19 18:08:48.059
72.0, -51296.739434807234, -22456.171805402257, -65253.77216980126, -20170.437713913645, -146585.91408561636, 187500.0, -52584.24461892183, -15311.07906235207, 0.646, -0.5660000000000001, 0.552, 192.0, 0.0, 0.0, 0.0, 0.0, 0.0, 0.0, 0.0, 0.0, 0.0, 1.663592928062807E9, 0.0, 2022-09-19 18:08:48.062
73.0, -51372.69066246637, -22429.886153922816, -65277.912053812994, -20148.063617713884, -146607.68468471584, 187500.0, -52513.90367912098, -15299.813783146596, 0.646, -0.5660000000000001, 0.552, 192.0, 0.0, 0.0, 0.0, 0.0, 0.0, 0.0, 0.0, 0.0, 0.0, 1.6635929280676968E9, 0.0, 2022-09-19 18:08:48.067
74.0, -51187.66292186534, -22383.349821966865, -65367.36373512313, -20165.386219666747, -146521.92104124083, 187500.0, -52498.74919638028, -15277.842018347028, 0.646, -0.5660000000000001, 0.552, 192.0, 0.0, 0.0, 0.0, 0.0, 0.0, 0.0, 0.0, 0.0, 0.0, 1.663592928071872E9, 0.0, 2022-09-19 18:08:48.071
75.0, -50828.693905913104, -22360.90867053374, -65474.67446025306, -20221.422043016202, -146363.55893177498, 187500.0, -52583.84228752164, -15270.421239187866, 0.646, -0.562, 0.554, 192.0, 20.0, 48.0, 238.0, 112.0, 17.0, 80.0, 0.0, 0.0, 0.0, 1.6635929280758097E9, 0.0, 2022-09-19 18:08:48.075
76.0, -50946.778171870494, -22429.752043456083, -65374.65040381556, -20223.947790139653, -146388.57053382046, 187500.0, -52690.437756829, -15297.668015678886, 0.646, -0.562, 0.554, 192.0, 0.0, 0.0, 0.0, 0.0, 0.0, 0.0, 0.0, 0.0, 0.0, 1.6635929280797632E9, 0.0, 2022-09-19 18:08:48.079
77.0, -51284.11069918999, -22456.082398424434, -65254.777998301746, -20166.6602691007, -146503.8831834654, 187500.0, -52593.52059287079, -15304.530001226665, 0.646, -0.562, 0.554, 192.0, 0.0, 0.0, 0.0, 0.0, 0.0, 0.0, 0.0, 0.0, 0.0, 1.663592928083762E9, 0.0, 2022-09-19 18:08:48.083
78.0, -51351.702374422835, -22425.169935842747, -65280.81778059218, -20148.80122528091, -146523.17273893033, 187500.0, -52520.162167568466, -15295.969283100283, 0.646, -0.562, 0.554, 192.0, 0.0, 0.0, 0.0, 0.0, 0.0, 0.0, 0.0, 0.0, 0.0, 1.6635929280867808E9, 0.0, 2022-09-19 18:08:48.086
79.0, -51159.63383431838, -22377.538368408488, -65375.164493938035, -20168.046077256928, -146433.9222233203, 187500.0, -52508.561612196165, -15279.11606778098, 0.646, -0.562, 0.554, 192.0, 0.0, 0.0, 0.0, 0.0, 0.0, 0.0, 0.0, 0.0, 0.0, 1.663592928090829E9, 0.0, 2022-09-19 18:08:48.090
80.0, -50798.3402369428, -22353.95727800814, -65481.71525975648, -20222.04789186095, -146272.09559346386, 187500.0, -52595.19697370494, -15276.433858446344, 0.646, -0.562, 0.554, 192.0, 0.0, 0.0, 0.0, 0.0, 0.0, 0.0, 0.0, 0.0, 0.0, 1.6635929280957756E9, 0.0, 2022-09-19 18:08:48.095
81.0, -50922.884157047774, -22424.96877014265, -65378.450200372965, -20224.975970384596, -146298.71652111012, 187500.0, -52693.20937314146, -15307.614541961497, 0.646, -0.562, 0.554, 192.0, 0.0, 0.0, 0.0, 0.0, 0.0, 0.0, 0.0, 0.0, 0.0, 1.6635929280998015E9, 0.0, 2022-09-19 18:08:48.099
82.0, -51258.76382097767, -22455.613011790876, -65263.18225421695, -20166.52615863397, -146412.46454864318, 187500.0, -52599.77908131827, -15310.3638065295, 0.646, -0.562, 0.554, 192.0, 0.0, 0.0, 0.0, 0.0, 0.0, 0.0, 0.0, 0.0, 0.0, 1.663592928103777E9, 0.0, 2022-09-19 18:08:48.103
83.0, -51324.433246187364, -22427.986255644115, -65295.72639414387, -20153.56214684989, -146430.39064769633, 187500.0, -52540.77047595626, -15300.484335480254, 0.646, -0.562, 0.554, 192.0, 0.0, 0.0, 0.0, 0.0, 0.0, 0.0, 0.0, 0.0, 0.0, 1.663592928107995E9, 0.0, 2022-09-19 18:08:48.107
84.0, -51129.57073802599, -22382.321641721923, -65388.06145048874, -20180.42894368517, -146340.35782103037, 187500.0, -52524.11842633706, -15279.83132360355, 0.646, -0.562, 0.554, 192.0, 0.0, 0.0, 0.0, 0.0, 0.0, 0.0, 0.0, 0.0, 0.0, 1.663592928111842E9, 0.0, 2022-09-19 18:08:48.111
85.0, -50773.90978025315, -22365.446074658164, -65497.58499831975, -20245.20429911665, -146184.90143834372, 187500.0, -52605.7693488323, -15281.038317804137, 0.652, -0.5760000000000001, 0.55, 192.0, 20.0, 96.0, 238.0, 0.0, 17.0, 48.0, 0.0, 0.0, 0.0, 1.6635929281168444E9, 0.0, 2022-09-19 18:08:48.116
86.0, -50899.034845713955, -22416.609217716363, -65394.744622080885, -20243.48321479359, -146211.0976828453, 187500.0, -52701.47951858992, -15309.000350117727, 0.652, -0.5760000000000001, 0.55, 192.0, 0.0, 0.0, 0.0, 0.0, 0.0, 0.0, 0.0, 0.0, 0.0, 1.6635929281198378E9, 0.0, 2022-09-19 18:08:48.119
87.0, -51232.1428933314, -22439.050369149492, -65282.42710619296, -20183.3123187199, -146324.42102723374, 187500.0, -52603.0647877532, -15316.197611832335, 0.652, -0.5760000000000001, 0.55, 192.0, 0.0, 0.0, 0.0, 0.0, 0.0, 0.0, 0.0, 0.0, 0.0, 1.6635929281238725E9, 0.0, 2022-09-19 18:08:48.123
88.0, -51290.27978065965, -22404.025185588027, -65303.52715295877, -20157.496053874023, -146334.90399538327, 187500.0, -52529.63930721752, -15299.120879068481, 0.652, -0.5760000000000001, 0.55, 192.0, 0.0, 0.0, 0.0, 0.0, 0.0, 0.0, 0.0, 0.0, 0.0, 1.6635929281279492E9, 0.0, 2022-09-19 18:08:48.127
89.0, -51090.29872301802, -22367.748304337063, -65392.04006100179, -20177.254995972515, -146240.15495063722, 187500.0, -52510.103882563584, -15279.853675348006, 0.652, -0.5760000000000001, 0.55, 192.0, 0.0, 0.0, 0.0, 0.0, 0.0, 0.0, 0.0, 0.0, 0.0, 1.6635929281329231E9, 0.0, 2022-09-19 18:08:48.132
90.0, -50729.56391925382, -22345.28480115948, -65487.81728599278, -20230.027464631494, -146077.45660274706, 187500.0, -52587.39621489003, -15271.538826410631, 0.652, -0.5760000000000001, 0.55, 192.0, 0.0, 0.0, 0.0, 0.0, 0.0, 0.0, 0.0, 0.0, 0.0, 1.6635929281369195E9, 0.0, 2022-09-19 18:08:48.136
91.0, -50865.551932519906, -22409.85899089086, -65382.89819751957, -20225.557115740434, -146107.00560891695, 187500.0, -52690.28129461781, -15302.585399459052, 0.652, -0.5760000000000001, 0.55, 192.0, 0.0, 0.0, 0.0, 0.0, 0.0, 0.0, 0.0, 0.0, 0.0, 1.6635929281399193E9, 0.0, 2022-09-19 18:08:48.139
92.0, -51199.26347723764, -22441.1961366172, -65273.9557950444, -20171.979984281064, -146224.5087295185, 187500.0, -52593.989979504346, -15317.248143821735, 0.652, -0.5760000000000001, 0.55, 192.0, 0.0, 0.0, 0.0, 0.0, 0.0, 0.0, 0.0, 0.0, 0.0, 1.6635929281429265E9, 0.0, 2022-09-19 18:08:48.142
93.0, -51262.58596927953, -22413.90465663727, -65304.64474018154, -20160.491187631036, -146238.5679767809, 187500.0, -52525.59364147111, -15309.067405351092, 0.652, -0.5760000000000001, 0.55, 192.0, 0.0, 0.0, 0.0, 0.0, 0.0, 0.0, 0.0, 0.0, 0.0, 1.6635929281468883E9, 0.0, 2022-09-19 18:08:48.146
94.0, -51056.681699357236, -22363.926156035206, -65396.15278198157, -20180.786571596454, -146140.2873564109, 187500.0, -52514.015437843256, -15290.135477797447, 0.652, -0.5760000000000001, 0.55, 192.0, 0.0, 0.0, 0.0, 0.0, 0.0, 0.0, 0.0, 0.0, 0.0, 1.6635929281508865E9, 0.0, 2022-09-19 18:08:48.150
95.0, -50697.2656485159, -22342.826109269394, -65491.974710461465, -20231.703845465643, -145978.77365097686, 187500.0, -52603.355360431124, -15285.039280061637, 0.642, -0.5680000000000001, 0.554, 192.0, 20.0, 16.0, 238.0, 64.0, 17.0, 80.0, 0.0, 0.0, 0.0, 1.6635929281558788E9, 0.0, 2022-09-19 18:08:48.155
96.0, -50834.3488972603, -22411.982406614115, -65381.1324097076, -20226.71940645211, -146008.88145075817, 187500.0, -52698.12675692162, -15307.212210561302, 0.642, -0.5680000000000001, 0.554, 192.0, 0.0, 0.0, 0.0, 0.0, 0.0, 0.0, 0.0, 0.0, 0.0, 1.6635929281598804E9, 0.0, 2022-09-19 18:08:48.159
97.0, -51168.50747686714, -22440.838508705918, -65267.093809496626, -20171.979984281064, -146124.17174865864, 187500.0, -52593.52059287079, -15311.637855963452, 0.642, -0.5680000000000001, 0.554, 192.0, 0.0, 0.0, 0.0, 0.0, 0.0, 0.0, 0.0, 0.0, 0.0, 1.663592928162877E9, 0.0, 2022-09-19 18:08:48.162
98.0, -51228.343096774, -22412.00475835857, -65293.89355109854, -20157.496053874023, -146138.67803081014, 187500.0, -52525.23601355982, -15298.74089941274, 0.642, -0.5680000000000001, 0.554, 192.0, 0.0, 0.0, 0.0, 0.0, 0.0, 0.0, 0.0, 0.0, 0.0, 1.6635929281669972E9, 0.0, 2022-09-19 18:08:48.166
99.0, -51023.60111756338, -22367.167158981225, -65385.24513068738, -20181.501827419022, -146041.0679627738, 187500.0, -52512.98725759832, -15280.792448615128, 0.642, -0.5680000000000001, 0.554, 192.0, 0.0, 0.0, 0.0, 0.0, 0.0, 0.0, 0.0, 0.0, 0.0, 1.663592928170941E9, 0.0, 2022-09-19 18:08:48.170
100.0, -50665.72733708946, -22348.548155849952, -65478.071925410266, -20234.184889100183, -145877.16262068303, 187500.0, -52592.00067424783, -15273.103448522503, 0.642, -0.5680000000000001, 0.554, 192.0, 0.0, 0.0, 0.0, 0.0, 0.0, 0.0, 0.0, 0.0, 0.0, 1.6635929281749077E9, 0.0, 2022-09-19 18:08:48.174
101.0, -50809.002019047985, -22423.00181663058, -65380.79713354077, -20237.470595535113, -145910.31025771025, 187500.0, -52699.46786158894, -15305.357015771511, 0.642, -0.5680000000000001, 0.554, 192.0, 0.0, 0.0, 0.0, 0.0, 0.0, 0.0, 0.0, 0.0, 0.0, 1.663592928178934E9, 0.0, 2022-09-19 18:08:48.178
102.0, -51142.959432954725, -22457.11057866938, -65271.11712349858, -20189.682565889667, -146026.65108760013, 187500.0, -52603.422415664485, -15318.477489766776, 0.642, -0.5680000000000001, 0.554, 192.0, 0.0, 0.0, 0.0, 0.0, 0.0, 0.0, 0.0, 0.0, 0.0, 1.6635929281839592E9, 0.0, 2022-09-19 18:08:48.183
103.0, -51196.24599173618, -22427.650979477286, -65292.12776328657, -20170.527120891467, -146033.20014872553, 187500.0, -52530.98041188484, -15304.865277393494, 0.642, -0.5680000000000001, 0.554, 192.0, 0.0, 0.0, 0.0, 0.0, 0.0, 0.0, 0.0, 0.0, 0.0, 1.663592928187963E9, 0.0, 2022-09-19 18:08:48.187
104.0, -50990.63229449181, -22386.076734790415, -65390.676604590015, -20194.823467114387, -145936.21592953397, 187500.0, -52521.838548402615, -15290.381346986456, 0.642, -0.5680000000000001, 0.554, 192.0, 0.0, 0.0, 0.0, 0.0, 0.0, 0.0, 0.0, 0.0, 0.0, 1.6635929281909456E9, 0.0, 2022-09-19 18:08:48.190
105.0, -50638.97229897646, -22362.987382768082, -65485.29153886933, -20247.931211940195, -145779.59725613563, 187500.0, -52610.10558725662, -15284.771059128174, 0.648, -0.562, 0.554, 192.0, 20.0, 64.0, 238.0, 112.0, 17.0, 80.0, 0.0, 0.0, 0.0, 1.66359292819502E9, 0.0, 2022-09-19 18:08:48.195
106.0, -50788.21489670454, -22430.40024404529, -65372.504636347854, -20241.58331651489, -145815.98589610888, 187500.0, -52700.76426276735, -15312.263704808202, 0.648, -0.562, 0.554, 192.0, 0.0, 0.0, 0.0, 0.0, 0.0, 0.0, 0.0, 0.0, 0.0, 1.6635929281989546E9, 0.0, 2022-09-19 18:08:48.198
107.0, -51119.02071464309, -22456.618840291365, -65275.743934600825, -20190.308414734416, -145931.81263587627, 187500.0, -52610.59732563464, -15320.623257234485, 0.648, -0.562, 0.554, 192.0, 0.0, 0.0, 0.0, 0.0, 0.0, 0.0, 0.0, 0.0, 0.0, 1.663592928202974E9, 0.0, 2022-09-19 18:08:48.202
108.0, -51171.03322399059, -22432.031921390524, -65304.421222736986, -20175.511559905, -145941.5356447143, 187500.0, -52546.02313590326, -15306.899286138927, 0.648, -0.562, 0.554, 192.0, 0.0, 0.0, 0.0, 0.0, 0.0, 0.0, 0.0, 0.0, 0.0, 1.663592928209057E9, 0.0, 2022-09-19 18:08:48.209
109.0, -50959.89864586576, -22390.547083681475, -65393.045889502275, -20196.94688283764, -145843.21032085543, 187500.0, -52529.1475688395, -15286.559198684598, 0.648, -0.562, 0.554, 192.0, 0.0, 0.0, 0.0, 0.0, 0.0, 0.0, 0.0, 0.0, 0.0, 1.663592928211986E9, 0.0, 2022-09-19 18:08:48.211
110.0, -50606.07053113825, -22363.345010679368, -65487.839637737234, -20248.19943287366, -145686.7481096683, 187500.0, -52614.330066958675, -15283.944044583326, 0.648, -0.562, 0.554, 192.0, 0.0, 0.0, 0.0, 0.0, 0.0, 0.0, 0.0, 0.0, 0.0, 1.6635929282160149E9, 0.0, 2022-09-19 18:08:48.216
111.0, -50754.463762577034, -22426.734557954616, -65371.43175261399, -20237.96233391313, -145724.47785430885, 187500.0, -52703.37941686862, -15310.050882107125, 0.648, -0.562, 0.554, 192.0, 0.0, 0.0, 0.0, 0.0, 0.0, 0.0, 0.0, 0.0, 0.0, 1.6635929282189908E9, 0.0, 2022-09-19 18:08:48.218
112.0, -51080.82158336897, -22440.927915683737, -65266.42325716296, -20176.159760494204, -145836.23657658536, 187500.0, -52601.29899994123, -15316.108204854514, 0.648, -0.562, 0.554, 192.0, 0.0, 0.0, 0.0, 0.0, 0.0, 0.0, 0.0, 0.0, 0.0, 1.6635929282230108E9, 0.0, 2022-09-19 18:08:48.223
113.0, -51126.26267984661, -22393.296348249478, -65290.83136210816, -20150.678771815154, -145840.88573943207, 187500.0, -52529.326382795145, -15297.288036023145, 0.648, -0.562, 0.554, 192.0, 0.0, 0.0, 0.0, 0.0, 0.0, 0.0, 0.0, 0.0, 0.0, 1.6635929282270048E9, 0.0, 2022-09-19 18:08:48.227
114.0, -50915.93276452217, -22349.263411672524, -65391.74948832387, -20175.690373860645, -145744.08033419613, 187500.0, -52522.21852805836, -15283.519361438675, 0.648, -0.562, 0.554, 192.0, 0.0, 0.0, 0.0, 0.0, 0.0, 0.0, 0.0, 0.0, 0.0, 1.6635929282310178E9, 0.0, 2022-09-19 18:08:48.231
115.0, -50568.497248708874, -22339.048664456448, -65482.98930919043, -20229.647484975754, -145591.19440212185, 187500.0, -52608.83153782267, -15284.815762617083, 0.646, -0.56, 0.55, 192.0, 20.0, 48.0, 238.0, 128.0, 17.0, 48.0, 0.0, 0.0, 0.0, 1.663592928235038E9, 0.0, 2022-09-19 18:08:48.235
116.0, -50729.20629134253, -22409.43430774621, -65365.03915369978, -20219.991531371063, -145635.09322823206, 187500.0, -52696.80800399876, -15315.348245543033, 0.646, -0.56, 0.55, 192.0, 0.0, 0.0, 0.0, 0.0, 0.0, 0.0, 0.0, 0.0, 0.0, 1.6635929282390227E9, 0.0, 2022-09-19 18:08:48.239
117.0, -51055.00531852309, -22433.216563846658, -65261.908204782994, -20165.319164433382, -145750.22706392134, 187500.0, -52600.94137202995, -15323.50663226922, 0.646, -0.56, 0.55, 192.0, 0.0, 0.0, 0.0, 0.0, 0.0, 0.0, 0.0, 0.0, 0.0, 1.6635929282440355E9, 0.0, 2022-09-19 18:08:48.244
118.0, -51101.295781290035, -22398.504304707563, -65284.21524574939, -20148.063617713884, -145758.161933203, 187500.0, -52530.98041188484, -15306.675768694375, 0.646, -0.56, 0.55, 192.0, 0.0, 0.0, 0.0, 0.0, 0.0, 0.0, 0.0, 0.0, 0.0, 1.66359292824703E9, 0.0, 2022-09-19 18:08:48.247
119.0, -50885.3108746184, -22352.61617334082, -65375.94680499397, -20170.013030768994, -145659.85896108855, 187500.0, -52511.288525019714, -15283.497009694222, 0.646, -0.56, 0.55, 192.0, 0.0, 0.0, 0.0, 0.0, 0.0, 0.0, 0.0, 0.0, 0.0, 1.663592928251064E9, 0.0, 2022-09-19 18:08:48.251
120.0, -50539.55173963925, -22342.580240080388, -65468.86300669468, -20224.90891515123, -145506.25777319167, 187500.0, -52603.37771217558, -15283.161733527391, 0.646, -0.56, 0.55, 192.0, 0.0, 0.0, 0.0, 0.0, 0.0, 0.0, 0.0, 0.0, 0.0, 1.6635929282550344E9, 0.0, 2022-09-19 18:08:48.255
121.0, -50705.15581430862, -22414.754022926572, -65353.88563321658, -20217.979874370085, -145548.63668067893, 187500.0, -52692.71763476344, -15313.403643775422, 0.646, -0.56, 0.55, 192.0, 0.0, 0.0, 0.0, 0.0, 0.0, 0.0, 0.0, 0.0, 0.0, 1.6635929282591813E9, 0.0, 2022-09-19 18:08:48.259
122.0, -51031.938318245215, -22447.991066931616, -65259.740085570826, -20167.487283645547, -145664.2846064907, 187500.0, -52597.275685939276, -15327.529946271176, 0.646, -0.56, 0.55, 192.0, 0.0, 0.0, 0.0, 0.0, 0.0, 0.0, 0.0, 0.0, 0.0, 1.6635929282631173E9, 0.0, 2022-09-19 18:08:48.263
123.0, -51074.0043013101, -22409.680176935217, -65279.76724860278, -20144.532042089944, -145669.26904550422, 187500.0, -52521.838548402615, -15307.83805940605, 0.646, -0.56, 0.55, 192.0, 0.0, 0.0, 0.0, 0.0, 0.0, 0.0, 0.0, 0.0, 0.0, 1.6635929282671533E9, 0.0, 2022-09-19 18:08:48.267
124.0, -50854.77839169245, -22360.3275251779, -65375.0303834713, -20169.342478435337, -145570.40727977842, 187500.0, -52508.74042615181, -15283.698175394318, 0.646, -0.56, 0.55, 192.0, 0.0, 0.0, 0.0, 0.0, 0.0, 0.0, 0.0, 0.0, 0.0, 1.663592928272128E9, 0.0, 2022-09-19 18:08:48.272
125.0, -50515.70242830544, -22351.43153088469, -65478.58601553274, -20228.216973330615, -145422.41637973982, 187500.0, -52615.89468907055, -15287.45326846281, 0.644, -0.56, 0.554, 192.0, 20.0, 32.0, 238.0, 128.0, 17.0, 80.0, 0.0, 0.0, 0.0, 1.663592928276152E9, 0.0, 2022-09-19 18:08:48.276
126.0, -50687.09560478874, -22422.57713348593, -65357.14898790706, -20221.489098249567, -145465.64465351639, 187500.0, -52695.60100979817, -15315.929390898871, 0.644, -0.56, 0.554, 192.0, 0.0, 0.0, 0.0, 0.0, 0.0, 0.0, 0.0, 0.0, 0.0, 1.6635929282801902E9, 0.0, 2022-09-19 18:08:48.280
127.0, -51008.42428307823, -22450.29329661051, -65250.59822208861, -20169.253071457515, -145574.69881471383, 187500.0, -52587.418566634486, -15324.959495658815, 0.644, -0.56, 0.554, 192.0, 0.0, 0.0, 0.0, 0.0, 0.0, 0.0, 0.0, 0.0, 0.0, 1.6635929282832026E9, 0.0, 2022-09-19 18:08:48.283
128.0, -51049.52914113154, -22418.375005528334, -65275.185140989444, -20147.303658402405, -145579.12446011597, 187500.0, -52522.53145248073, -15311.816669919095, 0.644, -0.56, 0.554, 192.0, 0.0, 0.0, 0.0, 0.0, 0.0, 0.0, 0.0, 0.0, 0.0, 1.6635929282871275E9, 0.0, 2022-09-19 18:08:48.287
129.0, -50831.13024605873, -22374.029144529002, -65370.13535143559, -20172.47172265908, -145480.7991362571, 187500.0, -52513.92603086544, -15293.68940516584, 0.644, -0.56, 0.554, 192.0, 0.0, 0.0, 0.0, 0.0, 0.0, 0.0, 0.0, 0.0, 0.0, 1.6635929282911708E9, 0.0, 2022-09-19 18:08:48.291
130.0, -50489.796756481745, -22361.89214728977, -65463.6997537255, -20233.04495013296, -145330.32719258397, 187500.0, -52610.46321516791, -15293.97997784376, 0.644, -0.56, 0.554, 192.0, 0.0, 0.0, 0.0, 0.0, 0.0, 0.0, 0.0, 0.0, 0.0, 1.663592928295167E9, 0.0, 2022-09-19 18:08:48.295
131.0, -50666.666110356586, -22446.560555286476, -65356.45608382894, -20234.90014492275, -145378.83047805197, 187500.0, -52709.79436752729, -15329.966286416804, 0.644, -0.56, 0.554, 192.0, 0.0, 0.0, 0.0, 0.0, 0.0, 0.0, 0.0, 0.0, 0.0, 1.6635929283001614E9, 0.0, 2022-09-19 18:08:48.300
132.0, -50988.71004446865, -22466.833587507437, -65256.43202739144, -20177.99260353954, -145491.52797359563, 187500.0, -52609.099758756136, -15338.527004543186, 0.644, -0.56, 0.554, 192.0, 0.0, 0.0, 0.0, 0.0, 0.0, 0.0, 0.0, 0.0, 0.0, 1.6635929283031952E9, 0.0, 2022-09-19 18:08:48.303
133.0, -51029.144350188304, -22414.53050548202, -65288.14915277352, -20157.361943407293, -145499.21697368825, 187500.0, -52542.49156027932, -15325.138309614458, 0.644, -0.56, 0.554, 192.0, 0.0, 0.0, 0.0, 0.0, 0.0, 0.0, 0.0, 0.0, 0.0, 1.6635929283072135E9, 0.0, 2022-09-19 18:08:48.307
134.0, -50802.60942013376, -22365.915461291726, -65393.9846627694, -20187.559150166413, -145399.8634695844, 187500.0, -52539.58583350013, -15311.324931541078, 0.644, -0.56, 0.554, 192.0, 0.0, 0.0, 0.0, 0.0, 0.0, 0.0, 0.0, 0.0, 0.0, 1.663592928311176E9, 0.0, 2022-09-19 18:08:48.311
135.0, -50468.830820182666, -22347.51997560501, -65486.27501562536, -20244.287877593983, -145253.0795637464, 187500.0, -52626.82469210919, -15315.147079842936, 0.644, -0.56, 0.554, 192.0, 0.0, 0.0, 0.0, 0.0, 0.0, 0.0, 0.0, 0.0, 0.0, 1.6635929283151507E9, 0.0, 2022-09-19 18:08:48.315
136.0, -50649.72348805946, -22420.654883462776, -65372.705802047945, -20234.654275733745, -145300.21939280265, 187500.0, -52705.54753608078, -15344.584327290575, 0.646, -0.562, 0.554, 192.0, 20.0, 48.0, 238.0, 112.0, 17.0, 80.0, 0.0, 0.0, 0.0, 1.6635929283191512E9, 0.0, 2022-09-19 18:08:48.319
137.0, -50967.207666302646, -22433.708302224673, -65273.82168457767, -20170.57182438038, -145408.9159260888, 187500.0, -52598.2144592064, -15342.013876678215, 0.646, -0.562, 0.554, 192.0, 0.0, 0.0, 0.0, 0.0, 0.0, 0.0, 0.0, 0.0, 0.0, 1.6635929283232086E9, 0.0, 2022-09-19 18:08:48.323
138.0, -51007.95489644467, -22393.922197094227, -65305.42705123747, -20155.283231172947, -145417.78956863756, 187500.0, -52534.51198750878, -15328.312257327112, 0.646, -0.562, 0.554, 192.0, 0.0, 0.0, 0.0, 0.0, 0.0, 0.0, 0.0, 0.0, 0.0, 1.6635929283282344E9, 0.0, 2022-09-19 18:08:48.328
139.0, -50779.96710300054, -22347.497623860556, -65399.08086050521, -20177.344402950337, -145315.82091043246, 187500.0, -52518.66460068996, -15310.497916996232, 0.646, -0.562, 0.554, 192.0, 0.0, 0.0, 0.0, 0.0, 0.0, 0.0, 0.0, 0.0, 0.0, 1.6635929283312032E9, 0.0, 2022-09-19 18:08:48.331
140.0, -50441.271119269266, -22339.249830156547, -65492.22057965048, -20236.665932734722, -145166.08657432636, 187500.0, -52618.107511771625, -15311.324931541078, 0.646, -0.562, 0.554, 192.0, 0.0, 0.0, 0.0, 0.0, 0.0, 0.0, 0.0, 0.0, 0.0, 1.663592928334184E9, 0.0, 2022-09-19 18:08:48.334
141.0, -50630.61274655018, -22420.386662529312, -65375.54447359377, -20238.4764240356, -145223.55290932095, 187500.0, -52714.48823386291, -15347.780626747684, 0.646, -0.562, 0.554, 192.0, 0.0, 0.0, 0.0, 0.0, 0.0, 0.0, 0.0, 0.0, 0.0, 1.6635929283392055E9, 0.0, 2022-09-19 18:08:48.339
142.0, -50949.728602138595, -22441.173784872746, -65269.57485313116, -20179.110190762305, -145338.3514688434, 187500.0, -52609.07740701168, -15353.23445239478, 0.646, -0.562, 0.554, 192.0, 0.0, 0.0, 0.0, 0.0, 0.0, 0.0, 0.0, 0.0, 0.0, 1.663592928343223E9, 0.0, 2022-09-19 18:08:48.343
143.0, -50985.69255896718, -22408.38377575681, -65293.9606063319, -20154.56797535038, -145345.2581578801, 187500.0, -52540.993993400814, -15334.458987052321, 0.646, -0.562, 0.554, 192.0, 0.0, 0.0, 0.0, 0.0, 0.0, 0.0, 0.0, 0.0, 0.0, 1.663592928347236E9, 0.0, 2022-09-19 18:08:48.347
144.0, -50754.821390488316, -22363.52382463501, -65389.26844468933, -20178.126714006274, -145242.3283746634, 187500.0, -52531.20392932939, -15314.543582742643, 0.646, -0.562, 0.554, 192.0, 0.0, 0.0, 0.0, 0.0, 0.0, 0.0, 0.0, 0.0, 0.0, 1.6635929283512523E9, 0.0, 2022-09-19 18:08:48.351
145.0, -50424.03792429423, -22358.718199577117, -65474.853274208705, -20238.43172054669, -145097.62318105975, 187500.0, -52630.04334331076, -15320.086815367558, 0.646, -0.562, 0.554, 192.0, 0.0, 0.0, 0.0, 0.0, 0.0, 0.0, 0.0, 0.0, 0.0, 1.6635929283552597E9, 0.0, 2022-09-19 18:08:48.355
146.0, -50620.800330734295, -22435.697607481197, -65344.40849356753, -20227.635827974776, -145155.82712362136, 187500.0, -52709.123815193634, -15347.624164536497, 0.638, -0.55, 0.554, 192.0, 19.0, 240.0, 238.0, 208.0, 17.0, 80.0, 0.0, 0.0, 0.0, 1.6635929283593643E9, 0.0, 2022-09-19 18:08:48.359
147.0, -50939.98324155608, -22456.48472982463, -65244.831472019134, -20175.7127256051, -145268.8375435874, 187500.0, -52605.21055522091, -15354.240280895268, 0.638, -0.55, 0.554, 192.0, 0.0, 0.0, 0.0, 0.0, 0.0, 0.0, 0.0, 0.0, 0.0, 1.6635929283622785E9, 0.0, 2022-09-19 18:08:48.362
148.0, -50976.081308851404, -22418.01737761705, -65267.406733919, -20159.641821341735, -145277.1970960137, 187500.0, -52535.80838868718, -15337.811748720616, 0.638, -0.55, 0.554, 192.0, 0.0, 0.0, 0.0, 0.0, 0.0, 0.0, 0.0, 0.0, 0.0, 1.663592928368272E9, 0.0, 2022-09-19 18:08:48.368
149.0, -50747.66883226262, -22368.575318881907, -65361.68639203148, -20183.51348442, -145177.15068783175, 187500.0, -52518.709304178876, -15316.622294976985, 0.638, -0.55, 0.554, 192.0, 0.0, 0.0, 0.0, 0.0, 0.0, 0.0, 0.0, 0.0, 0.0, 1.6635929283723E9, 0.0, 2022-09-19 18:08:48.372
