%OpenBCI Raw EEG Data
%Number of channels = 8
%Sample Rate = 250 Hz
%Board = OpenBCI_GUI$BoardCytonSerial
Sample Index, EXG Channel 0, EXG Channel 1, EXG Channel 2, EXG Channel 3, EXG Channel 4, EXG Channel 5, EXG Channel 6, EXG Channel 7, Accel Channel 0, Accel Channel 1, Accel Channel 2, Other, Other, Other, Other, Other, Other, Other, Analog Channel 0, Analog Channel 1, Analog Channel 2, Timestamp, Other, Timestamp (Formatted)
81.0, 17205.389404939342, 22912.303854501708, -16588.503609717325, -7385.9551413005765, 14040.225927856676, -187500.02235174447, 25929.61054201252, -32488.752304166832, 0.0, 0.0, 0.0, 192.0, 0.0, 0.0, 0.0, 0.0, 0.0, 0.0, 0.0, 0.0, 0.0, 1.663586209302898E9, 0.0, 2022-09-19 16:16:49.302
82.0, 17198.281550202555, 22897.81992409467, -16589.598845195633, -7389.665530880157, 14025.250259071621, -187500.02235174447, 25890.31617526009, -32493.647336202546, 0.0, 0.0, 0.0, 192.0, 0.0, 0.0, 0.0, 0.0, 0.0, 0.0, 0.0, 0.0, 0.0, 1.6635862093029234E9, 0.0, 2022-09-19 16:16:49.302
83.0, 17200.20380022571, 22898.33401421714, -16580.680499157967, -7389.196144246596, 14023.77504393757, -187500.02235174447, 25891.858445627506, -32495.34606878115, 0.59, -0.678, 0.47400000000000003, 192.0, 18.0, 112.0, 234.0, 208.0, 14.0, 208.0, 0.0, 0.0, 0.0, 1.6635862093029387E9, 0.0, 2022-09-19 16:16:49.302
0.0, 0.0, 0.0, 0.0, 0.0, 0.0, 0.0, 0.0, 0.0, 0.59, -0.678, 0.47400000000000003, 192.0, 0.0, 0.0, 0.0, 0.0, 0.0, 0.0, 0.0, 0.0, 0.0, 1.6635862093728156E9, 0.0, 2022-09-19 16:16:49.372
1.0, 14964.694078528177, 26897.88811181642, -16688.840590577198, -7366.17384745763, 13416.27698138678, -187500.02235174447, 28406.608510805192, -31278.830025056606, 0.606, -0.678, 0.454, 192.0, 18.0, 240.0, 234.0, 208.0, 14.0, 48.0, 0.0, 0.0, 0.0, 1.6635862093897853E9, 0.0, 2022-09-19 16:16:49.389
2.0, 14958.949680203163, 26891.294347202107, -16700.865829094153, -7368.8784085367215, 13403.961170191906, -187500.02235174447, 28386.8495687067, -31289.111827506047, 0.606, -0.678, 0.454, 192.0, 0.0, 0.0, 0.0, 0.0, 0.0, 0.0, 0.0, 0.0, 0.0, 1.6635862093938124E9, 0.0, 2022-09-19 16:16:49.393
3.0, 14948.936098687185, 26869.88137601392, -16716.288532768314, -7373.996958016987, 13366.633756951542, -187500.02235174447, 28329.919675579033, -31290.34117345109, 0.606, -0.678, 0.454, 192.0, 0.0, 0.0, 0.0, 0.0, 0.0, 0.0, 0.0, 0.0, 0.0, 1.6635862093969257E9, 0.0, 2022-09-19 16:16:49.396
4.0, 14952.691191755677, 26852.782291505613, -16714.5450967008, -7373.88519929471, 13325.618305876054, -187500.02235174447, 28304.66220434454, -31285.535548393196, 0.606, -0.678, 0.454, 192.0, 0.0, 0.0, 0.0, 0.0, 0.0, 0.0, 0.0, 0.0, 0.0, 1.6635862093998501E9, 0.0, 2022-09-19 16:16:49.399
5.0, 14957.809741235942, 26841.15938438885, -16698.228323248426, -7370.353623670772, 13297.231590417814, -187500.02235174447, 28324.21998074293, -31279.94761227937, 0.606, -0.678, 0.454, 192.0, 0.0, 0.0, 0.0, 0.0, 0.0, 0.0, 0.0, 0.0, 0.0, 1.6635862094038572E9, 0.0, 2022-09-19 16:16:49.403
6.0, 14966.303404128957, 26846.657913524858, -16687.745355098887, -7369.6383678482025, 13284.044061189183, -187500.02235174447, 28364.27430680684, -31279.075894245612, 0.606, -0.678, 0.454, 192.0, 0.0, 0.0, 0.0, 0.0, 0.0, 0.0, 0.0, 0.0, 0.0, 1.6635862094088924E9, 0.0, 2022-09-19 16:16:49.408
7.0, 14960.491950570578, 26831.905762184357, -16694.316767968747, -7366.6432340911915, 13248.795360183163, -187500.02235174447, 28344.0906815637, -31272.817405798127, 0.606, -0.678, 0.454, 192.0, 0.0, 0.0, 0.0, 0.0, 0.0, 0.0, 0.0, 0.0, 0.0, 1.663586209412946E9, 0.0, 2022-09-19 16:16:49.412
8.0, 14949.472540554112, 26803.027308348097, -16703.25746575087, -7367.134972469208, 13202.214324738303, -187500.02235174447, 28292.54755884976, -31267.721208062318, 0.622, -0.682, 0.446, 192.0, 19.0, 112.0, 234.0, 176.0, 13.0, 240.0, 0.0, 0.0, 0.0, 1.663586209416915E9, 0.0, 2022-09-19 16:16:49.416
9.0, 14943.012886406528, 26784.520063939104, -16701.60343666118, -7365.011556745953, 13169.536074344645, -187500.02235174447, 28274.621459796606, -31259.60752482504, 0.622, -0.682, 0.446, 192.0, 0.0, 0.0, 0.0, 0.0, 0.0, 0.0, 0.0, 0.0, 0.0, 1.663586209419839E9, 0.0, 2022-09-19 16:16:49.419
10.0, 14956.848616224363, 26784.83298836148, -16697.289549981302, -7366.375013157727, 13155.812103249087, -187500.02235174447, 28299.36484090863, -31273.689123831886, 0.622, -0.682, 0.446, 192.0, 0.0, 0.0, 0.0, 0.0, 0.0, 0.0, 0.0, 0.0, 0.0, 1.6635862094249256E9, 0.0, 2022-09-19 16:16:49.424
11.0, 14960.71546801513, 26787.649308162847, -16701.692843638997, -7385.083423266819, 13143.183367631838, -187500.02235174447, 28337.07223380473, -31304.75804862476, 0.622, -0.682, 0.446, 192.0, 0.0, 0.0, 0.0, 0.0, 0.0, 0.0, 0.0, 0.0, 0.0, 1.6635862094288476E9, 0.0, 2022-09-19 16:16:49.428
12.0, 14956.781560990998, 26775.132331267876, -16705.82791636323, -7383.65291162168, 13115.087224851517, -187500.02235174447, 28319.481410918404, -31298.298394477177, 0.622, -0.682, 0.446, 192.0, 0.0, 0.0, 0.0, 0.0, 0.0, 0.0, 0.0, 0.0, 0.0, 1.6635862094318855E9, 0.0, 2022-09-19 16:16:49.431
13.0, 14946.723275986109, 26751.081854233966, -16704.39740471809, -7374.645158606191, 13078.273901733626, -187500.02235174447, 28271.49221557286, -31279.90290879046, 0.622, -0.682, 0.446, 192.0, 0.0, 0.0, 0.0, 0.0, 0.0, 0.0, 0.0, 0.0, 0.0, 1.6635862094369092E9, 0.0, 2022-09-19 16:16:49.436
14.0, 14941.269450339014, 26726.070252188478, -16698.407137204067, -7368.341966669795, 13048.188453696783, -187500.02235174447, 28251.621514752092, -31262.960286493337, 0.622, -0.682, 0.446, 192.0, 0.0, 0.0, 0.0, 0.0, 0.0, 0.0, 0.0, 0.0, 0.0, 1.6635862094409304E9, 0.0, 2022-09-19 16:16:49.440
15.0, 14951.215976621626, 26715.98961543913, -16687.20891323196, -7363.670452078635, 13033.77157852311, -187500.02235174447, 28269.21233763842, -31262.110920204035, 0.622, -0.682, 0.446, 192.0, 0.0, 0.0, 0.0, 0.0, 0.0, 0.0, 0.0, 0.0, 0.0, 1.6635862094439404E9, 0.0, 2022-09-19 16:16:49.443
16.0, 14966.526921573512, 26724.170353909776, -16679.318747439236, -7357.031983975409, 13044.321601906015, -187500.02235174447, 28317.246236472874, -31261.350960892556, 0.622, -0.682, 0.446, 192.0, 0.0, 0.0, 0.0, 0.0, 0.0, 0.0, 0.0, 0.0, 0.0, 1.6635862094479756E9, 0.0, 2022-09-19 16:16:49.447
17.0, 14963.241215138582, 26711.116935147875, -16688.86294232165, -7364.966853257043, 13043.539290850078, -187500.02235174447, 28303.70107933296, -31273.733827320797, 0.622, -0.682, 0.446, 192.0, 0.0, 0.0, 0.0, 0.0, 0.0, 0.0, 0.0, 0.0, 0.0, 1.6635862094519775E9, 0.0, 2022-09-19 16:16:49.451
18.0, 14957.988555191585, 26683.37842027884, -16704.531515184823, -7378.064975507853, 13015.66666551431, -187500.02235174447, 28251.84503219665, -31283.412132669942, 0.628, -0.676, 0.442, 192.0, 19.0, 160.0, 234.0, 224.0, 13.0, 208.0, 0.0, 0.0, 0.0, 1.6635862094559128E9, 0.0, 2022-09-19 16:16:49.455
19.0, 14953.24998536706, 26660.28906825651, -16705.000901818385, -7368.654891092168, 12985.961197133209, -187500.02235174447, 28232.175497075976, -31266.33539990609, 0.628, -0.676, 0.442, 192.0, 0.0, 0.0, 0.0, 0.0, 0.0, 0.0, 0.0, 0.0, 0.0, 1.663586209459982E9, 0.0, 2022-09-19 16:16:49.459
20.0, 14961.207206393148, 26655.394036220794, -16690.092288266693, -7361.815257288845, 12975.299415028026, -187500.02235174447, 28256.36008457662, -31256.65709455694, 0.628, -0.676, 0.442, 192.0, 0.0, 0.0, 0.0, 0.0, 0.0, 0.0, 0.0, 0.0, 0.0, 1.663586209463945E9, 0.0, 2022-09-19 16:16:49.463
21.0, 14964.604671550354, 26652.51066118606, -16685.040794019795, -7361.859960777755, 12968.392725991336, -187500.02235174447, 28294.156884450542, -31251.918524732417, 0.628, -0.676, 0.442, 192.0, 0.0, 0.0, 0.0, 0.0, 0.0, 0.0, 0.0, 0.0, 0.0, 1.663586209469041E9, 0.0, 2022-09-19 16:16:49.469
22.0, 14951.372438832814, 26627.40965216275, -16699.480020937925, -7370.375975415227, 12936.787359331533, -187500.02235174447, 28271.40280859504, -31258.55699283564, 0.628, -0.676, 0.442, 192.0, 0.0, 0.0, 0.0, 0.0, 0.0, 0.0, 0.0, 0.0, 0.0, 1.6635862094719744E9, 0.0, 2022-09-19 16:16:49.471
23.0, 14940.91182242773, 26579.48751205057, -16716.69086416851, -7379.070804008342, 12882.7408412386, -187500.02235174447, 28205.57692117416, -31265.66484757243, 0.628, -0.676, 0.442, 192.0, 0.0, 0.0, 0.0, 0.0, 0.0, 0.0, 0.0, 0.0, 0.0, 1.6635862094760027E9, 0.0, 2022-09-19 16:16:49.476
24.0, 14940.844767194363, 26551.10079659233, -16715.617980434654, -7383.250580221485, 12850.599032711869, -187500.02235174447, 28183.71691509687, -31273.264440687235, 0.628, -0.676, 0.442, 192.0, 0.0, 0.0, 0.0, 0.0, 0.0, 0.0, 0.0, 0.0, 0.0, 1.663586209480069E9, 0.0, 2022-09-19 16:16:49.480
25.0, 14947.282069597491, 26538.807337141912, -16705.87261985214, -7385.1951819890955, 12837.702076161157, -187500.02235174447, 28204.0570025512, -31269.03996098518, 0.628, -0.676, 0.442, 192.0, 0.0, 0.0, 0.0, 0.0, 0.0, 0.0, 0.0, 0.0, 0.0, 1.6635862094840307E9, 0.0, 2022-09-19 16:16:49.484
26.0, 14947.237366108582, 26524.569275923885, -16701.53638142781, -7387.005673289976, 12821.809985853433, -187500.02235174447, 28237.87519191208, -31264.971943494314, 0.628, -0.676, 0.442, 192.0, 0.0, 0.0, 0.0, 0.0, 0.0, 0.0, 0.0, 0.0, 0.0, 1.663586209488045E9, 0.0, 2022-09-19 16:16:49.488
27.0, 14933.647505479754, 26488.180635950645, -16711.371148988146, -7405.267048509962, 12783.7673167905, -187500.02235174447, 28215.031709078758, -31287.658964116454, 0.628, -0.676, 0.442, 192.0, 0.0, 0.0, 0.0, 0.0, 0.0, 0.0, 0.0, 0.0, 0.0, 1.6635862094919796E9, 0.0, 2022-09-19 16:16:49.491
28.0, 14931.077054867394, 26445.08647264081, -16707.571352430743, -7404.596496176303, 12741.94720291462, -187500.02235174447, 28164.85204277659, -31281.71340009134, 0.63, -0.678, 0.44, 192.0, 19.0, 176.0, 234.0, 208.0, 13.0, 192.0, 0.0, 0.0, 0.0, 1.6635862094970405E9, 0.0, 2022-09-19 16:16:49.497
29.0, 14920.14705182875, 26402.640509920184, -16706.36435823016, -7397.376882717238, 12701.736414639523, -187500.02235174447, 28135.61596102905, -31273.15268196496, 0.63, -0.678, 0.44, 192.0, 0.0, 0.0, 0.0, 0.0, 0.0, 0.0, 0.0, 0.0, 0.0, 1.6635862095000525E9, 0.0, 2022-09-19 16:16:49.500
30.0, 14909.194697045648, 26368.46469264802, -16701.134050027616, -7393.085347781819, 12667.940577023099, -187500.02235174447, 28139.81808898665, -31263.18380393789, 0.63, -0.678, 0.44, 192.0, 0.0, 0.0, 0.0, 0.0, 0.0, 0.0, 0.0, 0.0, 0.0, 1.6635862095040548E9, 0.0, 2022-09-19 16:16:49.504
31.0, 14930.585316489378, 26349.599820327738, -16690.7404888559, -7396.683978639124, 12648.271041902428, -187500.02235174447, 28176.363191171076, -31265.038998727683, 0.63, -0.678, 0.44, 192.0, 0.0, 0.0, 0.0, 0.0, 0.0, 0.0, 0.0, 0.0, 0.0, 1.663586209508056E9, 0.0, 2022-09-19 16:16:49.508
32.0, 14923.388054774769, 26301.856494171203, -16704.039776806807, -7409.357417745283, 12600.706529701536, -187500.02235174447, 28152.446824603896, -31274.851414543562, 0.63, -0.678, 0.44, 192.0, 0.0, 0.0, 0.0, 0.0, 0.0, 0.0, 0.0, 0.0, 0.0, 1.6635862095120409E9, 0.0, 2022-09-19 16:16:49.512
33.0, 14911.385168002269, 26240.411548663564, -16716.914381613064, -7412.576068946847, 12543.508415640405, -187500.02235174447, 28090.89012037398, -31279.969964023825, 0.63, -0.678, 0.44, 192.0, 0.0, 0.0, 0.0, 0.0, 0.0, 0.0, 0.0, 0.0, 0.0, 1.6635862095160956E9, 0.0, 2022-09-19 16:16:49.516
34.0, 14912.033368591472, 26188.153170127058, -16717.22730603544, -7413.716007914068, 12496.390938328617, -187500.02235174447, 28060.134120003477, -31276.773664566717, 0.63, -0.678, 0.44, 192.0, 0.0, 0.0, 0.0, 0.0, 0.0, 0.0, 0.0, 0.0, 0.0, 1.663586209520053E9, 0.0, 2022-09-19 16:16:49.520
35.0, 14913.374473258791, 26145.103710306135, -16710.298265254292, -7408.6198101782575, 12460.51638847785, -187500.02235174447, 28065.878518328493, -31267.721208062318, 0.63, -0.678, 0.44, 192.0, 0.0, 0.0, 0.0, 0.0, 0.0, 0.0, 0.0, 0.0, 0.0, 1.6635862095250885E9, 0.0, 2022-09-19 16:16:49.525
36.0, 14907.250095278037, 26105.78699180925, -16709.113622798162, -7409.424472978649, 12428.821614840224, -187500.02235174447, 28092.924129119412, -31269.755216807753, 0.63, -0.678, 0.44, 192.0, 0.0, 0.0, 0.0, 0.0, 0.0, 0.0, 0.0, 0.0, 0.0, 1.6635862095280883E9, 0.0, 2022-09-19 16:16:49.528
37.0, 14897.638845162255, 26048.991209148313, -16713.91924785605, -7408.753920644989, 12378.887817727067, -187500.02235174447, 28072.78520736518, -31266.402455139454, 0.63, -0.678, 0.44, 192.0, 0.0, 0.0, 0.0, 0.0, 0.0, 0.0, 0.0, 0.0, 0.0, 1.663586209532071E9, 0.0, 2022-09-19 16:16:49.532
38.0, 14887.535856668455, 25965.105112207548, -16707.7948698753, -7394.784080360423, 12301.237857489332, -187500.02235174447, 28008.993328689736, -31248.632818297487, 0.632, -0.674, 0.436, 192.0, 19.0, 192.0, 234.0, 240.0, 13.0, 160.0, 0.0, 0.0, 0.0, 1.6635862095362608E9, 0.0, 2022-09-19 16:16:49.536
39.0, 14885.94888281213, 25872.926518073862, -16705.11266054066, -7394.538211171414, 12218.715216960338, -187500.02235174447, 27965.899165379902, -31248.61046655303, 0.632, -0.674, 0.436, 192.0, 0.0, 0.0, 0.0, 0.0, 0.0, 0.0, 0.0, 0.0, 0.0, 1.6635862095401404E9, 0.0, 2022-09-19 16:16:49.540
40.0, 14890.530990425468, 25793.086086879503, -16697.35660521467, -7399.902629840688, 12153.604585362029, -187500.02235174447, 27958.321924009553, -31256.09830094556, 0.632, -0.674, 0.436, 192.0, 0.0, 0.0, 0.0, 0.0, 0.0, 0.0, 0.0, 0.0, 0.0, 1.6635862095441055E9, 0.0, 2022-09-19 16:16:49.544
41.0, 14889.860438091808, 25726.880219802886, -16685.77840158682, -7406.876374110744, 12104.117823137978, -187500.02235174447, 27979.44432251982, -31269.28583017419, 0.632, -0.674, 0.436, 192.0, 0.0, 0.0, 0.0, 0.0, 0.0, 0.0, 0.0, 0.0, 0.0, 1.6635862095481875E9, 0.0, 2022-09-19 16:16:49.548
42.0, 14873.700126850621, 25650.057274109993, -16696.551942414277, -7407.636333422224, 12044.550424164585, -187500.02235174447, 27949.403577971887, -31261.105091703546, 0.632, -0.674, 0.436, 192.0, 0.0, 0.0, 0.0, 0.0, 0.0, 0.0, 0.0, 0.0, 0.0, 1.6635862095531757E9, 0.0, 2022-09-19 16:16:49.553
43.0, 14872.582539627856, 25562.90782247875, -16709.694768153997, -7399.992036818509, 11980.46797281122, -187500.02235174447, 27876.76040849214, -31248.65517004194, 0.632, -0.674, 0.436, 192.0, 0.0, 0.0, 0.0, 0.0, 0.0, 0.0, 0.0, 0.0, 0.0, 1.663586209556162E9, 0.0, 2022-09-19 16:16:49.556
44.0, 14883.42313568868, 25495.539664690456, -16711.25939026587, -7403.992999076009, 11937.239699034655, -187500.02235174447, 27838.918905129303, -31257.394702123966, 0.632, -0.674, 0.436, 192.0, 0.0, 0.0, 0.0, 0.0, 0.0, 0.0, 0.0, 0.0, 0.0, 1.6635862095601685E9, 0.0, 2022-09-19 16:16:49.560
45.0, 14886.865304334797, 25453.89836477022, -16694.987320302407, -7397.399234461694, 11924.02981806157, -187500.02235174447, 27850.98884713517, -31253.57255382211, 0.632, -0.674, 0.436, 192.0, 0.0, 0.0, 0.0, 0.0, 0.0, 0.0, 0.0, 0.0, 0.0, 1.6635862095641491E9, 0.0, 2022-09-19 16:16:49.564
46.0, 14894.531952682968, 25428.775004002455, -16681.576273629224, -7394.672321638146, 11928.321352996989, -187500.02235174447, 27894.083010445003, -31253.259629399734, 0.632, -0.674, 0.436, 192.0, 0.0, 0.0, 0.0, 0.0, 0.0, 0.0, 0.0, 0.0, 0.0, 1.663586209568166E9, 0.0, 2022-09-19 16:16:49.568
47.0, 14899.739909141053, 25386.396096515193, -16692.126297012128, -7398.852097851289, 11914.664437134796, -187500.02235174447, 27884.27059462912, -31256.433577112388, 0.632, -0.674, 0.436, 192.0, 0.0, 0.0, 0.0, 0.0, 0.0, 0.0, 0.0, 0.0, 0.0, 1.6635862095721955E9, 0.0, 2022-09-19 16:16:49.572
48.0, 14888.698147380132, 25325.554648107845, -16708.59953267569, -7404.261220009473, 11884.82485828696, -187500.02235174447, 27826.11135555641, -31258.37817888, 0.63, -0.676, 0.438, 192.0, 19.0, 176.0, 234.0, 224.0, 13.0, 176.0, 0.0, 0.0, 0.0, 1.6635862095761864E9, 0.0, 2022-09-19 16:16:49.576
49.0, 14885.457144434113, 25269.049438124828, -16712.98047458893, -7404.5070891984815, 11863.210721398678, -187500.02235174447, 27793.008422018105, -31263.80965278264, 0.63, -0.676, 0.438, 192.0, 0.0, 0.0, 0.0, 0.0, 0.0, 0.0, 0.0, 0.0, 0.0, 1.6635862095802429E9, 0.0, 2022-09-19 16:16:49.580
50.0, 14890.41923170319, 25228.883353338642, -16716.132070557127, -7418.588688205325, 11857.086343417925, -187500.02235174447, 27797.814047075994, -31282.62982161401, 0.63, -0.676, 0.438, 192.0, 0.0, 0.0, 0.0, 0.0, 0.0, 0.0, 0.0, 0.0, 0.0, 1.6635862095832253E9, 0.0, 2022-09-19 16:16:49.583
51.0, 14903.785574887464, 25208.36445192867, -16709.135974542616, -7414.878298625744, 11869.469209846166, -187500.02235174447, 27835.767309161107, -31274.42673139891, 0.63, -0.676, 0.438, 192.0, 0.0, 0.0, 0.0, 0.0, 0.0, 0.0, 0.0, 0.0, 0.0, 1.6635862095872085E9, 0.0, 2022-09-19 16:16:49.587
52.0, 14893.32495848238, 25171.573480555235, -16709.87358210964, -7416.375865504249, 11865.602358055397, -187500.02235174447, 27829.687634669262, -31274.650248843463, 0.63, -0.676, 0.438, 192.0, 0.0, 0.0, 0.0, 0.0, 0.0, 0.0, 0.0, 0.0, 0.0, 1.6635862095922613E9, 0.0, 2022-09-19 16:16:49.592
53.0, 14875.577673384867, 25110.575569936704, -16720.334198514724, -7411.458481724082, 11837.461511786165, -187500.02235174447, 27770.4555118627, -31262.75912079324, 0.63, -0.676, 0.438, 192.0, 0.0, 0.0, 0.0, 0.0, 0.0, 0.0, 0.0, 0.0, 0.0, 1.6635862095962946E9, 0.0, 2022-09-19 16:16:49.596
54.0, 14873.811885572897, 25066.408522893016, -16716.132070557127, -7402.204859519585, 11825.52568024703, -187500.02235174447, 27741.44294755971, -31256.880612001492, 0.63, -0.676, 0.438, 192.0, 0.0, 0.0, 0.0, 0.0, 0.0, 0.0, 0.0, 0.0, 0.0, 1.6635862096002085E9, 0.0, 2022-09-19 16:16:49.600
55.0, 14880.025670531473, 25035.42900507796, -16709.426547220533, -7398.60622866228, 11832.298258816989, -187500.02235174447, 27751.05419767549, -31255.695969545362, 0.63, -0.676, 0.438, 192.0, 0.0, 0.0, 0.0, 0.0, 0.0, 0.0, 0.0, 0.0, 0.0, 1.6635862096042209E9, 0.0, 2022-09-19 16:16:49.604
56.0, 14896.61066491731, 25016.541781013228, -16700.77642211633, -7397.823917606344, 11850.179654381234, -187500.02235174447, 27794.01425051859, -31257.349998635054, 0.63, -0.676, 0.438, 192.0, 0.0, 0.0, 0.0, 0.0, 0.0, 0.0, 0.0, 0.0, 0.0, 1.663586209608242E9, 0.0, 2022-09-19 16:16:49.608
57.0, 14890.151010769727, 24983.170626541454, -16708.510125697867, -7405.490565954515, 11850.58198578143, -187500.02235174447, 27790.437971405743, -31265.486033616788, 0.63, -0.676, 0.438, 192.0, 0.0, 0.0, 0.0, 0.0, 0.0, 0.0, 0.0, 0.0, 0.0, 1.6635862096112378E9, 0.0, 2022-09-19 16:16:49.611
58.0, 14883.981929300062, 24930.711082304846, -16718.099024069194, -7409.469176467559, 11831.024209383037, -187500.02235174447, 27733.01633990006, -31275.298449432667, 0.626, -0.672, 0.442, 192.0, 19.0, 144.0, 235.0, 0.0, 13.0, 208.0, 0.0, 0.0, 0.0, 1.6635862096152785E9, 0.0, 2022-09-19 16:16:49.615
59.0, 14886.194752001138, 24892.98133766429, -16716.288532768314, -7408.083368311331, 11826.106825602868, -187500.02235174447, 27709.547008221987, -31278.941783778882, 0.626, -0.672, 0.442, 192.0, 0.0, 0.0, 0.0, 0.0, 0.0, 0.0, 0.0, 0.0, 0.0, 1.6635862096202967E9, 0.0, 2022-09-19 16:16:49.620
60.0, 14887.446449690635, 24865.958078617823, -16711.527611199333, -7403.434205464627, 11832.119444861346, -187500.02235174447, 27719.024147871038, -31271.968039508825, 0.626, -0.672, 0.442, 192.0, 0.0, 0.0, 0.0, 0.0, 0.0, 0.0, 0.0, 0.0, 0.0, 1.663586209624262E9, 0.0, 2022-09-19 16:16:49.624
61.0, 14896.387147472758, 24851.094168555042, -16708.39836697559, -7417.247583538006, 11851.34194509291, -187500.02235174447, 27757.335037867433, -31288.485978661298, 0.626, -0.672, 0.442, 192.0, 0.0, 0.0, 0.0, 0.0, 0.0, 0.0, 0.0, 0.0, 0.0, 1.6635862096282663E9, 0.0, 2022-09-19 16:16:49.628
62.0, 14890.530990425468, 24818.95236002831, -16712.73460539992, -7418.27576378295, 11850.984317181626, -187500.02235174447, 27749.26605811907, -31276.125463977514, 0.626, -0.672, 0.442, 192.0, 0.0, 0.0, 0.0, 0.0, 0.0, 0.0, 0.0, 0.0, 0.0, 1.6635862096323054E9, 0.0, 2022-09-19 16:16:49.632
63.0, 14870.928510538162, 24769.107969892975, -16718.03196883583, -7404.887068854221, 11837.05918038597, -187500.02235174447, 27692.15735103576, -31260.099263203057, 0.626, -0.672, 0.442, 192.0, 0.0, 0.0, 0.0, 0.0, 0.0, 0.0, 0.0, 0.0, 0.0, 1.663586209635316E9, 0.0, 2022-09-19 16:16:49.635
64.0, 14875.734135596054, 24731.445280485783, -16716.22147753495, -7400.595533918802, 11837.640325741808, -187500.02235174447, 27667.52572864601, -31260.903926003448, 0.626, -0.672, 0.442, 192.0, 0.0, 0.0, 0.0, 0.0, 0.0, 0.0, 0.0, 0.0, 0.0, 1.6635862096392927E9, 0.0, 2022-09-19 16:16:49.639
65.0, 14886.060641534406, 24705.718422617727, -16710.767651887854, -7400.819051363355, 11848.413866569266, -187500.02235174447, 27679.86389158534, -31265.418978383423, 0.626, -0.672, 0.442, 192.0, 0.0, 0.0, 0.0, 0.0, 0.0, 0.0, 0.0, 0.0, 0.0, 1.663586209643335E9, 0.0, 2022-09-19 16:16:49.643
66.0, 14898.711728896109, 24693.290852700575, -16702.050471550283, -7401.355493230283, 11866.272910389056, -187500.02235174447, 27723.896828162295, -31263.563783593632, 0.626, -0.672, 0.442, 192.0, 0.0, 0.0, 0.0, 0.0, 0.0, 0.0, 0.0, 0.0, 0.0, 1.663586209648364E9, 0.0, 2022-09-19 16:16:49.648
67.0, 14894.151973027227, 24664.233584908678, -16702.58691341721, -7396.438109450115, 11866.317613877967, -187500.02235174447, 27723.852124673384, -31254.556030578144, 0.626, -0.672, 0.442, 192.0, 0.0, 0.0, 0.0, 0.0, 0.0, 0.0, 0.0, 0.0, 0.0, 1.6635862096523163E9, 0.0, 2022-09-19 16:16:49.652
68.0, 14883.490190922046, 24612.533999983552, -16713.583971689222, -7401.422548463649, 11842.513006033065, -187500.02235174447, 27670.006772280547, -31258.221716668813, 0.632, -0.674, 0.44, 192.0, 19.0, 192.0, 234.0, 240.0, 13.0, 192.0, 0.0, 0.0, 0.0, 1.6635862096563153E9, 0.0, 2022-09-19 16:16:49.656
69.0, 14882.484362421557, 24565.86355756087, -16719.350721758692, -7410.810281134878, 11824.497500002088, -187500.02235174447, 27643.56465858992, -31270.783397052695, 0.632, -0.674, 0.44, 192.0, 0.0, 0.0, 0.0, 0.0, 0.0, 0.0, 0.0, 0.0, 0.0, 1.6635862096604636E9, 0.0, 2022-09-19 16:16:49.660
70.0, 14881.925568810175, 24515.683891258705, -16727.12912882914, -7420.42153125066, 11802.749252647072, -187500.02235174447, 27641.105966699837, -31278.606507612054, 0.632, -0.674, 0.44, 192.0, 0.0, 0.0, 0.0, 0.0, 0.0, 0.0, 0.0, 0.0, 0.0, 1.6635862096633635E9, 0.0, 2022-09-19 16:16:49.663
71.0, 14892.944978826641, 24479.69758268566, -16718.300189769292, -7417.739321916023, 11795.037900809992, -187500.02235174447, 27676.5334816615, -31273.867937787527, 0.632, -0.674, 0.44, 192.0, 0.0, 0.0, 0.0, 0.0, 0.0, 0.0, 0.0, 0.0, 0.0, 1.663586209667374E9, 0.0, 2022-09-19 16:16:49.667
72.0, 14887.714670624098, 24414.45284062062, -16721.027102592838, -7415.593554448314, 11756.19056894667, -187500.02235174447, 27662.94362103267, -31266.245992928267, 0.632, -0.674, 0.44, 192.0, 0.0, 0.0, 0.0, 0.0, 0.0, 0.0, 0.0, 0.0, 0.0, 1.663586209671384E9, 0.0, 2022-09-19 16:16:49.671
73.0, 14869.207426215104, 24321.357824964267, -16717.40611999108, -7411.100853812797, 11689.962350125594, -187500.02235174447, 27599.017631890492, -31252.00793171024, 0.632, -0.674, 0.44, 192.0, 0.0, 0.0, 0.0, 0.0, 0.0, 0.0, 0.0, 0.0, 0.0, 1.663586209675376E9, 0.0, 2022-09-19 16:16:49.675
74.0, 14867.821618058875, 24223.725405183486, -16711.125279799136, -7406.675208410646, 11620.426073125134, -187500.02235174447, 27553.576535412853, -31239.289789115166, 0.632, -0.674, 0.44, 192.0, 0.0, 0.0, 0.0, 0.0, 0.0, 0.0, 0.0, 0.0, 0.0, 1.6635862096804051E9, 0.0, 2022-09-19 16:16:49.680
75.0, 14863.664193590188, 24119.745089977398, -16713.94159960051, -7422.7014091851015, 11545.10069431075, -187500.02235174447, 27531.649474102196, -31260.211021925334, 0.632, -0.674, 0.44, 192.0, 0.0, 0.0, 0.0, 0.0, 0.0, 0.0, 0.0, 0.0, 0.0, 1.6635862096843345E9, 0.0, 2022-09-19 16:16:49.684
76.0, 14863.932414523651, 24025.46543186491, -16711.952294343984, -7431.105665100296, 11480.168876668082, -187500.02235174447, 27543.227677730047, -31275.36550466603, 0.632, -0.674, 0.44, 192.0, 0.0, 0.0, 0.0, 0.0, 0.0, 0.0, 0.0, 0.0, 0.0, 1.6635862096884427E9, 0.0, 2022-09-19 16:16:49.688
77.0, 14853.114170207284, 23916.791250323207, -16719.283666525327, -7434.61488897978, 11402.563619919256, -187500.02235174447, 27520.898285019197, -31278.941783778882, 0.632, -0.674, 0.44, 192.0, 0.0, 0.0, 0.0, 0.0, 0.0, 0.0, 0.0, 0.0, 0.0, 1.663586209691394E9, 0.0, 2022-09-19 16:16:49.691
78.0, 14835.970382210064, 23781.94317602434, -16734.415797521568, -7429.362229032783, 11302.830136159675, -187500.02235174447, 27437.86155436773, -31255.09247244507, 0.632, -0.674, 0.44, 192.0, 0.0, 0.0, 0.0, 0.0, 0.0, 0.0, 0.0, 0.0, 0.0, 1.6635862096953392E9, 0.0, 2022-09-19 16:16:49.695
79.0, 14823.31929484836, 23652.861851794944, -16731.666532953564, -7415.101816070297, 11212.238515882316, -187500.02235174447, 27377.735361782954, -31229.835001210573, 0.632, -0.674, 0.442, 192.0, 19.0, 192.0, 234.0, 240.0, 13.0, 208.0, 0.0, 0.0, 0.0, 1.6635862096994104E9, 0.0, 2022-09-19 16:16:49.699
80.0, 14829.913059462675, 23544.8582225869, -16712.555791444276, -7409.178603789641, 11146.166759272428, -187500.02235174447, 27364.301963365313, -31225.61052150852, 0.632, -0.674, 0.442, 192.0, 0.0, 0.0, 0.0, 0.0, 0.0, 0.0, 0.0, 0.0, 0.0, 1.6635862097034934E9, 0.0, 2022-09-19 16:16:49.703
81.0, 14840.686600290133, 23453.149015086772, -16693.042718534794, -7411.637295679724, 11097.954046482331, -187500.02235174447, 27387.212501432005, -31233.90301870144, 0.632, -0.674, 0.442, 192.0, 0.0, 0.0, 0.0, 0.0, 0.0, 0.0, 0.0, 0.0, 0.0, 1.663586209708738E9, 0.0, 2022-09-19 16:16:49.708
82.0, 14831.611792041278, 23345.257144601008, -16698.027157548328, -7422.053208595898, 11035.033885840641, -187500.02235174447, 27369.21934714548, -31248.208135152836, 0.632, -0.674, 0.442, 192.0, 0.0, 0.0, 0.0, 0.0, 0.0, 0.0, 0.0, 0.0, 0.0, 1.6635862097123797E9, 0.0, 2022-09-19 16:16:49.712
83.0, 14813.909210432676, 23214.342977326272, -16713.561619944765, -7427.596441220813, 10954.187626145796, -187500.02235174447, 27289.8930060736, -31249.795109009163, 0.632, -0.674, 0.442, 192.0, 0.0, 0.0, 0.0, 0.0, 0.0, 0.0, 0.0, 0.0, 0.0, 1.6635862097154555E9, 0.0, 2022-09-19 16:16:49.715
84.0, 14813.819803454853, 23100.170266648565, -16713.718082155952, -7434.167854090674, 10893.145012038352, -187500.02235174447, 27241.277961883305, -31254.60073406705, 0.632, -0.674, 0.442, 192.0, 0.0, 0.0, 0.0, 0.0, 0.0, 0.0, 0.0, 0.0, 0.0, 1.6635862097194376E9, 0.0, 2022-09-19 16:16:49.719
85.0, 14817.239620356515, 23004.817724802226, -16708.845401864695, -7433.474950012559, 10851.079028973465, -187500.02235174447, 27232.471374567915, -31257.260591657236, 0.632, -0.674, 0.442, 192.0, 0.0, 0.0, 0.0, 0.0, 0.0, 0.0, 0.0, 0.0, 0.0, 1.6635862097234368E9, 0.0, 2022-09-19 16:16:49.723
86.0, 14829.466024573569, 22931.526354733272, -16701.514029683356, -7432.647935467713, 10833.309392131496, -187500.02235174447, 27266.58013660671, -31262.267382415223, 0.632, -0.674, 0.442, 192.0, 0.0, 0.0, 0.0, 0.0, 0.0, 0.0, 0.0, 0.0, 0.0, 1.663586209727455E9, 0.0, 2022-09-19 16:16:49.727
87.0, 14832.17058565266, 22851.50710958327, -16706.766689630353, -7434.547833746414, 10810.957647676189, -187500.02235174447, 27264.121444716628, -31268.61527784053, 0.632, -0.674, 0.442, 192.0, 0.0, 0.0, 0.0, 0.0, 0.0, 0.0, 0.0, 0.0, 0.0, 1.6635862097315378E9, 0.0, 2022-09-19 16:16:49.731
88.0, 14822.69344600361, 22762.79303584016, -16721.250620037394, -7435.9112901581875, 10781.36393801736, -187500.02235174447, 27207.68328996698, -31257.95349573535, 0.632, -0.674, 0.442, 192.0, 0.0, 0.0, 0.0, 0.0, 0.0, 0.0, 0.0, 0.0, 0.0, 1.6635862097355373E9, 0.0, 2022-09-19 16:16:49.735
89.0, 14828.259030372981, 22685.81362793608, -16713.896896111597, -7423.997810363509, 10765.069516309442, -187500.02235174447, 27172.70280989442, -31247.872858986004, 0.636, -0.676, 0.442, 192.0, 19.0, 224.0, 234.0, 224.0, 13.0, 208.0, 0.0, 0.0, 0.0, 1.6635862097405531E9, 0.0, 2022-09-19 16:16:49.740
90.0, 14832.818786241865, 22639.00907504667, -16703.659797151067, -7423.953106874598, 10781.430993250728, -187500.02235174447, 27184.258661777814, -31257.931143990892, 0.636, -0.676, 0.442, 192.0, 0.0, 0.0, 0.0, 0.0, 0.0, 0.0, 0.0, 0.0, 0.0, 1.663586209743584E9, 0.0, 2022-09-19 16:16:49.743
91.0, 14838.943164222619, 22625.41921441784, -16701.20110526098, -7429.026952865953, 10830.850700241412, -187500.02235174447, 27238.618104293124, -31266.491862117276, 0.636, -0.676, 0.442, 192.0, 0.0, 0.0, 0.0, 0.0, 0.0, 0.0, 0.0, 0.0, 0.0, 1.663586209747522E9, 0.0, 2022-09-19 16:16:49.747
92.0, 14841.692428790622, 22599.871170505427, -16710.544134443302, -7432.200900578607, 10865.048869258031, -187500.02235174447, 27256.119520201628, -31268.078835973603, 0.636, -0.676, 0.442, 192.0, 0.0, 0.0, 0.0, 0.0, 0.0, 0.0, 0.0, 0.0, 0.0, 1.6635862097515388E9, 0.0, 2022-09-19 16:16:49.751
93.0, 14839.613716556278, 22548.618620469406, -16726.391521262114, -7430.010429621987, 10872.447296672737, -187500.02235174447, 27214.500572025845, -31269.107016218546, 0.636, -0.676, 0.442, 192.0, 0.0, 0.0, 0.0, 0.0, 0.0, 0.0, 0.0, 0.0, 0.0, 1.6635862097555988E9, 0.0, 2022-09-19 16:16:49.755
94.0, 14850.454312617101, 22519.851925355426, -16725.475099739444, -7425.8530051533, 10899.336445252473, -187500.02235174447, 27206.900978911042, -31274.650248843463, 0.636, -0.676, 0.442, 192.0, 0.0, 0.0, 0.0, 0.0, 0.0, 0.0, 0.0, 0.0, 0.0, 1.6635862097595391E9, 0.0, 2022-09-19 16:16:49.759
95.0, 14859.37265865477, 22507.64787288283, -16712.93577110002, -7426.232984809039, 10942.989402173687, -187500.02235174447, 27238.796918248765, -31277.645382600473, 0.636, -0.676, 0.442, 192.0, 0.0, 0.0, 0.0, 0.0, 0.0, 0.0, 0.0, 0.0, 0.0, 1.6635862097635424E9, 0.0, 2022-09-19 16:16:49.763
96.0, 14869.6097576153, 22511.40296595132, -16691.96983480094, -7420.488586484026, 11002.400338935893, -187500.02235174447, 27303.907549847074, -31259.38400738049, 0.636, -0.676, 0.442, 192.0, 0.0, 0.0, 0.0, 0.0, 0.0, 0.0, 0.0, 0.0, 0.0, 1.6635862097685728E9, 0.0, 2022-09-19 16:16:49.768
97.0, 14877.70108910812, 22512.878181085372, -16690.651081878077, -7409.424472978649, 11058.369107051982, -187500.02235174447, 27336.31757930727, -31243.491917072766, 0.636, -0.676, 0.442, 192.0, 0.0, 0.0, 0.0, 0.0, 0.0, 0.0, 0.0, 0.0, 0.0, 1.663586209771535E9, 0.0, 2022-09-19 16:16:49.771
98.0, 14877.298757707926, 22506.59734089343, -16702.609265161667, -7406.362283988272, 11105.710101808323, -187500.02235174447, 27312.200047039994, -31245.525925818198, 0.636, -0.676, 0.442, 192.0, 0.0, 0.0, 0.0, 0.0, 0.0, 0.0, 0.0, 0.0, 0.0, 1.663586209775538E9, 0.0, 2022-09-19 16:16:49.775
99.0, 14888.921664824686, 22526.2668760141, -16705.53734368531, -7408.9103828561765, 11177.54860848768, -187500.02235174447, 27314.97166335245, -31251.829117754594, 0.634, -0.678, 0.442, 192.0, 19.0, 208.0, 234.0, 208.0, 13.0, 208.0, 0.0, 0.0, 0.0, 1.6635862097795615E9, 0.0, 2022-09-19 16:16:49.779
100.0, 14887.915836324197, 22543.120091333403, -16701.64814015009, -7418.141653316218, 11242.681591830444, -187500.02235174447, 27350.06390214728, -31260.14396669197, 0.634, -0.678, 0.442, 192.0, 0.0, 0.0, 0.0, 0.0, 0.0, 0.0, 0.0, 0.0, 0.0, 1.6635862097835803E9, 0.0, 2022-09-19 16:16:49.783
101.0, 14900.812792874909, 22571.819731214015, -16690.91930281154, -7415.258278281484, 11314.833022932175, -187500.02235174447, 27425.14341177266, -31254.645437555962, 0.634, -0.678, 0.442, 192.0, 0.0, 0.0, 0.0, 0.0, 0.0, 0.0, 0.0, 0.0, 0.0, 1.663586209787567E9, 0.0, 2022-09-19 16:16:49.787
102.0, 14898.622321918288, 22599.401783871865, -16693.892084824096, -7415.6606096816795, 11382.536456887301, -187500.02235174447, 27469.064589627338, -31256.679446301398, 0.634, -0.678, 0.442, 192.0, 0.0, 0.0, 0.0, 0.0, 0.0, 0.0, 0.0, 0.0, 0.0, 1.6635862097915652E9, 0.0, 2022-09-19 16:16:49.791
103.0, 14895.358967227814, 22606.487286864198, -16708.755994886877, -7425.51772898647, 11428.31282953177, -187500.02235174447, 27447.070473083317, -31267.832966784594, 0.634, -0.678, 0.442, 192.0, 0.0, 0.0, 0.0, 0.0, 0.0, 0.0, 0.0, 0.0, 0.0, 1.6635862097965972E9, 0.0, 2022-09-19 16:16:49.796
104.0, 14897.191810273149, 22626.514449896153, -16714.321579256248, -7429.876319155254, 11484.75098428142, -187500.02235174447, 27446.08699632728, -31274.13615872099, 0.634, -0.678, 0.442, 192.0, 0.0, 0.0, 0.0, 0.0, 0.0, 0.0, 0.0, 0.0, 0.0, 1.6635862097996926E9, 0.0, 2022-09-19 16:16:49.799
105.0, 14917.353083771835, 22677.81170342108, -16702.5422099283, -7426.1659295756735, 11569.911130656139, -187500.02235174447, 27499.462962086556, -31268.682333073895, 0.634, -0.678, 0.442, 192.0, 0.0, 0.0, 0.0, 0.0, 0.0, 0.0, 0.0, 0.0, 0.0, 1.663586209803588E9, 0.0, 2022-09-19 16:16:49.803
106.0, 14935.94973515865, 22738.004951239225, -16697.02132904784, -7429.205766821596, 11661.039192800426, -187500.02235174447, 27579.571614214376, -31282.383952425, 0.634, -0.678, 0.442, 192.0, 0.0, 0.0, 0.0, 0.0, 0.0, 0.0, 0.0, 0.0, 0.0, 1.6635862098075824E9, 0.0, 2022-09-19 16:16:49.807
107.0, 14938.542537515466, 22789.570425697617, -16716.69086416851, -7444.784932706944, 11739.56087107192, -187500.02235174447, 27627.158478159727, -31301.09236253409, 0.634, -0.678, 0.442, 192.0, 0.0, 0.0, 0.0, 0.0, 0.0, 0.0, 0.0, 0.0, 0.0, 1.6635862098115773E9, 0.0, 2022-09-19 16:16:49.811
108.0, 14933.28987756847, 22826.27199009323, -16728.53728872982, -7427.171758076162, 11800.491726457087, -187500.02235174447, 27614.395632075746, -31263.4296731269, 0.634, -0.678, 0.442, 192.0, 0.0, 0.0, 0.0, 0.0, 0.0, 0.0, 0.0, 0.0, 0.0, 1.6635862098156276E9, 0.0, 2022-09-19 16:16:49.815
109.0, 14932.216993834614, 22876.965746517868, -16725.519803228355, -7420.577993461847, 11876.286491905033, -187500.02235174447, 27624.878600225282, -31259.719283547318, 0.63, -0.674, 0.44, 192.0, 19.0, 176.0, 234.0, 240.0, 13.0, 192.0, 0.0, 0.0, 0.0, 1.663586209819584E9, 0.0, 2022-09-19 16:16:49.819
110.0, 14945.382171318792, 22948.938363663958, -16707.72781464193, -7420.645048695213, 11970.543798273064, -187500.02235174447, 27680.892071830283, -31270.403417396956, 0.63, -0.674, 0.44, 192.0, 0.0, 0.0, 0.0, 0.0, 0.0, 0.0, 0.0, 0.0, 0.0, 1.6635862098245792E9, 0.0, 2022-09-19 16:16:49.824
111.0, 14968.046840196472, 23041.251068264373, -16692.506276667867, -7419.929792872643, 12079.48620074823, -187500.02235174447, 27777.2057386882, -31276.505443633254, 0.63, -0.674, 0.44, 192.0, 0.0, 0.0, 0.0, 0.0, 0.0, 0.0, 0.0, 0.0, 0.0, 1.6635862098276217E9, 0.0, 2022-09-19 16:16:49.827
112.0, 14969.58911056389, 23125.33833090524, -16697.334253470213, -7422.56729871837, 12176.515123428719, -187500.02235174447, 27842.271666797602, -31280.66286810194, 0.63, -0.674, 0.44, 192.0, 0.0, 0.0, 0.0, 0.0, 0.0, 0.0, 0.0, 0.0, 0.0, 1.663586209831646E9, 0.0, 2022-09-19 16:16:49.831
113.0, 14965.588148306388, 23194.047593360854, -16712.578143188734, -7432.782045934445, 12252.108723176567, -187500.02235174447, 27843.568067976008, -31291.48111241831, 0.63, -0.674, 0.44, 192.0, 0.0, 0.0, 0.0, 0.0, 0.0, 0.0, 0.0, 0.0, 0.0, 1.6635862098357067E9, 0.0, 2022-09-19 16:16:49.835
114.0, 14965.968127962129, 23274.491521655505, -16719.68599792552, -7429.317525543872, 12338.58762247415, -187500.02235174447, 27865.830405453493, -31290.899967062473, 0.63, -0.674, 0.44, 192.0, 0.0, 0.0, 0.0, 0.0, 0.0, 0.0, 0.0, 0.0, 0.0, 1.6635862098396752E9, 0.0, 2022-09-19 16:16:49.839
115.0, 14970.77375302002, 23375.700220549134, -16716.17677404604, -7428.289345298928, 12445.473664459429, -187500.02235174447, 27931.05279577408, -31299.66185088895, 0.63, -0.674, 0.44, 192.0, 0.0, 0.0, 0.0, 0.0, 0.0, 0.0, 0.0, 0.0, 0.0, 1.6635862098436728E9, 0.0, 2022-09-19 16:16:49.843
116.0, 14986.665843327743, 23494.008003951076, -16713.2933990113, -7433.51965350147, 12565.34606997324, -187500.02235174447, 28031.948570245335, -31310.97183358334, 0.63, -0.674, 0.44, 192.0, 0.0, 0.0, 0.0, 0.0, 0.0, 0.0, 0.0, 0.0, 0.0, 1.6635862098476646E9, 0.0, 2022-09-19 16:16:49.847
117.0, 14994.511305631555, 23606.549037283545, -16715.439166479013, -7437.408857036693, 12671.65096660268, -187500.02235174447, 28109.79969618317, -31314.950444096383, 0.63, -0.674, 0.44, 192.0, 0.0, 0.0, 0.0, 0.0, 0.0, 0.0, 0.0, 0.0, 0.0, 1.6635862098517168E9, 0.0, 2022-09-19 16:16:49.851
118.0, 14979.44622986868, 23693.542026703602, -16724.893954383606, -7435.285441313439, 12747.356325072806, -187500.02235174447, 28119.43329804341, -31310.703612649875, 0.63, -0.674, 0.44, 192.0, 0.0, 0.0, 0.0, 0.0, 0.0, 0.0, 0.0, 0.0, 0.0, 1.663586209854688E9, 0.0, 2022-09-19 16:16:49.854
119.0, 14991.404413152268, 23794.929539552875, -16720.177736303536, -7426.210633064585, 12835.042218570974, -187500.02235174447, 28149.18346991342, -31299.728906122316, 0.63, -0.674, 0.44, 192.0, 19.0, 176.0, 234.0, 240.0, 13.0, 192.0, 0.0, 0.0, 0.0, 1.6635862098586557E9, 0.0, 2022-09-19 16:16:49.858
120.0, 15001.216828968149, 23908.83402929712, -16711.281742010324, -7424.310734785883, 12933.568708129967, -187500.02235174447, 28216.350462001617, -31295.213853742345, 0.63, -0.674, 0.44, 192.0, 0.0, 0.0, 0.0, 0.0, 0.0, 0.0, 0.0, 0.0, 0.0, 1.6635862098636997E9, 0.0, 2022-09-19 16:16:49.863
121.0, 15005.6424743703, 24039.256458193835, -16704.755032629375, -7427.7529034320005, 13050.066000231029, -187500.02235174447, 28318.006195784357, -31300.04183054469, 0.63, -0.674, 0.44, 192.0, 0.0, 0.0, 0.0, 0.0, 0.0, 0.0, 0.0, 0.0, 0.0, 1.6635862098679247E9, 0.0, 2022-09-19 16:16:49.867
122.0, 15015.745462864097, 24180.810055829294, -16700.910532583064, -7424.511900485981, 13172.08417321255, -187500.02235174447, 28407.591987561227, -31302.746391623783, 0.63, -0.674, 0.44, 192.0, 0.0, 0.0, 0.0, 0.0, 0.0, 0.0, 0.0, 0.0, 0.0, 1.6635862098716445E9, 0.0, 2022-09-19 16:16:49.871
123.0, 15022.294523989502, 24307.969130035537, -16713.382805989124, -7421.717932429067, 13273.270520361724, -187500.02235174447, 28430.658987839102, -31303.975737568828, 0.63, -0.674, 0.44, 192.0, 0.0, 0.0, 0.0, 0.0, 0.0, 0.0, 0.0, 0.0, 0.0, 1.6635862098757386E9, 0.0, 2022-09-19 16:16:49.875
124.0, 15028.128329292338, 24447.891050325758, -16716.82497463524, -7426.277688297951, 13384.246931582324, -187500.02235174447, 28470.78036913638, -31321.901836621983, 0.63, -0.674, 0.44, 192.0, 0.0, 0.0, 0.0, 0.0, 0.0, 0.0, 0.0, 0.0, 0.0, 1.663586209879768E9, 0.0, 2022-09-19 16:16:49.879
125.0, 15047.619050457366, 24609.807087160003, -16707.526648941835, -7431.887976156232, 13511.450709277477, -187500.02235174447, 28560.902602780177, -31335.49169725081, 0.63, -0.674, 0.44, 192.0, 0.0, 0.0, 0.0, 0.0, 0.0, 0.0, 0.0, 0.0, 0.0, 1.6635862098827667E9, 0.0, 2022-09-19 16:16:49.882
126.0, 15051.061219103483, 24772.684249005826, -16700.754070371877, -7422.500243485003, 13632.574812480785, -187500.02235174447, 28678.495130359548, -31315.017499329748, 0.63, -0.674, 0.44, 192.0, 0.0, 0.0, 0.0, 0.0, 0.0, 0.0, 0.0, 0.0, 0.0, 1.663586209886734E9, 0.0, 2022-09-19 16:16:49.886
127.0, 15057.431466273245, 24939.540021364694, -16703.25746575087, -7421.494414984515, 13756.090552340813, -187500.02235174447, 28778.429779819227, -31316.224493530335, 0.63, -0.674, 0.44, 192.0, 0.0, 0.0, 0.0, 0.0, 0.0, 0.0, 0.0, 0.0, 0.0, 1.6635862098917484E9, 0.0, 2022-09-19 16:16:49.891
128.0, 15068.942614667729, 25096.829247096688, -16715.483869967924, -7418.879260883244, 13867.782219383982, -187500.02235174447, 28817.65709133829, -31309.29545274919, 0.63, -0.674, 0.44, 192.0, 0.0, 0.0, 0.0, 0.0, 0.0, 0.0, 0.0, 0.0, 0.0, 1.6635862098957145E9, 0.0, 2022-09-19 16:16:49.895
129.0, 15069.03202164555, 25259.23702230895, -16727.956143373984, -7421.4720632400595, 13979.205665493688, -187500.02235174447, 28860.393626736837, -31311.86590336155, 0.628, -0.678, 0.436, 192.0, 19.0, 160.0, 234.0, 208.0, 13.0, 160.0, 0.0, 0.0, 0.0, 1.6635862098997576E9, 0.0, 2022-09-19 16:16:49.899
130.0, 15078.620920016876, 25442.8566030093, -16721.429433993035, -7419.505109727992, 14108.421100189818, -187500.02235174447, 28950.784081314097, -31316.15743829697, 0.628, -0.678, 0.436, 192.0, 0.0, 0.0, 0.0, 0.0, 0.0, 0.0, 0.0, 0.0, 0.0, 1.6635862099037623E9, 0.0, 2022-09-19 16:16:49.903
131.0, 15095.720004525187, 25620.64237840681, -16711.63936992161, -7419.818034150367, 14225.410130668895, -187500.02235174447, 29073.673972329376, -31311.642385916995, 0.628, -0.678, 0.436, 192.0, 0.0, 0.0, 0.0, 0.0, 0.0, 0.0, 0.0, 0.0, 0.0, 1.6635862099069028E9, 0.0, 2022-09-19 16:16:49.906
132.0, 15093.708347524209, 25779.138598339392, -16717.62963743563, -7428.177586576651, 14316.649951535459, -187500.02235174447, 29165.62904901851, -31320.96306335486, 0.628, -0.678, 0.436, 192.0, 0.0, 0.0, 0.0, 0.0, 0.0, 0.0, 0.0, 0.0, 0.0, 1.663586209910817E9, 0.0, 2022-09-19 16:16:49.910
133.0, 15086.354623598412, 25895.479428229264, -16735.779253933342, -7435.240737824529, 14362.359268946562, -187500.02235174447, 29177.989563702296, -31328.04856634719, 0.628, -0.678, 0.436, 192.0, 0.0, 0.0, 0.0, 0.0, 0.0, 0.0, 0.0, 0.0, 0.0, 1.663586209914785E9, 0.0, 2022-09-19 16:16:49.914
134.0, 15080.923149695773, 25996.509313167255, -16742.730646458942, -7444.896691429221, 14388.488458214815, -187500.02235174447, 29196.20623543337, -31337.570409485154, 0.628, -0.678, 0.436, 192.0, 0.0, 0.0, 0.0, 0.0, 0.0, 0.0, 0.0, 0.0, 0.0, 1.6635862099198253E9, 0.0, 2022-09-19 16:16:49.919
135.0, 15071.982451913651, 26090.431343368455, -16735.712198699977, -7433.542005245925, 14407.509792746281, -187500.02235174447, 29246.83293662464, -31307.66377540395, 0.628, -0.678, 0.436, 192.0, 0.0, 0.0, 0.0, 0.0, 0.0, 0.0, 0.0, 0.0, 0.0, 1.6635862099238043E9, 0.0, 2022-09-19 16:16:49.923
136.0, 15070.954271668706, 26176.59731824366, -16720.647122937098, -7415.0124090924755, 14416.785766695235, -187500.02235174447, 29321.443059616457, -31286.42961817141, 0.628, -0.678, 0.436, 192.0, 0.0, 0.0, 0.0, 0.0, 0.0, 0.0, 0.0, 0.0, 0.0, 1.6635862099277987E9, 0.0, 2022-09-19 16:16:49.927
137.0, 15062.08062911995, 26235.76238581686, -16723.3963875051, -7419.147481816707, 14397.116231574564, -187500.02235174447, 29366.638286905087, -31288.75419959476, 0.628, -0.678, 0.436, 192.0, 0.0, 0.0, 0.0, 0.0, 0.0, 0.0, 0.0, 0.0, 0.0, 1.6635862099317884E9, 0.0, 2022-09-19 16:16:49.931
138.0, 15057.431466273245, 26275.257918269388, -16725.83272765073, -7416.8899556267215, 14365.019126536743, -187500.02235174447, 29353.406054187544, -31286.876653060517, 0.628, -0.678, 0.436, 192.0, 0.0, 0.0, 0.0, 0.0, 0.0, 0.0, 0.0, 0.0, 0.0, 1.6635862099348838E9, 0.0, 2022-09-19 16:16:49.934
139.0, 15051.284736548036, 26318.35208157922, -16731.487718997923, -7422.947278374109, 14350.334030429607, -187500.02235174447, 29344.308894194233, -31299.505388677764, 0.632, -0.676, 0.438, 192.0, 19.0, 192.0, 234.0, 224.0, 13.0, 176.0, 0.0, 0.0, 0.0, 1.6635862099388268E9, 0.0, 2022-09-19 16:16:49.938
140.0, 15053.206986571193, 26405.70269891056, -16731.063035853273, -7432.267955811973, 14383.973405834844, -187500.02235174447, 29386.888967381594, -31318.1914470424, 0.632, -0.676, 0.438, 192.0, 0.0, 0.0, 0.0, 0.0, 0.0, 0.0, 0.0, 0.0, 0.0, 1.6635862099427874E9, 0.0, 2022-09-19 16:16:49.942
141.0, 15056.671506961764, 26502.642214613228, -16716.042663579305, -7425.830653408844, 14426.553479022203, -187500.02235174447, 29466.483529386944, -31307.507313192764, 0.632, -0.676, 0.438, 192.0, 0.0, 0.0, 0.0, 0.0, 0.0, 0.0, 0.0, 0.0, 0.0, 1.663586209946978E9, 0.0, 2022-09-19 16:16:49.946
142.0, 15046.83673940143, 26545.892840134245, -16711.92994259953, -7422.5896504628245, 14409.454394513894, -187500.02235174447, 29513.332785765266, -31300.444161944888, 0.632, -0.676, 0.438, 192.0, 0.0, 0.0, 0.0, 0.0, 0.0, 0.0, 0.0, 0.0, 0.0, 1.6635862099518957E9, 0.0, 2022-09-19 16:16:49.951
143.0, 15037.046675330004, 26554.185337327166, -16718.970742102952, -7411.994923591009, 14357.821864822134, -187500.02235174447, 29485.63897438514, -31281.020496013225, 0.632, -0.676, 0.438, 192.0, 0.0, 0.0, 0.0, 0.0, 0.0, 0.0, 0.0, 0.0, 0.0, 1.663586209955843E9, 0.0, 2022-09-19 16:16:49.955
144.0, 15031.63755317182, 26573.11726488081, -16718.300189769292, -7402.98717057552, 14321.053245193154, -187500.02235174447, 29461.87907002915, -31276.37133316652, 0.632, -0.676, 0.438, 192.0, 0.0, 0.0, 0.0, 0.0, 0.0, 0.0, 0.0, 0.0, 0.0, 1.6635862099599671E9, 0.0, 2022-09-19 16:16:49.959
145.0, 15042.142873065815, 26629.130736485808, -16714.88037286763, -7401.869583352755, 14325.143614428474, -187500.02235174447, 29489.103494775714, -31285.42378967092, 0.632, -0.676, 0.438, 192.0, 0.0, 0.0, 0.0, 0.0, 0.0, 0.0, 0.0, 0.0, 0.0, 1.663586209963895E9, 0.0, 2022-09-19 16:16:49.963
146.0, 15054.481036005145, 26702.086830387932, -16705.894971596597, -7407.301057255395, 14349.596422862582, -187500.02235174447, 29551.241344361468, -31297.404324698968, 0.632, -0.676, 0.438, 192.0, 0.0, 0.0, 0.0, 0.0, 0.0, 0.0, 0.0, 0.0, 0.0, 1.6635862099669268E9, 0.0, 2022-09-19 16:16:49.966
147.0, 15056.22447207266, 26767.622145130892, -16700.754070371877, -7399.142670529208, 14363.610966636059, -187500.02235174447, 29597.24123445049, -31280.931089035406, 0.632, -0.676, 0.438, 192.0, 0.0, 0.0, 0.0, 0.0, 0.0, 0.0, 0.0, 0.0, 0.0, 1.663586209970926E9, 0.0, 2022-09-19 16:16:49.970
148.0, 15041.695838176709, 26797.126447811897, -16718.099024069194, -7398.516821684459, 14334.9336784999, -187500.02235174447, 29561.36668459972, -31273.487958131787, 0.632, -0.676, 0.438, 192.0, 0.0, 0.0, 0.0, 0.0, 0.0, 0.0, 0.0, 0.0, 0.0, 1.6635862099759407E9, 0.0, 2022-09-19 16:16:49.975
149.0, 15041.047637587506, 26826.273122581617, -16725.855079395187, -7399.299132740394, 14299.30499783814, -187500.02235174447, 29529.873076662196, -31280.52875763521, 0.634, -0.672, 0.436, 192.0, 19.0, 208.0, 235.0, 0.0, 13.0, 160.0, 0.0, 0.0, 0.0, 1.6635862099798677E9, 0.0, 2022-09-19 16:16:49.979
150.0, 15042.612259699377, 26875.245794683196, -16717.674340924543, -7393.442975693104, 14285.40221278694, -187500.02235174447, 29544.871097191706, -31275.924298277416, 0.634, -0.672, 0.436, 192.0, 0.0, 0.0, 0.0, 0.0, 0.0, 0.0, 0.0, 0.0, 0.0, 1.663586209983988E9, 0.0, 2022-09-19 16:16:49.983
151.0, 15047.663753946275, 26930.074623832064, -16708.130146042127, -7393.152403015185, 14289.11260236652, -187500.02235174447, 29588.211129690546, -31275.253745943755, 0.634, -0.672, 0.436, 192.0, 0.0, 0.0, 0.0, 0.0, 0.0, 0.0, 0.0, 0.0, 0.0, 1.6635862099869049E9, 0.0, 2022-09-19 16:16:49.986
152.0, 15049.228376058147, 26978.28733662216, -16701.312863983258, -7391.453670436582, 14295.281683836185, -187500.02235174447, 29619.77179286144, -31268.65998132944, 0.634, -0.672, 0.436, 192.0, 0.0, 0.0, 0.0, 0.0, 0.0, 0.0, 0.0, 0.0, 0.0, 1.6635862099909332E9, 0.0, 2022-09-19 16:16:49.990
153.0, 15039.393608497812, 27000.30380491064, -16709.046567564794, -7388.145612257196, 14277.690860949859, -187500.02235174447, 29580.209205175546, -31265.731902805797, 0.634, -0.672, 0.436, 192.0, 0.0, 0.0, 0.0, 0.0, 0.0, 0.0, 0.0, 0.0, 0.0, 1.6635862099949377E9, 0.0, 2022-09-19 16:16:49.994
154.0, 15036.152605551793, 27023.25904646624, -16714.522744956346, -7386.089251767308, 14260.97175609729, -187500.02235174447, 29543.351178568744, -31275.85724304405, 0.634, -0.672, 0.436, 192.0, 0.0, 0.0, 0.0, 0.0, 0.0, 0.0, 0.0, 0.0, 0.0, 1.6635862099989743E9, 0.0, 2022-09-19 16:16:49.998
155.0, 15036.890213118819, 27059.78179690621, -16714.83566937872, -7393.219458248551, 14255.137950794453, -187500.02235174447, 29547.41919605961, -31282.316897191635, 0.634, -0.672, 0.436, 192.0, 0.0, 0.0, 0.0, 0.0, 0.0, 0.0, 0.0, 0.0, 0.0, 1.6635862100029697E9, 0.0, 2022-09-19 16:16:50.002
156.0, 15037.247841030103, 27098.4950183028, -16708.800698375788, -7397.689807139613, 14252.120465292986, -187500.02235174447, 29579.270431908422, -31282.13808323599, 0.634, -0.672, 0.436, 192.0, 0.0, 0.0, 0.0, 0.0, 0.0, 0.0, 0.0, 0.0, 0.0, 1.6635862100069685E9, 0.0, 2022-09-19 16:16:50.006
157.0, 15024.30618099048, 27120.399727869004, -16709.515954198356, -7401.266086252462, 14230.551031893616, -187500.02235174447, 29595.29663268288, -31286.42961817141, 0.634, -0.672, 0.436, 192.0, 0.0, 0.0, 0.0, 0.0, 0.0, 0.0, 0.0, 0.0, 0.0, 1.6635862100119233E9, 0.0, 2022-09-19 16:16:50.011
158.0, 15019.5452594215, 27110.587312053125, -16719.171907803047, -7396.974551317043, 14169.75428697518, -187500.02235174447, 29538.433794788576, -31276.550147122165, 0.634, -0.672, 0.436, 192.0, 0.0, 0.0, 0.0, 0.0, 0.0, 0.0, 0.0, 0.0, 0.0, 1.663586210014956E9, 0.0, 2022-09-19 16:16:50.014
159.0, 15016.125442519839, 27099.50084680329, -16714.83566937872, -7377.953216785577, 14105.02363503261, -187500.02235174447, 29480.386314438143, -31250.398606109455, 0.636, -0.678, 0.434, 192.0, 19.0, 224.0, 234.0, 208.0, 13.0, 144.0, 0.0, 0.0, 0.0, 1.6635862100189884E9, 0.0, 2022-09-19 16:16:50.018
160.0, 15012.01272154006, 27101.60191078209, -16713.11458505566, -7379.897818553188, 14055.849797230936, -187500.02235174447, 29459.800357794807, -31256.14300443447, 0.636, -0.678, 0.434, 192.0, 0.0, 0.0, 0.0, 0.0, 0.0, 0.0, 0.0, 0.0, 0.0, 1.6635862100230904E9, 0.0, 2022-09-19 16:16:50.023
161.0, 15008.481145916123, 27127.373472139057, -16709.426547220533, -7383.138821499208, 14032.671038230783, -187500.02235174447, 29482.59913713922, -31267.341228406578, 0.636, -0.678, 0.434, 192.0, 0.0, 0.0, 0.0, 0.0, 0.0, 0.0, 0.0, 0.0, 0.0, 1.6635862100269935E9, 0.0, 2022-09-19 16:16:50.026
162.0, 14999.786317323009, 27162.75628361181, -16712.801660633286, -7388.503240168481, 14026.34549454993, -187500.02235174447, 29507.11900080669, -31273.19738545387, 0.636, -0.678, 0.434, 192.0, 0.0, 0.0, 0.0, 0.0, 0.0, 0.0, 0.0, 0.0, 0.0, 1.6635862100310147E9, 0.0, 2022-09-19 16:16:50.031
163.0, 15005.865991814851, 27170.445283704437, -16717.22730603544, -7383.205876732573, 14003.703177416704, -187500.02235174447, 29466.103549731204, -31260.412187625432, 0.636, -0.678, 0.434, 192.0, 0.0, 0.0, 0.0, 0.0, 0.0, 0.0, 0.0, 0.0, 0.0, 1.6635862100361E9, 0.0, 2022-09-19 16:16:50.036
164.0, 15011.990369795605, 27169.081827292663, -16712.444032722, -7380.098984253286, 13971.628424123339, -187500.02235174447, 29419.142534630602, -31262.647362070962, 0.636, -0.678, 0.434, 192.0, 0.0, 0.0, 0.0, 0.0, 0.0, 0.0, 0.0, 0.0, 0.0, 1.6635862100400586E9, 0.0, 2022-09-19 16:16:50.040
165.0, 15012.884439573818, 27178.80483613072, -16710.477079209933, -7388.6597023796685, 13938.95017372968, -187500.02235174447, 29408.883083925615, -31274.471434887822, 0.636, -0.678, 0.434, 192.0, 0.0, 0.0, 0.0, 0.0, 0.0, 0.0, 0.0, 0.0, 0.0, 1.6635862100430505E9, 0.0, 2022-09-19 16:16:50.043
166.0, 15019.098224532394, 27203.5705689872, -16702.810430861766, -7389.8890483247105, 13916.218449618633, -187500.02235174447, 29437.470965083954, -31260.74746379226, 0.636, -0.678, 0.434, 192.0, 0.0, 0.0, 0.0, 0.0, 0.0, 0.0, 0.0, 0.0, 0.0, 1.6635862100470357E9, 0.0, 2022-09-19 16:16:50.047
167.0, 15013.130308762826, 27217.026319149296, -16705.269122751848, -7393.219458248551, 13883.294330035966, -187500.02235174447, 29450.189107679023, -31266.111882461537, 0.636, -0.678, 0.434, 192.0, 0.0, 0.0, 0.0, 0.0, 0.0, 0.0, 0.0, 0.0, 0.0, 1.6635862100510404E9, 0.0, 2022-09-19 16:16:50.051
168.0, 14997.506439388568, 27209.694946967957, -16713.226343777937, -7394.202935004585, 13832.198242211134, -187500.02235174447, 29401.14938034408, -31257.931143990892, 0.636, -0.678, 0.434, 192.0, 0.0, 0.0, 0.0, 0.0, 0.0, 0.0, 0.0, 0.0, 0.0, 1.6635862100550141E9, 0.0, 2022-09-19 16:16:50.055
169.0, 14997.864067299852, 27202.922368397998, -16711.482907710422, -7393.8229553488445, 13788.142953889723, -187500.02235174447, 29359.99981880186, -31251.47148984331, 0.632, -0.68, 0.44, 192.0, 19.0, 192.0, 234.0, 192.0, 13.0, 192.0, 0.0, 0.0, 0.0, 1.6635862100590727E9, 0.0, 2022-09-19 16:16:50.059
170.0, 15001.172125479237, 27210.656071979534, -16700.97758781643, -7403.031874064431, 13768.361660046776, -187500.02235174447, 29375.042542820283, -31266.536565606188, 0.632, -0.68, 0.44, 192.0, 0.0, 0.0, 0.0, 0.0, 0.0, 0.0, 0.0, 0.0, 0.0, 1.6635862100631173E9, 0.0, 2022-09-19 16:16:50.063
171.0, 15004.077852258428, 27241.456775838946, -16683.72204109693, -7408.396292733704, 13772.563788004374, -187500.02235174447, 29446.769290777363, -31271.990391253283, 0.632, -0.68, 0.44, 192.0, 0.0, 0.0, 0.0, 0.0, 0.0, 0.0, 0.0, 0.0, 0.0, 1.6635862100681064E9, 0.0, 2022-09-19 16:16:50.068
172.0, 15010.090471516905, 27266.468377884434, -16684.370241686134, -7412.151385802196, 13768.361660046776, -187500.02235174447, 29517.959596867517, -31265.821309783616, 0.632, -0.68, 0.44, 192.0, 0.0, 0.0, 0.0, 0.0, 0.0, 0.0, 0.0, 0.0, 0.0, 1.663586210071086E9, 0.0, 2022-09-19 16:16:50.071
173.0, 15020.506384433078, 27269.217642452437, -16692.34981445668, -7426.277688297951, 13730.542508428396, -187500.02235174447, 29537.875001177195, -31274.76200756574, 0.632, -0.68, 0.44, 192.0, 0.0, 0.0, 0.0, 0.0, 0.0, 0.0, 0.0, 0.0, 0.0, 1.6635862100750933E9, 0.0, 2022-09-19 16:16:50.075
174.0, 15013.957323307674, 27265.06021798375, -16701.02229130534, -7433.340839545827, 13679.55817932584, -187500.02235174447, 29556.583411286287, -31266.380103395, 0.632, -0.68, 0.44, 192.0, 0.0, 0.0, 0.0, 0.0, 0.0, 0.0, 0.0, 0.0, 0.0, 1.6635862100802004E9, 0.0, 2022-09-19 16:16:50.080
175.0, 15005.754233092575, 27266.714247073443, -16703.92801808453, -7446.841293196833, 13637.626306727685, -187500.02235174447, 29604.371440931733, -31274.158510465448, 0.632, -0.68, 0.44, 192.0, 0.0, 0.0, 0.0, 0.0, 0.0, 0.0, 0.0, 0.0, 0.0, 1.6635862100840583E9, 0.0, 2022-09-19 16:16:50.084
176.0, 15024.932029835229, 27293.893968331096, -16696.037852291807, -7453.569168277881, 13622.94121062055, -187500.02235174447, 29695.477151331565, -31281.1322547355, 0.632, -0.68, 0.44, 192.0, 0.0, 0.0, 0.0, 0.0, 0.0, 0.0, 0.0, 0.0, 0.0, 1.6635862100870245E9, 0.0, 2022-09-19 16:16:50.087
177.0, 15041.248803287603, 27323.107698334185, -16694.562637157756, -7464.298005616428, 13624.371722265689, -187500.02235174447, 29770.914288868225, -31296.15262700947, 0.632, -0.68, 0.44, 192.0, 0.0, 0.0, 0.0, 0.0, 0.0, 0.0, 0.0, 0.0, 0.0, 1.6635862100911708E9, 0.0, 2022-09-19 16:16:50.091
178.0, 15026.988390325118, 27329.142669337118, -16701.96106457246, -7468.321319618383, 13620.437815241554, -187500.02235174447, 29762.442977719664, -31289.916490306437, 0.632, -0.68, 0.44, 192.0, 0.0, 0.0, 0.0, 0.0, 0.0, 0.0, 0.0, 0.0, 0.0, 1.6635862100961533E9, 0.0, 2022-09-19 16:16:50.096
179.0, 15016.997160553594, 27323.3982710121, -16705.336177985213, -7459.9170637031875, 13608.323169746778, -187500.02235174447, 29716.219570186087, -31283.76976058123, 0.632, -0.68, 0.44, 192.0, 0.0, 0.0, 0.0, 0.0, 0.0, 0.0, 0.0, 0.0, 0.0, 1.6635862100991044E9, 0.0, 2022-09-19 16:16:50.099
180.0, 15012.839736084909, 27324.471154745956, -16713.15928854457, -7467.293139373439, 13599.047195797826, -187500.02235174447, 29686.625860527263, -31291.01172578475, 0.624, -0.676, 0.452, 192.0, 19.0, 128.0, 234.0, 224.0, 14.0, 32.0, 0.0, 0.0, 0.0, 1.663586210103172E9, 0.0, 2022-09-19 16:16:50.103
181.0, 15019.232334999126, 27336.69755896301, -16719.350721758692, -7475.071546443885, 13588.296006714823, -187500.02235174447, 29683.02722966996, -31289.983545539802, 0.624, -0.676, 0.452, 192.0, 0.0, 0.0, 0.0, 0.0, 0.0, 0.0, 0.0, 0.0, 0.0, 1.6635862101071296E9, 0.0, 2022-09-19 16:16:50.107
182.0, 15005.01662552555, 27345.146518367117, -16720.602419448187, -7480.055985457419, 13575.644919353119, -187500.02235174447, 29678.400418567708, -31288.351868194568, 0.624, -0.676, 0.452, 192.0, 0.0, 0.0, 0.0, 0.0, 0.0, 0.0, 0.0, 0.0, 0.0, 1.66358621011113E9, 0.0, 2022-09-19 16:16:50.111
183.0, 14983.581302592911, 27330.617884471165, -16724.82689915024, -7478.021976711986, 13540.843253236206, -187500.02235174447, 29604.438496165098, -31291.414057184942, 0.624, -0.676, 0.452, 192.0, 0.0, 0.0, 0.0, 0.0, 0.0, 0.0, 0.0, 0.0, 0.0, 1.6635862101151385E9, 0.0, 2022-09-19 16:16:50.115
184.0, 14984.274206671025, 27317.22918954244, -16718.814279891765, -7462.375755593272, 13510.400177288078, -187500.02235174447, 29525.17921032658, -31275.723132577317, 0.624, -0.676, 0.452, 192.0, 0.0, 0.0, 0.0, 0.0, 0.0, 0.0, 0.0, 0.0, 0.0, 1.663586210119182E9, 0.0, 2022-09-19 16:16:50.119
185.0, 14972.003098965062, 27310.568369694756, -16717.4955269689, -7455.781990978956, 13491.62471194562, -187500.02235174447, 29479.581651637753, -31272.213908697835, 0.624, -0.676, 0.452, 192.0, 0.0, 0.0, 0.0, 0.0, 0.0, 0.0, 0.0, 0.0, 0.0, 1.6635862101241665E9, 0.0, 2022-09-19 16:16:50.124
186.0, 14986.285863672003, 27328.852096659197, -16707.012558819362, -7443.399124550716, 13505.706310952462, -187500.02235174447, 29484.722552862473, -31255.919486989915, 0.624, -0.676, 0.452, 192.0, 0.0, 0.0, 0.0, 0.0, 0.0, 0.0, 0.0, 0.0, 0.0, 1.6635862101271617E9, 0.0, 2022-09-19 16:16:50.127
187.0, 15001.686215601709, 27353.282553348847, -16704.6432739071, -7442.817979194878, 13527.163985629557, -187500.02235174447, 29498.06654430229, -31264.189632438378, 0.624, -0.676, 0.452, 192.0, 0.0, 0.0, 0.0, 0.0, 0.0, 0.0, 0.0, 0.0, 0.0, 1.6635862101302445E9, 0.0, 2022-09-19 16:16:50.130
188.0, 14993.684291086709, 27347.091120134726, -16714.5450967008, -7442.572110005869, 13515.652837235075, -187500.02235174447, 29442.991845964414, -31269.978734252305, 0.624, -0.676, 0.452, 192.0, 0.0, 0.0, 0.0, 0.0, 0.0, 0.0, 0.0, 0.0, 0.0, 1.663586210135195E9, 0.0, 2022-09-19 16:16:50.135
189.0, 14986.375270649824, 27338.17277409706, -16713.896896111597, -7435.218386080073, 13490.730642167407, -187500.02235174447, 29387.805388904264, -31273.800882554162, 0.624, -0.676, 0.452, 192.0, 0.0, 0.0, 0.0, 0.0, 0.0, 0.0, 0.0, 0.0, 0.0, 1.6635862101391823E9, 0.0, 2022-09-19 16:16:50.139
190.0, 14983.91657875974, 27338.061015374784, -16709.426547220533, -7430.390409277727, 13465.339060466178, -187500.02235174447, 29372.29327825228, -31272.0797982311, 0.628, -0.674, 0.448, 192.0, 19.0, 160.0, 234.0, 240.0, 14.0, 0.0, 0.0, 0.0, 0.0, 1.6635862101431415E9, 0.0, 2022-09-19 16:16:50.143
191.0, 14983.96128224865, 27346.42056780107, -16702.855134350673, -7426.210633064585, 13450.855130059139, -187500.02235174447, 29388.744162171384, -31259.115786447026, 0.628, -0.674, 0.448, 192.0, 0.0, 0.0, 0.0, 0.0, 0.0, 0.0, 0.0, 0.0, 0.0, 1.6635862101472657E9, 0.0, 2022-09-19 16:16:50.147
192.0, 14988.409279395257, 27362.916155209085, -16698.228323248426, -7420.198013806107, 13444.484882889377, -187500.02235174447, 29416.035642151313, -31248.543411319664, 0.628, -0.674, 0.448, 192.0, 0.0, 0.0, 0.0, 0.0, 0.0, 0.0, 0.0, 0.0, 0.0, 1.6635862101512554E9, 0.0, 2022-09-19 16:16:50.151
193.0, 14968.717392530132, 27352.12026263717, -16713.271047266848, -7425.003638863998, 13414.17591740798, -187500.02235174447, 29374.997839331372, -31256.94766723486, 0.628, -0.674, 0.448, 192.0, 0.0, 0.0, 0.0, 0.0, 0.0, 0.0, 0.0, 0.0, 0.0, 1.6635862101542113E9, 0.0, 2022-09-19 16:16:50.154
194.0, 14954.501683056556, 27337.99396014142, -16713.561619944765, -7421.874394640255, 13382.727012959363, -187500.02235174447, 29323.789992784263, -31260.970981236816, 0.628, -0.674, 0.448, 192.0, 0.0, 0.0, 0.0, 0.0, 0.0, 0.0, 0.0, 0.0, 0.0, 1.6635862101582608E9, 0.0, 2022-09-19 16:16:50.158
195.0, 14980.653224069265, 27342.50901252139, -16697.06603253675, -7409.715045656568, 13378.994271635327, -187500.02235174447, 29316.95035898094, -31258.199364924356, 0.628, -0.674, 0.448, 192.0, 0.0, 0.0, 0.0, 0.0, 0.0, 0.0, 0.0, 0.0, 0.0, 1.6635862101631796E9, 0.0, 2022-09-19 16:16:50.163
196.0, 14998.936951033707, 27359.11635865168, -16685.59958763118, -7408.351589244794, 13396.94272243294, -187500.02235174447, 29339.659731347532, -31266.268344672724, 0.628, -0.674, 0.448, 192.0, 0.0, 0.0, 0.0, 0.0, 0.0, 0.0, 0.0, 0.0, 0.0, 1.6635862101672668E9, 0.0, 2022-09-19 16:16:50.167
197.0, 14999.026358011528, 27379.65761180611, -16682.783267829807, -7407.70338865559, 13418.780376765773, -187500.02235174447, 29366.191252015982, -31271.34219066408, 0.628, -0.674, 0.448, 192.0, 0.0, 0.0, 0.0, 0.0, 0.0, 0.0, 0.0, 0.0, 0.0, 1.663586210171219E9, 0.0, 2022-09-19 16:16:50.171
198.0, 14997.037052755006, 27370.739265768443, -16689.511142910855, -7387.631522134724, 13409.146774905537, -187500.02235174447, 29323.3206061507, -31250.666827042918, 0.628, -0.674, 0.448, 192.0, 0.0, 0.0, 0.0, 0.0, 0.0, 0.0, 0.0, 0.0, 0.0, 1.6635862101752949E9, 0.0, 2022-09-19 16:16:50.175
199.0, 14989.01277649555, 27353.59547777122, -16698.205971503972, -7386.715100612057, 13377.675518712464, -187500.02235174447, 29261.138053076036, -31254.019588711213, 0.628, -0.674, 0.448, 192.0, 0.0, 0.0, 0.0, 0.0, 0.0, 0.0, 0.0, 0.0, 0.0, 1.6635862101782885E9, 0.0, 2022-09-19 16:16:50.178
200.0, 14983.313081659448, 27346.12999512315, -16694.272064479836, -7381.864772065255, 13353.379172489545, -187500.02235174447, 29236.059395797183, -31243.290751372668, 0.622, -0.674, 0.45, 192.0, 19.0, 112.0, 234.0, 240.0, 14.0, 16.0, 0.0, 0.0, 0.0, 1.6635862101822631E9, 0.0, 2022-09-19 16:16:50.182
201.0, 14983.089564214893, 27352.03085565935, -16688.795887088287, -7385.9551413005765, 13345.287840996723, -187500.02235174447, 29246.654122669, -31251.784414265683, 0.622, -0.674, 0.45, 192.0, 0.0, 0.0, 0.0, 0.0, 0.0, 0.0, 0.0, 0.0, 0.0, 1.6635862101862705E9, 0.0, 2022-09-19 16:16:50.186
202.0, 14979.245064168581, 27357.596440028723, -16693.310939468258, -7393.398272204194, 13337.598840904098, -187500.02235174447, 29261.160404820494, -31260.903926003448, 0.622, -0.674, 0.45, 192.0, 0.0, 0.0, 0.0, 0.0, 0.0, 0.0, 0.0, 0.0, 0.0, 1.6635862101912751E9, 0.0, 2022-09-19 16:16:50.191
203.0, 14974.618253066332, 27343.06780613277, -16707.571352430743, -7393.375920459738, 13308.295703923191, -187500.02235174447, 29210.198427462394, -31259.786338780683, 0.622, -0.674, 0.45, 192.0, 0.0, 0.0, 0.0, 0.0, 0.0, 0.0, 0.0, 0.0, 0.0, 1.6635862101952338E9, 0.0, 2022-09-19 16:16:50.195
204.0, 14972.271319898526, 27328.159192581083, -16701.53638142781, -7379.517838897448, 13279.216084386837, -187500.02235174447, 29151.01100814474, -31247.336417119077, 0.622, -0.674, 0.45, 192.0, 0.0, 0.0, 0.0, 0.0, 0.0, 0.0, 0.0, 0.0, 0.0, 1.6635862101993263E9, 0.0, 2022-09-19 16:16:50.199
205.0, 14976.428744367213, 27324.73937567942, -16700.55290467178, -7384.971664544543, 13261.826427200607, -187500.02235174447, 29126.088813077073, -31261.686237059384, 0.622, -0.674, 0.45, 192.0, 0.0, 0.0, 0.0, 0.0, 0.0, 0.0, 0.0, 0.0, 0.0, 1.6635862102033353E9, 0.0, 2022-09-19 16:16:50.203
206.0, 14980.519113602533, 27330.93080889354, -16699.077689537728, -7383.6082081327695, 13257.423133542912, -187500.02235174447, 29132.99550211376, -31260.970981236816, 0.622, -0.674, 0.45, 192.0, 0.0, 0.0, 0.0, 0.0, 0.0, 0.0, 0.0, 0.0, 0.0, 1.6635862102063568E9, 0.0, 2022-09-19 16:16:50.206
207.0, 14980.809686280452, 27343.380730555145, -16695.613169147156, -7386.759804100968, 13272.443505816878, -187500.02235174447, 29152.396816300967, -31265.217812683324, 0.622, -0.674, 0.45, 192.0, 0.0, 0.0, 0.0, 0.0, 0.0, 0.0, 0.0, 0.0, 0.0, 1.6635862102102754E9, 0.0, 2022-09-19 16:16:50.210
208.0, 14979.490933357589, 27334.64119847312, -16696.08255578072, -7382.26710346545, 13271.214159871837, -187500.02235174447, 29112.43189721488, -31258.177013179902, 0.622, -0.674, 0.45, 192.0, 0.0, 0.0, 0.0, 0.0, 0.0, 0.0, 0.0, 0.0, 0.0, 1.6635862102143955E9, 0.0, 2022-09-19 16:16:50.214
209.0, 14970.72904953111, 27318.45853548748, -16697.02132904784, -7375.561580128859, 13255.232662586292, -187500.02235174447, 29055.680818042856, -31251.292675887667, 0.622, -0.674, 0.45, 192.0, 0.0, 0.0, 0.0, 0.0, 0.0, 0.0, 0.0, 0.0, 0.0, 1.6635862102193413E9, 0.0, 2022-09-19 16:16:50.219
210.0, 14971.600767564865, 27310.21074178347, -16694.093250524194, -7375.025138261931, 13238.938240878373, -187500.02235174447, 29030.289236341625, -31253.214925910823, 0.622, -0.672, 0.448, 192.0, 19.0, 112.0, 235.0, 0.0, 14.0, 0.0, 0.0, 0.0, 0.0, 1.6635862102233381E9, 0.0, 2022-09-19 16:16:50.223
211.0, 14979.379174635313, 27317.296244775804, -16686.225436475925, -7375.226303962029, 13236.390142010468, -187500.02235174447, 29040.52633530216, -31253.505498588744, 0.622, -0.672, 0.448, 192.0, 0.0, 0.0, 0.0, 0.0, 0.0, 0.0, 0.0, 0.0, 0.0, 1.663586210227379E9, 0.0, 2022-09-19 16:16:50.227
212.0, 14978.306290901459, 27319.821991899254, -16684.280834708316, -7377.528533640926, 13231.76333090822, -187500.02235174447, 29056.37372212097, -31252.790242766172, 0.622, -0.672, 0.448, 192.0, 0.0, 0.0, 0.0, 0.0, 0.0, 0.0, 0.0, 0.0, 0.0, 1.6635862102313757E9, 0.0, 2022-09-19 16:16:50.231
213.0, 14967.91272972974, 27301.02417481234, -16703.324520984235, -7386.759804100968, 13204.158926505916, -187500.02235174447, 29008.78685817562, -31258.28877190218, 0.622, -0.672, 0.448, 192.0, 0.0, 0.0, 0.0, 0.0, 0.0, 0.0, 0.0, 0.0, 0.0, 1.6635862102353585E9, 0.0, 2022-09-19 16:16:50.235
214.0, 14972.62894780981, 27283.5898141372, -16712.86871586665, -7381.484792409515, 13176.5098186147, -187500.02235174447, 28948.615962101932, -31255.494803845264, 0.622, -0.672, 0.448, 192.0, 0.0, 0.0, 0.0, 0.0, 0.0, 0.0, 0.0, 0.0, 0.0, 1.6635862102404327E9, 0.0, 2022-09-19 16:16:50.240
215.0, 14970.72904953111, 27276.370200678135, -16707.16902103055, -7378.6237691192355, 13157.667298038878, -187500.02235174447, 28925.59366531297, -31257.50646084624, 0.622, -0.672, 0.448, 192.0, 0.0, 0.0, 0.0, 0.0, 0.0, 0.0, 0.0, 0.0, 0.0, 1.6635862102434373E9, 0.0, 2022-09-19 16:16:50.243
216.0, 14976.786372278497, 27277.577194878722, -16696.574294158734, -7379.830763319822, 13149.419504334868, -187500.02235174447, 28936.523668351612, -31263.921411504914, 0.622, -0.672, 0.448, 192.0, 0.0, 0.0, 0.0, 0.0, 0.0, 0.0, 0.0, 0.0, 0.0, 1.6635862102464473E9, 0.0, 2022-09-19 16:16:50.246
217.0, 14985.145924704782, 27291.457628185468, -16690.91930281154, -7374.22047546154, 13159.880120739952, -187500.02235174447, 28965.133901254405, -31252.410263110432, 0.622, -0.672, 0.448, 192.0, 0.0, 0.0, 0.0, 0.0, 0.0, 0.0, 0.0, 0.0, 0.0, 1.6635862102524307E9, 0.0, 2022-09-19 16:16:50.252
218.0, 14965.230520395104, 27275.610241366656, -16706.029082063327, -7376.075670251331, 13153.956908459295, -187500.02235174447, 28924.073746690006, -31249.99627470926, 0.622, -0.672, 0.448, 192.0, 0.0, 0.0, 0.0, 0.0, 0.0, 0.0, 0.0, 0.0, 0.0, 1.6635862102564301E9, 0.0, 2022-09-19 16:16:50.256
219.0, 14969.924386730718, 27261.081607470707, -16703.793907617797, -7367.023213746931, 13145.038562421629, -187500.02235174447, 28866.696818673234, -31244.31893161761, 0.622, -0.672, 0.448, 192.0, 0.0, 0.0, 0.0, 0.0, 0.0, 0.0, 0.0, 0.0, 0.0, 1.6635862102604315E9, 0.0, 2022-09-19 16:16:50.260
220.0, 14981.39083163629, 27257.326514402215, -16699.480020937925, -7360.563559599347, 13134.577946016545, -187500.02235174447, 28841.52875441656, -31254.958361978337, 0.618, -0.67, 0.446, 192.0, 19.0, 80.0, 235.0, 16.0, 13.0, 240.0, 0.0, 0.0, 0.0, 1.6635862102634017E9, 0.0, 2022-09-19 16:16:50.263
221.0, 14980.787334535997, 27261.52864235981, -16702.5422099283, -7369.8171818038445, 13132.968620415762, -187500.02235174447, 28850.670617898777, -31271.76687380873, 0.618, -0.67, 0.446, 192.0, 0.0, 0.0, 0.0, 0.0, 0.0, 0.0, 0.0, 0.0, 0.0, 1.663586210266422E9, 0.0, 2022-09-19 16:16:50.266
222.0, 14973.67947979921, 27265.64136333959, -16708.510125697867, -7370.800658559878, 13130.822852948053, -187500.02235174447, 28870.94365011974, -31270.917507519425, 0.618, -0.67, 0.446, 192.0, 0.0, 0.0, 0.0, 0.0, 0.0, 0.0, 0.0, 0.0, 0.0, 1.6635862102704155E9, 0.0, 2022-09-19 16:16:50.270
223.0, 14962.570662804923, 27253.079682955708, -16723.910477627574, -7363.64810033418, 13110.035730604617, -187500.02235174447, 28830.911675800286, -31258.624048069007, 0.618, -0.67, 0.446, 192.0, 0.0, 0.0, 0.0, 0.0, 0.0, 0.0, 0.0, 0.0, 0.0, 1.6635862102744148E9, 0.0, 2022-09-19 16:16:50.274
224.0, 14953.495854556068, 27234.237162379883, -16727.039721851317, -7351.376992628217, 13083.548913425078, -187500.02235174447, 28770.02552390403, -31237.971036192306, 0.618, -0.67, 0.446, 192.0, 0.0, 0.0, 0.0, 0.0, 0.0, 0.0, 0.0, 0.0, 0.0, 1.6635862102794096E9, 0.0, 2022-09-19 16:16:50.279
225.0, 14971.176084420214, 27226.48110705389, -16711.54996294379, -7339.128236666708, 13070.271977218626, -187500.02235174447, 28747.986703871098, -31224.828210452582, 0.618, -0.67, 0.446, 192.0, 0.0, 0.0, 0.0, 0.0, 0.0, 0.0, 0.0, 0.0, 0.0, 1.6635862102835438E9, 0.0, 2022-09-19 16:16:50.283
226.0, 14980.362651391346, 27232.180801889994, -16703.793907617797, -7340.223472145019, 13070.070811518528, -187500.02235174447, 28761.464805777647, -31233.23246636778, 0.618, -0.67, 0.446, 192.0, 0.0, 0.0, 0.0, 0.0, 0.0, 0.0, 0.0, 0.0, 0.0, 1.6635862102864892E9, 0.0, 2022-09-19 16:16:50.286
227.0, 14973.38890712129, 27239.512174071333, -16712.198163532994, -7362.083478222308, 13071.076640019017, -187500.02235174447, 28781.31315485396, -31256.590039323575, 0.618, -0.67, 0.446, 192.0, 0.0, 0.0, 0.0, 0.0, 0.0, 0.0, 0.0, 0.0, 0.0, 1.6635862102904363E9, 0.0, 2022-09-19 16:16:50.290
228.0, 14964.649375039266, 27225.72114774241, -16727.754977673885, -7368.945463770087, 13052.43528514329, -187500.02235174447, 28741.45999449015, -31259.38400738049, 0.618, -0.67, 0.446, 192.0, 0.0, 0.0, 0.0, 0.0, 0.0, 0.0, 0.0, 0.0, 0.0, 1.6635862102944744E9, 0.0, 2022-09-19 16:16:50.294
229.0, 14966.795142506975, 27206.297481810747, -16728.872564896654, -7365.257425934962, 13030.441168599269, -187500.02235174447, 28683.01018273952, -31255.65126605645, 0.618, -0.67, 0.446, 192.0, 0.0, 0.0, 0.0, 0.0, 0.0, 0.0, 0.0, 0.0, 0.0, 1.663586210298572E9, 0.0, 2022-09-19 16:16:50.298
230.0, 14965.230520395104, 27202.47533350889, -16726.30211428429, -7374.242827205995, 13023.24390688466, -187500.02235174447, 28662.446577840637, -31271.14102496398, 0.626, -0.68, 0.444, 192.0, 19.0, 144.0, 234.0, 192.0, 13.0, 224.0, 0.0, 0.0, 0.0, 1.6635862103024938E9, 0.0, 2022-09-19 16:16:50.302
231.0, 14967.353936118358, 27208.890284167563, -16725.609210206178, -7369.6383678482025, 13028.541270320567, -187500.02235174447, 28674.96355473561, -31253.79607126666, 0.626, -0.68, 0.444, 192.0, 0.0, 0.0, 0.0, 0.0, 0.0, 0.0, 0.0, 0.0, 0.0, 1.66358621030657E9, 0.0, 2022-09-19 16:16:50.306
232.0, 14979.379174635313, 27226.97284543191, -16710.41002397657, -7352.516931595437, 13058.224386957216, -187500.02235174447, 28711.44160168667, -31230.103222144036, 0.626, -0.68, 0.444, 192.0, 0.0, 0.0, 0.0, 0.0, 0.0, 0.0, 0.0, 0.0, 0.0, 1.6635862103115876E9, 0.0, 2022-09-19 16:16:50.311
233.0, 14981.793163036486, 27225.16235413103, -16704.151535529083, -7349.678260049613, 13070.808419085553, -187500.02235174447, 28688.64282234226, -31231.13140238898, 0.626, -0.68, 0.444, 192.0, 0.0, 0.0, 0.0, 0.0, 0.0, 0.0, 0.0, 0.0, 0.0, 1.66358621031451E9, 0.0, 2022-09-19 16:16:50.314
234.0, 14971.645471053776, 27202.38592653107, -16705.649102407588, -7355.936748497099, 13053.172892710316, -187500.02235174447, 28629.43305128015, -31237.54635304765, 0.626, -0.68, 0.444, 192.0, 0.0, 0.0, 0.0, 0.0, 0.0, 0.0, 0.0, 0.0, 0.0, 1.6635862103184905E9, 0.0, 2022-09-19 16:16:50.318
235.0, 14965.364630861835, 27190.651260692033, -16708.755994886877, -7367.626710847225, 13035.738532035177, -187500.02235174447, 28603.616786434268, -31254.645437555962, 0.626, -0.68, 0.444, 192.0, 0.0, 0.0, 0.0, 0.0, 0.0, 0.0, 0.0, 0.0, 0.0, 1.663586210322582E9, 0.0, 2022-09-19 16:16:50.322
236.0, 14966.884549484796, 27194.04872584924, -16708.912457098064, -7380.054280764375, 13035.403255868347, -187500.02235174447, 28618.52539998596, -31265.217812683324, 0.626, -0.68, 0.444, 192.0, 0.0, 0.0, 0.0, 0.0, 0.0, 0.0, 0.0, 0.0, 0.0, 1.6635862103266425E9, 0.0, 2022-09-19 16:16:50.326
237.0, 14965.141113417283, 27207.68328996698, -16712.466384466457, -7381.574199387336, 13047.897881018864, -187500.02235174447, 28656.031627181965, -31265.70955106134, 0.626, -0.68, 0.444, 192.0, 0.0, 0.0, 0.0, 0.0, 0.0, 0.0, 0.0, 0.0, 0.0, 1.6635862103306305E9, 0.0, 2022-09-19 16:16:50.330
238.0, 14957.653279024755, 27194.47340899389, -16723.41873924956, -7367.26908293594, 13032.274011644604, -187500.02235174447, 28628.18135359065, -31243.022530439204, 0.626, -0.68, 0.444, 192.0, 0.0, 0.0, 0.0, 0.0, 0.0, 0.0, 0.0, 0.0, 0.0, 1.6635862103355024E9, 0.0, 2022-09-19 16:16:50.335
239.0, 14960.179026148204, 27174.42389421748, -16720.98239910393, -7368.766649814445, 13009.341121833459, -187500.02235174447, 28575.453588420583, -31251.89617298796, 0.626, -0.68, 0.444, 192.0, 0.0, 0.0, 0.0, 0.0, 0.0, 0.0, 0.0, 0.0, 0.0, 1.6635862103394744E9, 0.0, 2022-09-19 16:16:50.339
240.0, 14961.631889537799, 27172.85927210561, -16720.69182642601, -7377.461478407559, 13004.513145031113, -187500.02235174447, 28559.293277179397, -31262.22267892631, 0.624, -0.678, 0.438, 192.0, 19.0, 128.0, 234.0, 208.0, 13.0, 176.0, 0.0, 0.0, 0.0, 1.6635862103424954E9, 0.0, 2022-09-19 16:16:50.342
241.0, 14970.214959408637, 27182.80579838822, -16713.15928854457, -7371.828838804822, 13013.587953279968, -187500.02235174447, 28580.52743441194, -31253.460795099832, 0.624, -0.678, 0.438, 192.0, 0.0, 0.0, 0.0, 0.0, 0.0, 0.0, 0.0, 0.0, 0.0, 1.6635862103465164E9, 0.0, 2022-09-19 16:16:50.346
242.0, 14968.851502996864, 27192.841731648652, -16712.891067611108, -7369.504257381471, 13025.948467963752, -187500.02235174447, 28612.915112127677, -31245.81649849612, 0.624, -0.678, 0.438, 192.0, 0.0, 0.0, 0.0, 0.0, 0.0, 0.0, 0.0, 0.0, 0.0, 1.6635862103505256E9, 0.0, 2022-09-19 16:16:50.350
243.0, 14967.376287862813, 27183.096371066138, -16721.474137481946, -7369.861885292756, 13029.502395332145, -187500.02235174447, 28587.47882693754, -31245.36946360701, 0.624, -0.678, 0.438, 192.0, 0.0, 0.0, 0.0, 0.0, 0.0, 0.0, 0.0, 0.0, 0.0, 1.663586210354534E9, 0.0, 2022-09-19 16:16:50.354
244.0, 14964.828188994908, 27171.540519182745, -16722.055282837784, -7365.391536401694, 13030.843499999464, -187500.02235174447, 28541.054253703864, -31244.095414173058, 0.624, -0.678, 0.438, 192.0, 0.0, 0.0, 0.0, 0.0, 0.0, 0.0, 0.0, 0.0, 0.0, 1.6635862103585584E9, 0.0, 2022-09-19 16:16:50.358
245.0, 14966.191645406681, 27164.544423168234, -16720.624771192644, -7368.520780625437, 13022.260430128626, -187500.02235174447, 28520.82592497181, -31252.477318343797, 0.624, -0.678, 0.438, 192.0, 0.0, 0.0, 0.0, 0.0, 0.0, 0.0, 0.0, 0.0, 0.0, 1.663586210362608E9, 0.0, 2022-09-19 16:16:50.362
246.0, 14968.113895429839, 27170.892318593542, -16715.617980434654, -7380.255446464473, 13023.825052240498, -187500.02235174447, 28538.662617047146, -31264.368446394023, 0.624, -0.678, 0.438, 192.0, 0.0, 0.0, 0.0, 0.0, 0.0, 0.0, 0.0, 0.0, 0.0, 1.6635862103675349E9, 0.0, 2022-09-19 16:16:50.367
247.0, 14965.163465161737, 27177.150807041027, -16711.035872821318, -7373.7510888279785, 13028.474215087203, -187500.02235174447, 28570.13387324022, -31252.85729799954, 0.624, -0.678, 0.438, 192.0, 0.0, 0.0, 0.0, 0.0, 0.0, 0.0, 0.0, 0.0, 0.0, 1.6635862103705547E9, 0.0, 2022-09-19 16:16:50.370
248.0, 14962.682421527199, 27166.89135633604, -16714.232172278425, -7368.520780625437, 13018.14770914885, -187500.02235174447, 28545.591657828292, -31238.149850147947, 0.624, -0.678, 0.438, 192.0, 0.0, 0.0, 0.0, 0.0, 0.0, 0.0, 0.0, 0.0, 0.0, 1.6635862103745518E9, 0.0, 2022-09-19 16:16:50.374
249.0, 14955.90984295724, 27144.249039202816, -16722.658779938076, -7371.739431827001, 12992.733775703166, -187500.02235174447, 28484.370229765205, -31245.61533279602, 0.624, -0.678, 0.438, 192.0, 0.0, 0.0, 0.0, 0.0, 0.0, 0.0, 0.0, 0.0, 0.0, 1.6635862103786683E9, 0.0, 2022-09-19 16:16:50.378
250.0, 14955.954546446152, 27134.88365827604, -16731.197146320003, -7385.530458155926, 12981.066165097496, -187500.02235174447, 28458.978648063978, -31257.88644050198, 0.628, -0.674, 0.44, 192.0, 19.0, 160.0, 234.0, 240.0, 13.0, 192.0, 0.0, 0.0, 0.0, 1.6635862103825896E9, 0.0, 2022-09-19 16:16:50.382
251.0, 14964.559968061445, 27138.348178666616, -16727.196184062504, -7375.606283617769, 12982.13904883135, -187500.02235174447, 28470.31098250282, -31246.3752921075, 0.628, -0.674, 0.44, 192.0, 0.0, 0.0, 0.0, 0.0, 0.0, 0.0, 0.0, 0.0, 0.0, 1.6635862103866155E9, 0.0, 2022-09-19 16:16:50.386
252.0, 14969.924386730718, 27145.880716548054, -16725.855079395187, -7377.483830152015, 12990.38684253536, -187500.02235174447, 28501.849293929256, -31251.404434609944, 0.628, -0.674, 0.44, 192.0, 0.0, 0.0, 0.0, 0.0, 0.0, 0.0, 0.0, 0.0, 0.0, 1.663586210390593E9, 0.0, 2022-09-19 16:16:50.390
253.0, 14966.973956462618, 27139.912800778486, -16729.40900676358, -7386.6033418897805, 12983.636615709856, -187500.02235174447, 28482.559738464326, -31264.0778737161, 0.628, -0.674, 0.44, 192.0, 0.0, 0.0, 0.0, 0.0, 0.0, 0.0, 0.0, 0.0, 0.0, 1.6635862103956003E9, 0.0, 2022-09-19 16:16:50.395
254.0, 14958.547348802967, 27121.383204625035, -16735.10870159968, -7383.250580221485, 12961.977775332663, -187500.02235174447, 28426.747432559423, -31256.679446301398, 0.628, -0.674, 0.44, 192.0, 0.0, 0.0, 0.0, 0.0, 0.0, 0.0, 0.0, 0.0, 0.0, 1.6635862103986878E9, 0.0, 2022-09-19 16:16:50.398
255.0, 14958.614404036332, 27108.776820752242, -16732.6500097096, -7373.08053649432, 12949.617260648878, -187500.02235174447, 28400.975871202456, -31238.909809459426, 0.628, -0.674, 0.44, 192.0, 0.0, 0.0, 0.0, 0.0, 0.0, 0.0, 0.0, 0.0, 0.0, 1.6635862104026368E9, 0.0, 2022-09-19 16:16:50.402
0.0, 14960.134322659294, 27108.955634707887, -16731.97945737594, -7381.864772065255, 12951.740676372132, -187500.02235174447, 28410.587121318236, -31248.61046655303, 0.628, -0.674, 0.44, 192.0, 0.0, 0.0, 0.0, 0.0, 0.0, 0.0, 0.0, 0.0, 0.0, 1.6635862104066129E9, 0.0, 2022-09-19 16:16:50.406
1.0, 14978.865084512841, 27126.61351282758, -16715.3944629901, -7384.926961055632, 12980.61913020839, -187500.02235174447, 28455.87175558469, -31256.32181839011, 0.628, -0.674, 0.44, 192.0, 0.0, 0.0, 0.0, 0.0, 0.0, 0.0, 0.0, 0.0, 0.0, 1.6635862104106002E9, 0.0, 2022-09-19 16:16:50.410
2.0, 14970.036145452994, 27125.495925604813, -16717.339064757714, -7385.262237222462, 12995.728909460177, -187500.02235174447, 28443.801813578822, -31256.746501534763, 0.628, -0.674, 0.44, 192.0, 0.0, 0.0, 0.0, 0.0, 0.0, 0.0, 0.0, 0.0, 0.0, 1.6635862104146569E9, 0.0, 2022-09-19 16:16:50.414
3.0, 14963.91176747224, 27105.625224784046, -16730.88422189763, -7382.758841843467, 12985.290644799548, -187500.02235174447, 28388.70476349649, -31249.28101888669, 0.628, -0.674, 0.44, 192.0, 0.0, 0.0, 0.0, 0.0, 0.0, 0.0, 0.0, 0.0, 0.0, 1.663586210418681E9, 0.0, 2022-09-19 16:16:50.418
4.0, 14962.213034893637, 27087.45325654188, -16739.46729176847, -7381.797716831889, 12966.85045562392, -187500.02235174447, 28358.865184648657, -31246.062367685125, 0.638, -0.674, 0.438, 192.0, 19.0, 240.0, 234.0, 240.0, 13.0, 176.0, 0.0, 0.0, 0.0, 1.663586210423624E9, 0.0, 2022-09-19 16:16:50.423
5.0, 14970.72904953111, 27093.55528277818, -16729.051378852295, -7385.441051178104, 12970.51614171459, -187500.02235174447, 28377.908870924577, -31251.76206252123, 0.638, -0.674, 0.438, 192.0, 0.0, 0.0, 0.0, 0.0, 0.0, 0.0, 0.0, 0.0, 0.0, 1.6635862104266844E9, 0.0, 2022-09-19 16:16:50.426
6.0, 14977.255758912059, 27103.23358812733, -16717.093195568705, -7387.877391323733, 12977.75810691811, -187500.02235174447, 28415.750374287414, -31249.839812498074, 0.638, -0.674, 0.438, 192.0, 0.0, 0.0, 0.0, 0.0, 0.0, 0.0, 0.0, 0.0, 0.0, 1.6635862104297383E9, 0.0, 2022-09-19 16:16:50.429
7.0, 14966.213997151137, 27089.286099587214, -16726.860907895676, -7384.4352226776155, 12963.095362555428, -187500.02235174447, 28397.310185111786, -31234.41710882391, 0.638, -0.674, 0.438, 192.0, 0.0, 0.0, 0.0, 0.0, 0.0, 0.0, 0.0, 0.0, 0.0, 1.6635862104347236E9, 0.0, 2022-09-19 16:16:50.434
8.0, 14965.163465161737, 27071.18118657842, -16726.68209394003, -7372.9240742831325, 12945.75040885811, -187500.02235174447, 28348.359864754664, -31230.349091333046, 0.638, -0.674, 0.438, 192.0, 0.0, 0.0, 0.0, 0.0, 0.0, 0.0, 0.0, 0.0, 0.0, 1.6635862104386892E9, 0.0, 2022-09-19 16:16:50.438
9.0, 14968.046840196472, 27067.135520832006, -16722.882297382628, -7376.075670251331, 12944.275193724061, -187500.02235174447, 28332.087794791198, -31241.23439088278, 0.638, -0.674, 0.438, 192.0, 0.0, 0.0, 0.0, 0.0, 0.0, 0.0, 0.0, 0.0, 0.0, 1.6635862104426785E9, 0.0, 2022-09-19 16:16:50.442
10.0, 14967.219825651626, 27075.7409424473, -16714.992131589905, -7378.020272018943, 12954.400533962315, -187500.02235174447, 28351.869088634146, -31236.652283269443, 0.638, -0.674, 0.438, 192.0, 0.0, 0.0, 0.0, 0.0, 0.0, 0.0, 0.0, 0.0, 0.0, 1.663586210446823E9, 0.0, 2022-09-19 16:16:50.446
11.0, 14954.814607478931, 27089.330803076125, -16714.858021123175, -7387.8326878348225, 12968.169208546784, -187500.02235174447, 28389.19650187451, -31245.145946162458, 0.638, -0.674, 0.438, 192.0, 0.0, 0.0, 0.0, 0.0, 0.0, 0.0, 0.0, 0.0, 0.0, 1.6635862104507816E9, 0.0, 2022-09-19 16:16:50.450
12.0, 14962.727125016108, 27078.93724190441, -16723.441090994012, -7393.957065815576, 12956.814522363487, -187500.02235174447, 28372.589155744216, -31255.47245210081, 0.638, -0.674, 0.438, 192.0, 0.0, 0.0, 0.0, 0.0, 0.0, 0.0, 0.0, 0.0, 0.0, 1.6635862104537148E9, 0.0, 2022-09-19 16:16:50.453
13.0, 14980.072078713427, 27061.525232973723, -16723.664608438565, -7387.877391323733, 12939.000182032607, -187500.02235174447, 28325.672844132525, -31253.3266846331, 0.638, -0.674, 0.438, 192.0, 0.0, 0.0, 0.0, 0.0, 0.0, 0.0, 0.0, 0.0, 0.0, 1.663586210457782E9, 0.0, 2022-09-19 16:16:50.457
14.0, 14979.714450802143, 27049.656456667955, -16726.83855615122, -7378.601417374781, 12928.204289460695, -187500.02235174447, 28308.193779968475, -31241.167335649414, 0.638, -0.674, 0.438, 192.0, 0.0, 0.0, 0.0, 0.0, 0.0, 0.0, 0.0, 0.0, 0.0, 1.663586210462764E9, 0.0, 2022-09-19 16:16:50.462
15.0, 14981.837866525397, 27049.92467760142, -16716.512050212867, -7368.498428880982, 12928.204289460695, -187500.02235174447, 28325.9857685549, -31236.94285594736, 0.634, -0.672, 0.442, 192.0, 19.0, 208.0, 235.0, 0.0, 13.0, 208.0, 0.0, 0.0, 0.0, 1.6635862104668481E9, 0.0, 2022-09-19 16:16:50.466
16.0, 14984.005985737562, 27061.68169518491, -16714.79096588981, -7374.9804347730205, 12940.073065766463, -187500.02235174447, 28367.00121963039, -31241.189687393868, 0.634, -0.672, 0.442, 192.0, 0.0, 0.0, 0.0, 0.0, 0.0, 0.0, 0.0, 0.0, 0.0, 1.6635862104707875E9, 0.0, 2022-09-19 16:16:50.470
17.0, 14975.95935773365, 27054.752654403765, -16720.13303281463, -7371.359452171261, 12944.923394313264, -187500.02235174447, 28358.70872243747, -31230.5726087776, 0.634, -0.672, 0.442, 192.0, 0.0, 0.0, 0.0, 0.0, 0.0, 0.0, 0.0, 0.0, 0.0, 1.6635862104747856E9, 0.0, 2022-09-19 16:16:50.474
18.0, 14969.812628008442, 27036.24540999477, -16717.316713013257, -7366.889103280199, 12941.99531578962, -187500.02235174447, 28313.759364337846, -31225.61052150852, 0.634, -0.672, 0.442, 192.0, 0.0, 0.0, 0.0, 0.0, 0.0, 0.0, 0.0, 0.0, 0.0, 1.6635862104787428E9, 0.0, 2022-09-19 16:16:50.478
19.0, 14970.863159997842, 27028.265837224226, -16710.901762354584, -7372.611149860758, 12936.22856572015, -187500.02235174447, 28299.94598626447, -31244.073062428604, 0.634, -0.672, 0.442, 192.0, 0.0, 0.0, 0.0, 0.0, 0.0, 0.0, 0.0, 0.0, 0.0, 1.6635862104828703E9, 0.0, 2022-09-19 16:16:50.482
20.0, 14970.684346042199, 27028.042319779674, -16714.232172278425, -7381.194219731596, 12932.22760346265, -187500.02235174447, 28314.36286143814, -31253.393739866468, 0.634, -0.672, 0.442, 192.0, 0.0, 0.0, 0.0, 0.0, 0.0, 0.0, 0.0, 0.0, 0.0, 1.663586210487814E9, 0.0, 2022-09-19 16:16:50.487
21.0, 14975.981709478106, 27030.657473880947, -16707.5937041752, -7379.808411575367, 12931.51234764008, -187500.02235174447, 28350.796204900293, -31242.597847294554, 0.634, -0.672, 0.442, 192.0, 0.0, 0.0, 0.0, 0.0, 0.0, 0.0, 0.0, 0.0, 0.0, 1.6635862104917817E9, 0.0, 2022-09-19 16:16:50.491
22.0, 14975.735840289099, 27016.374709174004, -16710.41002397657, -7376.165077229152, 12915.106167209884, -187500.02235174447, 28342.190783284997, -31232.628969267487, 0.634, -0.672, 0.442, 192.0, 0.0, 0.0, 0.0, 0.0, 0.0, 0.0, 0.0, 0.0, 0.0, 1.6635862104947672E9, 0.0, 2022-09-19 16:16:50.494
23.0, 14962.324793615913, 26989.731429783278, -16720.155384559082, -7379.69665285309, 12885.73597499561, -187500.02235174447, 28290.804122782247, -31233.45598381233, 0.634, -0.672, 0.442, 192.0, 0.0, 0.0, 0.0, 0.0, 0.0, 0.0, 0.0, 0.0, 0.0, 1.663586210498844E9, 0.0, 2022-09-19 16:16:50.498
24.0, 14964.582319805899, 26974.509891809215, -16717.473175224444, -7379.897818553188, 12870.380326554816, -187500.02235174447, 28272.74391326236, -31233.210114623325, 0.634, -0.672, 0.442, 192.0, 0.0, 0.0, 0.0, 0.0, 0.0, 0.0, 0.0, 0.0, 0.0, 1.6635862105028155E9, 0.0, 2022-09-19 16:16:50.502
25.0, 14975.087639699894, 26975.873348220986, -16713.338102500213, -7383.831725577322, 12872.459038789159, -187500.02235174447, 28296.16854145152, -31240.94381820486, 0.64, -0.668, 0.444, 192.0, 20.0, 0.0, 235.0, 32.0, 13.0, 224.0, 0.0, 0.0, 0.0, 1.663586210505815E9, 0.0, 2022-09-19 16:16:50.505
26.0, 14976.272282156026, 26982.422409346393, -16717.897858369095, -7395.097004782797, 12880.483315048614, -187500.02235174447, 28337.854544860667, -31255.65126605645, 0.64, -0.668, 0.444, 192.0, 0.0, 0.0, 0.0, 0.0, 0.0, 0.0, 0.0, 0.0, 0.0, 1.663586210509854E9, 0.0, 2022-09-19 16:16:50.509
27.0, 14970.30436638646, 26973.615822031003, -16726.45857649548, -7389.933751813621, 12871.408506799758, -187500.02235174447, 28332.400719213572, -31249.258667142236, 0.64, -0.668, 0.444, 192.0, 0.0, 0.0, 0.0, 0.0, 0.0, 0.0, 0.0, 0.0, 0.0, 1.663586210513858E9, 0.0, 2022-09-19 16:16:50.513
28.0, 14957.854444724851, 26951.08526362005, -16735.622791722155, -7391.431318692126, 12845.6816489317, -187500.02235174447, 28283.0257157118, -31248.23048689729, 0.64, -0.668, 0.444, 192.0, 0.0, 0.0, 0.0, 0.0, 0.0, 0.0, 0.0, 0.0, 0.0, 1.663586210517831E9, 0.0, 2022-09-19 16:16:50.517
29.0, 14955.842787723876, 26935.48374599025, -16726.92796312904, -7397.220420506052, 12829.096654545863, -187500.02235174447, 28261.478634056883, -31254.108995689036, 0.64, -0.668, 0.444, 192.0, 0.0, 0.0, 0.0, 0.0, 0.0, 0.0, 0.0, 0.0, 0.0, 1.6635862105228777E9, 0.0, 2022-09-19 16:16:50.522
30.0, 14958.234424380593, 26928.845277887023, -16716.869678124152, -7395.097004782797, 12822.368779464816, -187500.02235174447, 28271.961602206422, -31248.252838641747, 0.64, -0.668, 0.444, 192.0, 0.0, 0.0, 0.0, 0.0, 0.0, 0.0, 0.0, 0.0, 0.0, 1.6635862105268512E9, 0.0, 2022-09-19 16:16:50.526
31.0, 14957.943851702674, 26938.277714047163, -16707.705462897477, -7392.325388470339, 12831.82356736941, -187500.02235174447, 28313.9828817824, -31249.88451598698, 0.64, -0.668, 0.444, 192.0, 0.0, 0.0, 0.0, 0.0, 0.0, 0.0, 0.0, 0.0, 0.0, 1.6635862105309267E9, 0.0, 2022-09-19 16:16:50.530
32.0, 14957.653279024755, 26933.136812822442, -16715.26035252337, -7389.46436518006, 12827.420273711716, -187500.02235174447, 28310.42895441401, -31242.597847294554, 0.64, -0.668, 0.444, 192.0, 0.0, 0.0, 0.0, 0.0, 0.0, 0.0, 0.0, 0.0, 0.0, 1.663586210533831E9, 0.0, 2022-09-19 16:16:50.533
33.0, 14955.328697601402, 26906.001795053697, -16728.805509663285, -7392.213629748062, 12800.017035009509, -187500.02235174447, 28256.024808409788, -31241.793184494163, 0.64, -0.668, 0.444, 192.0, 0.0, 0.0, 0.0, 0.0, 0.0, 0.0, 0.0, 0.0, 0.0, 1.663586210537837E9, 0.0, 2022-09-19 16:16:50.537
34.0, 14955.373401090314, 26892.14371349141, -16725.966838117463, -7397.667455395157, 12785.62251158029, -187500.02235174447, 28233.337787787652, -31252.85729799954, 0.64, -0.668, 0.444, 192.0, 0.0, 0.0, 0.0, 0.0, 0.0, 0.0, 0.0, 0.0, 0.0, 1.663586210541928E9, 0.0, 2022-09-19 16:16:50.541
35.0, 14965.25287213956, 26894.401239681392, -16717.16025080207, -7392.7053681260795, 12791.344558160848, -187500.02235174447, 28249.20752635092, -31248.14107991947, 0.634, -0.672, 0.442, 192.0, 19.0, 208.0, 235.0, 0.0, 13.0, 208.0, 0.0, 0.0, 0.0, 1.6635862105458665E9, 0.0, 2022-09-19 16:16:50.545
36.0, 14972.226616409615, 26896.41289668237, -16711.840535621708, -7384.278760466428, 12796.686625085667, -187500.02235174447, 28283.182177922987, -31238.216905381312, 0.634, -0.672, 0.442, 192.0, 0.0, 0.0, 0.0, 0.0, 0.0, 0.0, 0.0, 0.0, 0.0, 1.663586210550853E9, 0.0, 2022-09-19 16:16:50.550
37.0, 14956.111008657339, 26877.92800401783, -16728.626695707644, -7388.972626802043, 12778.201732421128, -187500.02235174447, 28267.670067271003, -31240.116803660014, 0.634, -0.672, 0.442, 192.0, 0.0, 0.0, 0.0, 0.0, 0.0, 0.0, 0.0, 0.0, 0.0, 1.6635862105548997E9, 0.0, 2022-09-19 16:16:50.554
38.0, 14943.839900951374, 26846.434396080305, -16736.025123122352, -7388.0115017904645, 12747.37867681726, -187500.02235174447, 28209.890807854037, -31240.22856238229, 0.634, -0.672, 0.442, 192.0, 0.0, 0.0, 0.0, 0.0, 0.0, 0.0, 0.0, 0.0, 0.0, 1.6635862105579357E9, 0.0, 2022-09-19 16:16:50.557
39.0, 14936.24030783657, 26827.97185516022, -16728.91726838556, -7393.778251859934, 12731.196013831617, -187500.02235174447, 28183.783970330238, -31250.33155087609, 0.634, -0.672, 0.442, 192.0, 0.0, 0.0, 0.0, 0.0, 0.0, 0.0, 0.0, 0.0, 0.0, 1.6635862105618815E9, 0.0, 2022-09-19 16:16:50.561
40.0, 14949.874871954307, 26828.03891039359, -16713.15928854457, -7389.218495991051, 12735.107569111296, -187500.02235174447, 28199.117267026577, -31249.3257223756, 0.634, -0.672, 0.442, 192.0, 0.0, 0.0, 0.0, 0.0, 0.0, 0.0, 0.0, 0.0, 0.0, 1.6635862105659099E9, 0.0, 2022-09-19 16:16:50.565
41.0, 14958.122665658317, 26835.683206997302, -16703.548038428788, -7382.289455209906, 12746.931641928155, -187500.02235174447, 28240.222125079887, -31237.479297814287, 0.634, -0.672, 0.442, 192.0, 0.0, 0.0, 0.0, 0.0, 0.0, 0.0, 0.0, 0.0, 0.0, 1.663586210569985E9, 0.0, 2022-09-19 16:16:50.569
42.0, 14959.553177303456, 26825.17788710331, -16715.77444264584, -7389.956103558076, 12738.013295890487, -187500.02235174447, 28231.48259299786, -31249.839812498074, 0.634, -0.672, 0.442, 192.0, 0.0, 0.0, 0.0, 0.0, 0.0, 0.0, 0.0, 0.0, 0.0, 1.6635862105739791E9, 0.0, 2022-09-19 16:16:50.573
43.0, 14954.233462123093, 26792.25376752064, -16731.286553297825, -7392.526554170437, 12705.89383910821, -187500.02235174447, 28170.417627145962, -31253.43844335538, 0.634, -0.672, 0.442, 192.0, 0.0, 0.0, 0.0, 0.0, 0.0, 0.0, 0.0, 0.0, 0.0, 1.6635862105789516E9, 0.0, 2022-09-19 16:16:50.578
44.0, 14947.684400997687, 26767.800959086533, -16738.84144292372, -7396.661626894668, 12685.374937698238, -187500.02235174447, 28134.386615084008, -31258.311123646632, 0.634, -0.672, 0.442, 192.0, 0.0, 0.0, 0.0, 0.0, 0.0, 0.0, 0.0, 0.0, 0.0, 1.6635862105829763E9, 0.0, 2022-09-19 16:16:50.582
45.0, 14945.091598640873, 26764.224679973686, -16734.907535899583, -7392.638312892714, 12687.252484232484, -187500.02235174447, 28143.215554143855, -31250.420957853912, 0.634, -0.674, 0.444, 192.0, 19.0, 208.0, 234.0, 240.0, 13.0, 224.0, 0.0, 0.0, 0.0, 1.6635862105859308E9, 0.0, 2022-09-19 16:16:50.585
46.0, 14950.14309288777, 26757.005066514623, -16733.007637620885, -7391.185449503118, 12685.8443243318, -187500.02235174447, 28168.56243235617, -31244.81066999563, 0.634, -0.674, 0.444, 192.0, 0.0, 0.0, 0.0, 0.0, 0.0, 0.0, 0.0, 0.0, 0.0, 1.663586210590026E9, 0.0, 2022-09-19 16:16:50.590
47.0, 14952.24415686657, 26741.604714584915, -16731.487718997923, -7389.374958202238, 12676.277777704929, -187500.02235174447, 28158.638257818016, -31240.072100171103, 0.634, -0.674, 0.444, 192.0, 0.0, 0.0, 0.0, 0.0, 0.0, 0.0, 0.0, 0.0, 0.0, 1.6635862105939224E9, 0.0, 2022-09-19 16:16:50.593
48.0, 14944.555156773944, 26714.58145553845, -16732.381788776136, -7396.7957373614, 12654.238957671996, -187500.02235174447, 28104.27881530271, -31245.280056629188, 0.634, -0.674, 0.444, 192.0, 0.0, 0.0, 0.0, 0.0, 0.0, 0.0, 0.0, 0.0, 0.0, 1.6635862105979977E9, 0.0, 2022-09-19 16:16:50.597
49.0, 14941.895299183763, 26694.66605122877, -16727.017370106863, -7389.710234369068, 12642.616050555236, -187500.02235174447, 28074.59569866606, -31234.685329757373, 0.634, -0.674, 0.444, 192.0, 0.0, 0.0, 0.0, 0.0, 0.0, 0.0, 0.0, 0.0, 0.0, 1.6635862106019435E9, 0.0, 2022-09-19 16:16:50.601
50.0, 14943.86225269583, 26689.27928081504, -16720.244791536905, -7391.543077414403, 12646.125274434718, -187500.02235174447, 28079.781303379692, -31245.637684540474, 0.634, -0.674, 0.444, 192.0, 0.0, 0.0, 0.0, 0.0, 0.0, 0.0, 0.0, 0.0, 0.0, 1.6635862106060128E9, 0.0, 2022-09-19 16:16:50.606
51.0, 14947.952621931152, 26692.699097716704, -16711.125279799136, -7397.399234461694, 12656.69764956208, -187500.02235174447, 28112.303091562164, -31254.42192011141, 0.634, -0.674, 0.444, 192.0, 0.0, 0.0, 0.0, 0.0, 0.0, 0.0, 0.0, 0.0, 0.0, 1.6635862106110053E9, 0.0, 2022-09-19 16:16:50.611
52.0, 14935.033313635984, 26675.28708878602, -16722.59172470471, -7391.118394269753, 12645.186501167596, -187500.02235174447, 28097.88621638849, -31242.910771716928, 0.634, -0.674, 0.444, 192.0, 0.0, 0.0, 0.0, 0.0, 0.0, 0.0, 0.0, 0.0, 0.0, 1.6635862106140432E9, 0.0, 2022-09-19 16:16:50.614
53.0, 14926.249078065048, 26644.933419815712, -16730.16896607506, -7381.976530787531, 12622.700646245557, -187500.02235174447, 28038.3188174151, -31227.108088387024, 0.634, -0.674, 0.444, 192.0, 0.0, 0.0, 0.0, 0.0, 0.0, 0.0, 0.0, 0.0, 0.0, 1.6635862106180124E9, 0.0, 2022-09-19 16:16:50.618
54.0, 14940.934174172186, 26620.949998015167, -16726.145652073104, -7382.512972654459, 12606.83090768229, -187500.02235174447, 28001.617253019485, -31235.199419879846, 0.634, -0.674, 0.444, 192.0, 0.0, 0.0, 0.0, 0.0, 0.0, 0.0, 0.0, 0.0, 0.0, 1.663586210622012E9, 0.0, 2022-09-19 16:16:50.622
55.0, 14946.790331219476, 26609.416497876227, -16718.344893258203, -7390.023158791442, 12605.959189648533, -187500.02235174447, 28000.991404174736, -31252.790242766172, 0.632, -0.678, 0.438, 192.0, 19.0, 192.0, 234.0, 208.0, 13.0, 176.0, 0.0, 0.0, 0.0, 1.663586210626039E9, 0.0, 2022-09-19 16:16:50.626
56.0, 14951.618308021822, 26612.299872910964, -16714.701558911987, -7395.432280949626, 12620.7783962224, -187500.02235174447, 28032.350901645532, -31264.0778737161, 0.632, -0.678, 0.438, 192.0, 0.0, 0.0, 0.0, 0.0, 0.0, 0.0, 0.0, 0.0, 0.0, 1.6635862106300497E9, 0.0, 2022-09-19 16:16:50.630
57.0, 14954.747552245564, 26604.92379724071, -16721.54119271531, -7392.995940803999, 12620.487823544481, -187500.02235174447, 28025.086584697558, -31254.019588711213, 0.632, -0.678, 0.438, 192.0, 0.0, 0.0, 0.0, 0.0, 0.0, 0.0, 0.0, 0.0, 0.0, 1.6635862106350975E9, 0.0, 2022-09-19 16:16:50.635
58.0, 14944.331639329392, 26577.65466900524, -16723.999884605397, -7384.658740122169, 12601.891172157666, -187500.02235174447, 27966.3014967801, -31241.055576927138, 0.632, -0.678, 0.438, 192.0, 0.0, 0.0, 0.0, 0.0, 0.0, 0.0, 0.0, 0.0, 0.0, 1.663586210639032E9, 0.0, 2022-09-19 16:16:50.639
59.0, 14936.95556365914, 26554.02887511598, -16726.615038706666, -7384.055243021875, 12588.9718638625, -187500.02235174447, 27929.376414939932, -31245.056539184636, 0.632, -0.678, 0.438, 192.0, 0.0, 0.0, 0.0, 0.0, 0.0, 0.0, 0.0, 0.0, 0.0, 1.6635862106420023E9, 0.0, 2022-09-19 16:16:50.642
60.0, 14938.09550262636, 26549.73734018056, -16716.40029149059, -7382.624731376735, 12594.11276508722, -187500.02235174447, 27940.708749378773, -31246.867030485515, 0.632, -0.678, 0.438, 192.0, 0.0, 0.0, 0.0, 0.0, 0.0, 0.0, 0.0, 0.0, 0.0, 1.6635862106461768E9, 0.0, 2022-09-19 16:16:50.646
61.0, 14947.036200408484, 26553.78300592697, -16705.157364029572, -7379.294321452895, 12605.802727437345, -187500.02235174447, 27975.800988173603, -31228.829172710084, 0.632, -0.678, 0.438, 192.0, 0.0, 0.0, 0.0, 0.0, 0.0, 0.0, 0.0, 0.0, 0.0, 1.6635862106500823E9, 0.0, 2022-09-19 16:16:50.650
62.0, 14941.560023016933, 26543.501203477528, -16714.813317634264, -7384.234056977518, 12603.008759380433, -187500.02235174447, 27971.44239800482, -31229.007986665725, 0.632, -0.678, 0.438, 192.0, 0.0, 0.0, 0.0, 0.0, 0.0, 0.0, 0.0, 0.0, 0.0, 1.6635862106540275E9, 0.0, 2022-09-19 16:16:50.654
63.0, 14934.496871769057, 26516.857924086802, -16725.676265439542, -7384.926961055632, 12584.680328927081, -187500.02235174447, 27917.127658978425, -31234.685329757373, 0.632, -0.678, 0.438, 192.0, 0.0, 0.0, 0.0, 0.0, 0.0, 0.0, 0.0, 0.0, 0.0, 1.6635862106581507E9, 0.0, 2022-09-19 16:16:50.658
64.0, 14929.37832228879, 26492.76274356398, -16733.27585855435, -7387.631522134724, 12570.017584564399, -187500.02235174447, 27881.141350405378, -31245.123594418004, 0.632, -0.678, 0.438, 192.0, 0.0, 0.0, 0.0, 0.0, 0.0, 0.0, 0.0, 0.0, 0.0, 1.663586210662088E9, 0.0, 2022-09-19 16:16:50.662
65.0, 14930.518261256011, 26487.66654582817, -16730.705407941987, -7397.689807139613, 12575.314948000307, -187500.02235174447, 27889.120923175924, -31270.135196463492, 0.638, -0.672, 0.44, 192.0, 19.0, 240.0, 235.0, 0.0, 13.0, 192.0, 0.0, 0.0, 0.0, 1.6635862106671216E9, 0.0, 2022-09-19 16:16:50.667
66.0, 14932.619325234811, 26500.854075056803, -16721.92117237105, -7403.210688020074, 12598.069023855809, -187500.02235174447, 27937.400691199386, -31272.124501720013, 0.638, -0.672, 0.44, 192.0, 0.0, 0.0, 0.0, 0.0, 0.0, 0.0, 0.0, 0.0, 0.0, 1.6635862106701148E9, 0.0, 2022-09-19 16:16:50.670
67.0, 14947.438531808679, 26494.036792997933, -16721.138861315118, -7404.775310131945, 12598.40430002264, -187500.02235174447, 27940.753452867684, -31259.115786447026, 0.638, -0.672, 0.44, 192.0, 0.0, 0.0, 0.0, 0.0, 0.0, 0.0, 0.0, 0.0, 0.0, 1.6635862106741333E9, 0.0, 2022-09-19 16:16:50.674
68.0, 14944.19752886266, 26466.790016506915, -16729.699579441498, -7403.791833375912, 12576.521942200892, -187500.02235174447, 27882.66126902834, -31256.05359745665, 0.638, -0.672, 0.44, 192.0, 0.0, 0.0, 0.0, 0.0, 0.0, 0.0, 0.0, 0.0, 0.0, 1.6635862106781428E9, 0.0, 2022-09-19 16:16:50.678
69.0, 14931.09940661185, 26447.32164708634, -16721.809413648774, -7400.483775196526, 12566.910692085112, -187500.02235174447, 27851.70410295774, -31249.348074120055, 0.638, -0.672, 0.44, 192.0, 0.0, 0.0, 0.0, 0.0, 0.0, 0.0, 0.0, 0.0, 0.0, 1.6635862106821058E9, 0.0, 2022-09-19 16:16:50.682
70.0, 14934.34040955787, 26447.70162674208, -16709.493602453902, -7406.27287701045, 12576.767811389902, -187500.02235174447, 27865.78570196458, -31259.786338780683, 0.638, -0.672, 0.44, 192.0, 0.0, 0.0, 0.0, 0.0, 0.0, 0.0, 0.0, 0.0, 0.0, 1.663586210686137E9, 0.0, 2022-09-19 16:16:50.686
71.0, 14952.020639422017, 26457.37993209123, -16701.312863983258, -7391.878353581233, 12596.526753488393, -187500.02235174447, 27913.70784207676, -31246.218829896312, 0.638, -0.672, 0.44, 192.0, 0.0, 0.0, 0.0, 0.0, 0.0, 0.0, 0.0, 0.0, 0.0, 1.6635862106911128E9, 0.0, 2022-09-19 16:16:50.691
72.0, 14955.351049345858, 26454.831833223325, -16707.884276853118, -7386.759804100968, 12603.947532647555, -187500.02235174447, 27926.895371305392, -31235.489992557767, 0.638, -0.672, 0.44, 192.0, 0.0, 0.0, 0.0, 0.0, 0.0, 0.0, 0.0, 0.0, 0.0, 1.6635862106941662E9, 0.0, 2022-09-19 16:16:50.694
73.0, 14932.99930489055, 26422.913542141145, -16729.99015211942, -7404.931772343132, 12583.674500426592, -187500.02235174447, 27872.692391001274, -31252.38791136598, 0.638, -0.672, 0.44, 192.0, 0.0, 0.0, 0.0, 0.0, 0.0, 0.0, 0.0, 0.0, 0.0, 1.663586210697188E9, 0.0, 2022-09-19 16:16:50.697
74.0, 14927.523127499, 26404.003966331955, -16742.395370292114, -7417.046417837909, 12573.8173811218, -187500.02235174447, 27843.41160576482, -31264.413149882934, 0.638, -0.672, 0.44, 192.0, 0.0, 0.0, 0.0, 0.0, 0.0, 0.0, 0.0, 0.0, 0.0, 1.6635862107022252E9, 0.0, 2022-09-19 16:16:50.702
75.0, 14938.073150881906, 26406.84263787778, -16733.924059143552, -7405.222345021051, 12585.552046960836, -187500.02235174447, 27860.04130363957, -31260.56864983662, 0.636, -0.676, 0.438, 192.0, 19.0, 224.0, 234.0, 224.0, 13.0, 176.0, 0.0, 0.0, 0.0, 1.6635862107061193E9, 0.0, 2022-09-19 16:16:50.706
76.0, 14952.95941268914, 26421.974768874024, -16718.099024069194, -7396.572219916848, 12612.932933918588, -187500.02235174447, 27908.231664685212, -31266.313048161635, 0.636, -0.676, 0.438, 192.0, 0.0, 0.0, 0.0, 0.0, 0.0, 0.0, 0.0, 0.0, 0.0, 1.6635862107102427E9, 0.0, 2022-09-19 16:16:50.710
77.0, 14943.616383506822, 26420.946588629078, -16719.373073503146, -7402.249563008495, 12623.862936957234, -187500.02235174447, 27919.742813079694, -31260.836870770083, 0.636, -0.676, 0.438, 192.0, 0.0, 0.0, 0.0, 0.0, 0.0, 0.0, 0.0, 0.0, 0.0, 1.6635862107142262E9, 0.0, 2022-09-19 16:16:50.714
78.0, 14941.068284638917, 26397.99134707348, -16721.183564804025, -7390.581952402825, 12611.502422273448, -187500.02235174447, 27873.318239846023, -31238.932161203884, 0.636, -0.676, 0.438, 192.0, 0.0, 0.0, 0.0, 0.0, 0.0, 0.0, 0.0, 0.0, 0.0, 1.663586210719201E9, 0.0, 2022-09-19 16:16:50.719
79.0, 14939.5260142715, 26377.383038685686, -16728.157309074082, -7392.526554170437, 12601.667654713114, -187500.02235174447, 27837.64485569535, -31242.731957761283, 0.636, -0.676, 0.438, 192.0, 0.0, 0.0, 0.0, 0.0, 0.0, 0.0, 0.0, 0.0, 0.0, 1.6635862107222128E9, 0.0, 2022-09-19 16:16:50.722
80.0, 14946.164482374727, 26379.618213131216, -16728.716102685466, -7402.830708364333, 12614.49755603046, -187500.02235174447, 27846.45144301074, -31255.941838734372, 0.636, -0.676, 0.438, 192.0, 0.0, 0.0, 0.0, 0.0, 0.0, 0.0, 0.0, 0.0, 0.0, 1.663586210725234E9, 0.0, 2022-09-19 16:16:50.725
81.0, 14953.562909789433, 26393.40923946014, -16716.959085101975, -7402.070749052853, 12637.989239452987, -187500.02235174447, 27888.22685339771, -31256.05359745665, 0.636, -0.676, 0.438, 192.0, 0.0, 0.0, 0.0, 0.0, 0.0, 0.0, 0.0, 0.0, 0.0, 1.663586210729286E9, 0.0, 2022-09-19 16:16:50.729
82.0, 14949.874871954307, 26392.783390615394, -16712.287570510813, -7400.975513574543, 12647.041695957387, -187500.02235174447, 27899.402725625365, -31254.198402666858, 0.636, -0.676, 0.438, 192.0, 0.0, 0.0, 0.0, 0.0, 0.0, 0.0, 0.0, 0.0, 0.0, 1.6635862107342358E9, 0.0, 2022-09-19 16:16:50.734
83.0, 14943.392866062268, 26368.88937579267, -16721.36237875967, -7398.785042617923, 12633.250669628462, -187500.02235174447, 27849.35716978993, -31251.80676601014, 0.636, -0.676, 0.438, 192.0, 0.0, 0.0, 0.0, 0.0, 0.0, 0.0, 0.0, 0.0, 0.0, 1.6635862107391837E9, 0.0, 2022-09-19 16:16:50.739
84.0, 14933.558098501933, 26343.229573157976, -16733.700541699, -7402.137804286219, 12617.582096765293, -187500.02235174447, 27807.067669280492, -31253.259629399734, 0.636, -0.676, 0.438, 192.0, 0.0, 0.0, 0.0, 0.0, 0.0, 0.0, 0.0, 0.0, 0.0, 1.6635862107423291E9, 0.0, 2022-09-19 16:16:50.742
85.0, 14928.5736594884, 26335.965256210002, -16735.466329510968, -7415.682961426135, 12618.587925265781, -187500.02235174447, 27804.96660530169, -31272.23626044229, 0.636, -0.68, 0.44, 192.0, 19.0, 224.0, 234.0, 192.0, 13.0, 192.0, 0.0, 0.0, 0.0, 1.6635862107462153E9, 0.0, 2022-09-19 16:16:50.746
86.0, 14947.14795913076, 26359.278125676887, -16716.22147753495, -7406.94342934411, 12653.054315215864, -187500.02235174447, 27856.487376271176, -31268.86114702954, 0.636, -0.68, 0.44, 192.0, 0.0, 0.0, 0.0, 0.0, 0.0, 0.0, 0.0, 0.0, 0.0, 1.6635862107502375E9, 0.0, 2022-09-19 16:16:50.750
87.0, 14948.600822520355, 26367.16829146961, -16719.283666525327, -7397.13101352823, 12673.282643947918, -187500.02235174447, 27879.397914337864, -31253.058463699635, 0.636, -0.68, 0.44, 192.0, 0.0, 0.0, 0.0, 0.0, 0.0, 0.0, 0.0, 0.0, 0.0, 1.663586210754238E9, 0.0, 2022-09-19 16:16:50.754
88.0, 14939.391903804768, 26350.605648828227, -16727.12912882914, -7384.36816744425, 12664.69957407708, -187500.02235174447, 27833.845059137948, -31229.432669810376, 0.636, -0.68, 0.44, 192.0, 0.0, 0.0, 0.0, 0.0, 0.0, 0.0, 0.0, 0.0, 0.0, 1.663586210758411E9, 0.0, 2022-09-19 16:16:50.758
89.0, 14941.470616039112, 26341.93317197957, -16720.155384559082, -7383.094118010297, 12662.30793742036, -187500.02235174447, 27805.145419257336, -31233.634797767976, 0.636, -0.68, 0.44, 192.0, 0.0, 0.0, 0.0, 0.0, 0.0, 0.0, 0.0, 0.0, 0.0, 1.663586210762238E9, 0.0, 2022-09-19 16:16:50.762
90.0, 14943.102293384349, 26341.128509179176, -16713.025178077838, -7390.134917513718, 12671.427449158127, -187500.02235174447, 27814.331986228466, -31244.631856039985, 0.636, -0.68, 0.44, 192.0, 0.0, 0.0, 0.0, 0.0, 0.0, 0.0, 0.0, 0.0, 0.0, 1.663586210765262E9, 0.0, 2022-09-19 16:16:50.765
91.0, 14944.845729451863, 26353.444320374052, -16708.17484953104, -7392.548905914892, 12693.600379657792, -187500.02235174447, 27855.07921637049, -31246.531754318687, 0.636, -0.68, 0.44, 192.0, 0.0, 0.0, 0.0, 0.0, 0.0, 0.0, 0.0, 0.0, 0.0, 1.663586210769294E9, 0.0, 2022-09-19 16:16:50.769
92.0, 14947.751456231053, 26360.39571289965, -16719.08250082523, -7399.232077507028, 12710.587705443824, -187500.02235174447, 27873.98879217968, -31257.03707421268, 0.636, -0.68, 0.44, 192.0, 0.0, 0.0, 0.0, 0.0, 0.0, 0.0, 0.0, 0.0, 0.0, 1.663586210774311E9, 0.0, 2022-09-19 16:16:50.774
93.0, 14937.179081103694, 26341.26261964591, -16743.06592262577, -7402.9201153421545, 12697.400176215193, -187500.02235174447, 27825.150230544834, -31260.00985622524, 0.636, -0.68, 0.44, 192.0, 0.0, 0.0, 0.0, 0.0, 0.0, 0.0, 0.0, 0.0, 0.0, 1.6635862107782967E9, 0.0, 2022-09-19 16:16:50.778
94.0, 14934.38511304678, 26328.20920088401, -16744.49643427091, -7398.919153084655, 12692.66160639067, -187500.02235174447, 27794.282471452058, -31256.03124571219, 0.636, -0.68, 0.44, 192.0, 0.0, 0.0, 0.0, 0.0, 0.0, 0.0, 0.0, 0.0, 0.0, 1.6635862107822895E9, 0.0, 2022-09-19 16:16:50.782
95.0, 14945.784502718987, 26333.238343386456, -16726.190355562016, -7389.419661691149, 12707.70433040909, -187500.02235174447, 27807.537055914054, -31245.3247601181, 0.632, -0.678, 0.444, 192.0, 19.0, 192.0, 234.0, 208.0, 13.0, 224.0, 0.0, 0.0, 0.0, 1.663586210786373E9, 0.0, 2022-09-19 16:16:50.786
96.0, 14959.888453470285, 26355.008942485925, -16701.40227096108, -7374.823972561833, 12741.18724360314, -187500.02235174447, 27859.437806539278, -31234.640626268465, 0.632, -0.678, 0.444, 192.0, 0.0, 0.0, 0.0, 0.0, 0.0, 0.0, 0.0, 0.0, 0.0, 1.6635862107893624E9, 0.0, 2022-09-19 16:16:50.789
97.0, 14953.6299650228, 26363.904936779134, -16702.341044228204, -7372.588798116303, 12757.615775777791, -187500.02235174447, 27881.521330061118, -31236.048786169147, 0.632, -0.678, 0.444, 192.0, 0.0, 0.0, 0.0, 0.0, 0.0, 0.0, 0.0, 0.0, 0.0, 1.663586210793376E9, 0.0, 2022-09-19 16:16:50.793
98.0, 14955.686325512688, 26354.2713349189, -16713.002826333384, -7376.790926073901, 12751.133769885751, -187500.02235174447, 27841.779928419583, -31240.452079826842, 0.632, -0.678, 0.444, 192.0, 0.0, 0.0, 0.0, 0.0, 0.0, 0.0, 0.0, 0.0, 0.0, 1.6635862107973516E9, 0.0, 2022-09-19 16:16:50.797
99.0, 14957.854444724851, 26345.800023770338, -16719.68599792552, -7382.803545332378, 12747.155159372707, -187500.02235174447, 27812.856771094415, -31252.298504388156, 0.632, -0.678, 0.444, 192.0, 0.0, 0.0, 0.0, 0.0, 0.0, 0.0, 0.0, 0.0, 0.0, 1.6635862108013084E9, 0.0, 2022-09-19 16:16:50.801
100.0, 14957.608575535844, 26349.778634283382, -16719.171907803047, -7385.262237222462, 12756.453485066115, -187500.02235174447, 27823.339739243955, -31255.85243175655, 0.632, -0.678, 0.444, 192.0, 0.0, 0.0, 0.0, 0.0, 0.0, 0.0, 0.0, 0.0, 0.0, 1.663586210806363E9, 0.0, 2022-09-19 16:16:50.806
101.0, 14961.34131685988, 26362.608535600728, -16712.26521876636, -7376.36624292925, 12773.887845741254, -187500.02235174447, 27864.46694904172, -31243.17899265039, 0.632, -0.678, 0.444, 192.0, 0.0, 0.0, 0.0, 0.0, 0.0, 0.0, 0.0, 0.0, 0.0, 1.6635862108103368E9, 0.0, 2022-09-19 16:16:50.810
102.0, 14956.468636568623, 26368.107064736734, -16716.914381613064, -7379.897818553188, 12781.442735367149, -187500.02235174447, 27882.527158561606, -31236.160544891423, 0.632, -0.678, 0.444, 192.0, 0.0, 0.0, 0.0, 0.0, 0.0, 0.0, 0.0, 0.0, 0.0, 1.6635862108143504E9, 0.0, 2022-09-19 16:16:50.814
103.0, 14944.711618985131, 26348.415177871608, -16724.916306128063, -7386.022196533942, 12763.71780201409, -187500.02235174447, 27836.706082428227, -31242.12846066099, 0.632, -0.678, 0.444, 192.0, 0.0, 0.0, 0.0, 0.0, 0.0, 0.0, 0.0, 0.0, 0.0, 1.6635862108182113E9, 0.0, 2022-09-19 16:16:50.818
104.0, 14947.013848664028, 26341.55319232383, -16717.920210113552, -7392.325388470339, 12760.879130468265, -187500.02235174447, 27812.677957138774, -31256.970018979315, 0.632, -0.678, 0.444, 192.0, 0.0, 0.0, 0.0, 0.0, 0.0, 0.0, 0.0, 0.0, 0.0, 1.6635862108215916E9, 0.0, 2022-09-19 16:16:50.821
105.0, 14954.948717945663, 26348.43752961606, -16703.771555873343, -7392.280684981429, 12774.133714930264, -187500.02235174447, 27825.820782878494, -31255.405396867445, 0.634, -0.674, 0.438, 192.0, 19.0, 208.0, 234.0, 240.0, 13.0, 176.0, 0.0, 0.0, 0.0, 1.663586210825358E9, 0.0, 2022-09-19 16:16:50.825
106.0, 14967.420991351724, 26363.524957123394, -16697.177791259026, -7393.286513481917, 12793.803250050933, -187500.02235174447, 27869.809015966537, -31256.813556768127, 0.634, -0.674, 0.438, 192.0, 0.0, 0.0, 0.0, 0.0, 0.0, 0.0, 0.0, 0.0, 0.0, 1.6635862108294084E9, 0.0, 2022-09-19 16:16:50.829
107.0, 14966.795142506975, 26378.142997997165, -16698.273026737337, -7395.342873971806, 12809.717692103111, -187500.02235174447, 27903.694260560784, -31252.834946255083, 0.634, -0.674, 0.438, 192.0, 0.0, 0.0, 0.0, 0.0, 0.0, 0.0, 0.0, 0.0, 0.0, 1.663586210834355E9, 0.0, 2022-09-19 16:16:50.834
108.0, 14951.730066744098, 26361.490948377963, -16718.63546593612, -7392.995940803999, 12794.652616340234, -187500.02235174447, 27866.143329875867, -31247.4258240969, 0.634, -0.674, 0.438, 192.0, 0.0, 0.0, 0.0, 0.0, 0.0, 0.0, 0.0, 0.0, 0.0, 1.6635862108384438E9, 0.0, 2022-09-19 16:16:50.838
109.0, 14949.986630676583, 26349.13043369418, -16726.011541606375, -7393.331216970828, 12781.330976644871, -187500.02235174447, 27842.204611564233, -31251.89617298796, 0.634, -0.674, 0.438, 192.0, 0.0, 0.0, 0.0, 0.0, 0.0, 0.0, 0.0, 0.0, 0.0, 1.663586210842383E9, 0.0, 2022-09-19 16:16:50.842
110.0, 14942.901127684252, 26350.31507615031, -16728.470233496457, -7399.366187973761, 12782.202694678628, -187500.02235174447, 27855.302733815046, -31264.14492894947, 0.634, -0.674, 0.438, 192.0, 0.0, 0.0, 0.0, 0.0, 0.0, 0.0, 0.0, 0.0, 0.0, 1.6635862108453698E9, 0.0, 2022-09-19 16:16:50.845
111.0, 14950.567776032422, 26364.21786120151, -16720.401253748092, -7397.89097283971, 12795.837258796366, -187500.02235174447, 27900.877940759416, -31263.764949293727, 0.634, -0.674, 0.438, 192.0, 0.0, 0.0, 0.0, 0.0, 0.0, 0.0, 0.0, 0.0, 0.0, 1.663586210849345E9, 0.0, 2022-09-19 16:16:50.849
112.0, 14958.726162758609, 26381.294593965365, -16717.45082347999, -7396.616923405758, 12812.086977015375, -187500.02235174447, 27935.545496409595, -31268.391760395978, 0.634, -0.674, 0.438, 192.0, 0.0, 0.0, 0.0, 0.0, 0.0, 0.0, 0.0, 0.0, 0.0, 1.6635862108533766E9, 0.0, 2022-09-19 16:16:50.853
113.0, 14951.931232444196, 26369.425817659598, -16729.230192807936, -7390.358434958272, 12798.899447786744, -187500.02235174447, 27901.36967913743, -31265.038998727683, 0.634, -0.674, 0.438, 192.0, 0.0, 0.0, 0.0, 0.0, 0.0, 0.0, 0.0, 0.0, 0.0, 1.663586210857538E9, 0.0, 2022-09-19 16:16:50.857
114.0, 14947.237366108582, 26360.999209999947, -16732.940582387517, -7381.104812753775, 12788.43883138166, -187500.02235174447, 27877.453312570255, -31254.108995689036, 0.634, -0.674, 0.438, 192.0, 0.0, 0.0, 0.0, 0.0, 0.0, 0.0, 0.0, 0.0, 0.0, 1.6635862108623803E9, 0.0, 2022-09-19 16:16:50.862
115.0, 14952.53472954449, 26366.855367047236, -16725.78802416182, -7373.7510888279785, 12795.457279140626, -187500.02235174447, 27894.060658700546, -31240.161507148925, 0.634, -0.674, 0.438, 192.0, 0.0, 0.0, 0.0, 0.0, 0.0, 0.0, 0.0, 0.0, 0.0, 1.6635862108664262E9, 0.0, 2022-09-19 16:16:50.866
116.0, 14958.256776125048, 26380.802855587346, -16720.49066072591, -7378.4449551635935, 12807.706035102134, -187500.02235174447, 27939.546458667097, -31254.08664394458, 0.632, -0.678, 0.442, 192.0, 19.0, 192.0, 234.0, 208.0, 13.0, 208.0, 0.0, 0.0, 0.0, 1.6635862108705368E9, 0.0, 2022-09-19 16:16:50.870
117.0, 14955.48515981259, 26393.2304255045, -16725.720968928454, -7387.028025034431, 12818.7254451186, -187500.02235174447, 27971.91178463838, -31263.4296731269, 0.632, -0.678, 0.442, 192.0, 0.0, 0.0, 0.0, 0.0, 0.0, 0.0, 0.0, 0.0, 0.0, 1.66358621087351E9, 0.0, 2022-09-19 16:16:50.873
118.0, 14941.515319528024, 26375.1255124957, -16735.958067888983, -7391.699539625591, 12800.307607687428, -187500.02235174447, 27932.460955674764, -31267.452987128854, 0.632, -0.678, 0.442, 192.0, 0.0, 0.0, 0.0, 0.0, 0.0, 0.0, 0.0, 0.0, 0.0, 1.6635862108774688E9, 0.0, 2022-09-19 16:16:50.877
119.0, 14937.089674125871, 26360.1721954551, -16736.963896389472, -7380.657777864669, 12786.04719472494, -187500.02235174447, 27902.308452404555, -31256.545335834664, 0.632, -0.678, 0.442, 192.0, 0.0, 0.0, 0.0, 0.0, 0.0, 0.0, 0.0, 0.0, 0.0, 1.6635862108815136E9, 0.0, 2022-09-19 16:16:50.881
120.0, 14939.078979382395, 26360.909803022125, -16734.68401845503, -7384.234056977518, 12787.433002881171, -187500.02235174447, 27913.171400209834, -31260.412187625432, 0.632, -0.678, 0.442, 192.0, 0.0, 0.0, 0.0, 0.0, 0.0, 0.0, 0.0, 0.0, 0.0, 1.663586210885486E9, 0.0, 2022-09-19 16:16:50.885
121.0, 14947.170310875215, 26377.60655613024, -16724.804547405787, -7392.638312892714, 12804.666197856212, -187500.02235174447, 27959.48421472123, -31268.123539462515, 0.632, -0.678, 0.442, 192.0, 0.0, 0.0, 0.0, 0.0, 0.0, 0.0, 0.0, 0.0, 0.0, 1.6635862108895094E9, 0.0, 2022-09-19 16:16:50.889
122.0, 14956.267470868526, 26388.961242313533, -16724.759843916876, -7394.426452449138, 12812.243439226562, -187500.02235174447, 27987.602709246006, -31272.70564707585, 0.632, -0.678, 0.442, 192.0, 0.0, 0.0, 0.0, 0.0, 0.0, 0.0, 0.0, 0.0, 0.0, 1.6635862108945808E9, 0.0, 2022-09-19 16:16:50.894
123.0, 14950.098389398861, 26374.74553283996, -16740.182547591037, -7390.93958031411, 12795.72550007409, -187500.02235174447, 27945.670836647852, -31263.65319057145, 0.632, -0.678, 0.442, 192.0, 0.0, 0.0, 0.0, 0.0, 0.0, 0.0, 0.0, 0.0, 0.0, 1.6635862108975089E9, 0.0, 2022-09-19 16:16:50.897
124.0, 14948.824339964909, 26367.74943682545, -16736.226288822447, -7379.942522042099, 12789.087031970863, -187500.02235174447, 27920.1898479688, -31249.23631539778, 0.632, -0.678, 0.442, 192.0, 0.0, 0.0, 0.0, 0.0, 0.0, 0.0, 0.0, 0.0, 0.0, 1.6635862109015002E9, 0.0, 2022-09-19 16:16:50.901
125.0, 14947.885566697785, 26375.997230529458, -16724.089291583216, -7381.238923220507, 12797.983026264075, -187500.02235174447, 27937.892429577405, -31253.103167188547, 0.632, -0.678, 0.442, 192.0, 0.0, 0.0, 0.0, 0.0, 0.0, 0.0, 0.0, 0.0, 0.0, 1.6635862109055865E9, 0.0, 2022-09-19 16:16:50.905
126.0, 14955.5298633015, 26388.581262657794, -16719.68599792552, -7390.917228569655, 12808.57775313589, -187500.02235174447, 27978.125569596956, -31268.838795285083, 0.636, -0.672, 0.45, 192.0, 19.0, 224.0, 235.0, 0.0, 14.0, 16.0, 0.0, 0.0, 0.0, 1.6635862109094808E9, 0.0, 2022-09-19 16:16:50.909
127.0, 14950.880700454796, 26398.974823829514, -16718.233134535927, -7390.17962100263, 12816.736139862078, -187500.02235174447, 28007.272244366675, -31259.18284168039, 0.636, -0.672, 0.45, 192.0, 0.0, 0.0, 0.0, 0.0, 0.0, 0.0, 0.0, 0.0, 0.0, 1.6635862109135983E9, 0.0, 2022-09-19 16:16:50.913
128.0, 14942.275278839503, 26380.93696605408, -16726.972666617952, -7386.849211078788, 12798.742985575556, -187500.02235174447, 27965.49683397971, -31252.052635199147, 0.636, -0.672, 0.45, 192.0, 0.0, 0.0, 0.0, 0.0, 0.0, 0.0, 0.0, 0.0, 0.0, 1.663586210917503E9, 0.0, 2022-09-19 16:16:50.917
129.0, 14942.364685817325, 26368.509396136928, -16732.06886435376, -7386.8939145676995, 12785.398994135738, -187500.02235174447, 27930.71751960725, -31256.05359745665, 0.636, -0.672, 0.45, 192.0, 0.0, 0.0, 0.0, 0.0, 0.0, 0.0, 0.0, 0.0, 0.0, 1.6635862109225187E9, 0.0, 2022-09-19 16:16:50.922
130.0, 14937.916688670719, 26367.101236236245, -16735.779253933342, -7392.101871025786, 12785.95778774712, -187500.02235174447, 27934.025577786637, -31265.75425455025, 0.636, -0.672, 0.45, 192.0, 0.0, 0.0, 0.0, 0.0, 0.0, 0.0, 0.0, 0.0, 0.0, 1.6635862109255528E9, 0.0, 2022-09-19 16:16:50.925
131.0, 14943.348162573358, 26383.529768410895, -16731.3983120201, -7399.075615295842, 12801.089918743362, -187500.02235174447, 27977.83499691904, -31276.170167466425, 0.636, -0.672, 0.45, 192.0, 0.0, 0.0, 0.0, 0.0, 0.0, 0.0, 0.0, 0.0, 0.0, 1.66358621092956E9, 0.0, 2022-09-19 16:16:50.929
132.0, 14955.19458713467, 26401.94760584207, -16728.649047452098, -7411.257316023984, 12813.562192149424, -187500.02235174447, 28010.669709523885, -31285.110865248545, 0.636, -0.672, 0.45, 192.0, 0.0, 0.0, 0.0, 0.0, 0.0, 0.0, 0.0, 0.0, 0.0, 1.6635862109335332E9, 0.0, 2022-09-19 16:16:50.933
133.0, 14957.25094762456, 26396.583187172793, -16724.625733450142, -7400.014388562965, 12804.085052500373, -187500.02235174447, 27980.651316720407, -31262.580306837597, 0.636, -0.672, 0.45, 192.0, 0.0, 0.0, 0.0, 0.0, 0.0, 0.0, 0.0, 0.0, 0.0, 1.6635862109375365E9, 0.0, 2022-09-19 16:16:50.937
134.0, 14951.439494066179, 26386.9272335681, -16719.753053158885, -7390.0678622803525, 12791.635130838768, -187500.02235174447, 27951.370531483954, -31247.962265963826, 0.636, -0.672, 0.45, 192.0, 0.0, 0.0, 0.0, 0.0, 0.0, 0.0, 0.0, 0.0, 0.0, 1.663586210941559E9, 0.0, 2022-09-19 16:16:50.941
135.0, 14947.997325420061, 26386.994288801467, -16714.992131589905, -7389.263199479962, 12790.092860471352, -187500.02235174447, 27957.181985042334, -31248.56576306412, 0.636, -0.672, 0.45, 192.0, 0.0, 0.0, 0.0, 0.0, 0.0, 0.0, 0.0, 0.0, 0.0, 1.6635862109456193E9, 0.0, 2022-09-19 16:16:50.945
136.0, 14947.773807975509, 26399.153637785155, -16712.041701321807, -7399.187374018118, 12804.95677053413, -187500.02235174447, 28000.052630907612, -31263.362617893534, 0.634, -0.676, 0.45, 192.0, 19.0, 208.0, 234.0, 224.0, 14.0, 16.0, 0.0, 0.0, 0.0, 1.663586210950641E9, 0.0, 2022-09-19 16:16:50.950
137.0, 14951.595956277366, 26408.98840534549, -16720.35655025918, -7416.487624226525, 12815.35033170585, -187500.02235174447, 28032.529715601173, -31283.099208247568, 0.634, -0.676, 0.45, 192.0, 0.0, 0.0, 0.0, 0.0, 0.0, 0.0, 0.0, 0.0, 0.0, 1.663586210953554E9, 0.0, 2022-09-19 16:16:50.953
138.0, 14947.013848664028, 26398.326623240308, -16732.895878898606, -7419.683923683635, 12802.00634026603, -187500.02235174447, 27996.54340702813, -31283.85916755905, 0.634, -0.676, 0.45, 192.0, 0.0, 0.0, 0.0, 0.0, 0.0, 0.0, 0.0, 0.0, 0.0, 1.6635862109576044E9, 0.0, 2022-09-19 16:16:50.957
139.0, 14942.990534662073, 26391.151713270156, -16734.728721943942, -7417.940487616121, 12792.059813983418, -187500.02235174447, 27965.452130490798, -31268.65998132944, 0.634, -0.676, 0.45, 192.0, 0.0, 0.0, 0.0, 0.0, 0.0, 0.0, 0.0, 0.0, 0.0, 1.663586210961632E9, 0.0, 2022-09-19 16:16:50.961
140.0, 14939.503662527046, 26391.352878970254, -16733.052341109793, -7427.7529034320005, 12792.931532017175, -187500.02235174447, 27971.91178463838, -31263.09439696007, 0.634, -0.676, 0.45, 192.0, 0.0, 0.0, 0.0, 0.0, 0.0, 0.0, 0.0, 0.0, 0.0, 1.6635862109656322E9, 0.0, 2022-09-19 16:16:50.965
141.0, 14936.352066558848, 26405.99327158848, -16731.130091086638, -7432.111493600785, 12807.929552546688, -187500.02235174447, 28013.240160136244, -31268.95055400736, 0.634, -0.676, 0.45, 192.0, 0.0, 0.0, 0.0, 0.0, 0.0, 0.0, 0.0, 0.0, 0.0, 1.66358621096969E9, 0.0, 2022-09-19 16:16:50.969
142.0, 14947.662049253233, 26422.108879340754, -16721.45178573749, -7438.28057507045, 12824.514546932525, -187500.02235174447, 28052.378064677487, -31272.52683312021, 0.634, -0.676, 0.45, 192.0, 0.0, 0.0, 0.0, 0.0, 0.0, 0.0, 0.0, 0.0, 0.0, 1.663586210973637E9, 0.0, 2022-09-19 16:16:50.973
143.0, 14934.563927002422, 26410.284806523898, -16727.68792244052, -7437.341801803327, 12811.304665959438, -187500.02235174447, 28016.034128193158, -31256.880612001492, 0.634, -0.676, 0.45, 192.0, 0.0, 0.0, 0.0, 0.0, 0.0, 0.0, 0.0, 0.0, 0.0, 1.6635862109796195E9, 0.0, 2022-09-19 16:16:50.979
144.0, 14928.752473444043, 26393.968033071524, -16730.683056197533, -7431.843272667322, 12797.58069486388, -187500.02235174447, 27979.287860308632, -31236.495821058255, 0.634, -0.676, 0.45, 192.0, 0.0, 0.0, 0.0, 0.0, 0.0, 0.0, 0.0, 0.0, 0.0, 1.663586210983663E9, 0.0, 2022-09-19 16:16:50.983
145.0, 14938.184909604182, 26400.248873263467, -16724.35751251668, -7432.871452912266, 12803.570962377902, -187500.02235174447, 27986.26160457869, -31235.981730935782, 0.634, -0.676, 0.45, 192.0, 0.0, 0.0, 0.0, 0.0, 0.0, 0.0, 0.0, 0.0, 0.0, 1.6635862109866312E9, 0.0, 2022-09-19 16:16:50.986
146.0, 14952.266508611025, 26420.454850251062, -16711.996997832895, -7437.118284358774, 12823.508718432036, -187500.02235174447, 28030.003968477726, -31244.430690339886, 0.63, -0.676, 0.452, 192.0, 19.0, 176.0, 234.0, 224.0, 14.0, 32.0, 0.0, 0.0, 0.0, 1.663586210989622E9, 0.0, 2022-09-19 16:16:50.989
147.0, 14945.359819574336, 26433.12828935722, -16716.73556765742, -7447.511845530492, 12838.35027675036, -187500.02235174447, 28066.727884617794, -31258.37817888, 0.63, -0.676, 0.452, 192.0, 0.0, 0.0, 0.0, 0.0, 0.0, 0.0, 0.0, 0.0, 0.0, 1.6635862109936564E9, 0.0, 2022-09-19 16:16:50.993
148.0, 14929.91476415572, 26422.04182410739, -16735.13105334414, -7455.245549112028, 12826.861480100331, -187500.02235174447, 28034.764890046703, -31262.84852777106, 0.63, -0.676, 0.452, 192.0, 0.0, 0.0, 0.0, 0.0, 0.0, 0.0, 0.0, 0.0, 0.0, 1.6635862109976735E9, 0.0, 2022-09-19 16:16:50.997
149.0, 14923.745682686054, 26401.70173665306, -16746.619849994167, -7461.772258492978, 12806.811965323921, -187500.02235174447, 27992.184816859346, -31264.346094649565, 0.63, -0.676, 0.452, 192.0, 0.0, 0.0, 0.0, 0.0, 0.0, 0.0, 0.0, 0.0, 0.0, 1.6635862110016901E9, 0.0, 2022-09-19 16:16:51.001
