%OpenBCI Raw EEG Data
%Number of channels = 8
%Sample Rate = 250 Hz
%Board = OpenBCI_GUI$BoardCytonSerial
Sample Index, EXG Channel 0, EXG Channel 1, EXG Channel 2, EXG Channel 3, EXG Channel 4, EXG Channel 5, EXG Channel 6, EXG Channel 7, Accel Channel 0, Accel Channel 1, Accel Channel 2, Other, Other, Other, Other, Other, Other, Other, Analog Channel 0, Analog Channel 1, Analog Channel 2, Timestamp, Other, Timestamp (Formatted)
62.0, 30513.305129206794, 48401.71914121141, -39089.13303484119, -16700.15057327158, -187500.02235174447, -183597.7430460147, -254.7204798126793, -36218.76671537956, 0.628, -0.746, 0.304, 192.0, 19.0, 160.0, 232.0, 176.0, 9.0, 128.0, 0.0, 0.0, 0.0, 1.6635910670836778E9, 0.0, 2022-09-19 17:37:47.083
63.0, 30401.00996506333, 48602.48250990898, -39109.607232762246, -16555.825359323666, -187500.02235174447, -181802.74150404235, -789.4859659059008, -35968.717750158045, 0.628, -0.746, 0.304, 192.0, 0.0, 0.0, 0.0, 0.0, 0.0, 0.0, 0.0, 0.0, 0.0, 1.6635910670837312E9, 0.0, 2022-09-19 17:37:47.083
0.0, 0.0, 0.0, 0.0, 0.0, 0.0, 0.0, 0.0, 0.0, 0.628, -0.746, 0.304, 192.0, 0.0, 0.0, 0.0, 0.0, 0.0, 0.0, 0.0, 0.0, 0.0, 1.6635910671878228E9, 0.0, 2022-09-19 17:37:47.187
1.0, 21884.011850835308, 58159.64140410917, -38575.557002491594, -4370.637759046288, -187500.02235174447, -99086.22194364334, 12069.763191910171, -37004.47523647252, 0.646, -0.744, 0.25, 192.0, 20.0, 48.0, 232.0, 192.0, 7.0, 208.0, 0.0, 0.0, 0.0, 1.6635910672047791E9, 0.0, 2022-09-19 17:37:47.204
2.0, 21570.528634849627, 58108.299447095334, -38559.977836606246, -4331.879834160785, -187500.02235174447, -99940.39385800289, 12033.441607170298, -36968.89125929967, 0.646, -0.744, 0.25, 192.0, 0.0, 0.0, 0.0, 0.0, 0.0, 0.0, 0.0, 0.0, 0.0, 1.663591067207826E9, 0.0, 2022-09-19 17:37:47.207
3.0, 21632.21944954627, 58215.878393158724, -38605.73185750626, -4311.539746706456, -187500.02235174447, -99958.58817798951, 12348.86942492359, -37021.28374830291, 0.646, -0.744, 0.25, 192.0, 0.0, 0.0, 0.0, 0.0, 0.0, 0.0, 0.0, 0.0, 0.0, 1.6635910672118409E9, 0.0, 2022-09-19 17:37:47.211
4.0, 22055.31562034078, 58429.9410498072, -38662.72880586729, -4277.833316067853, -187500.02235174447, -99070.50866729124, 12830.393055724271, -37047.92702769364, 0.646, -0.744, 0.25, 192.0, 0.0, 0.0, 0.0, 0.0, 0.0, 0.0, 0.0, 0.0, 0.0, 1.6635910672158415E9, 0.0, 2022-09-19 17:37:47.215
5.0, 22375.012621285037, 58520.51031834011, -38671.73655888278, -4298.441624455646, -187500.02235174447, -98141.41370551751, 12812.288142715472, -37042.40614681318, 0.646, -0.744, 0.25, 192.0, 0.0, 0.0, 0.0, 0.0, 0.0, 0.0, 0.0, 0.0, 0.0, 1.663591067219902E9, 0.0, 2022-09-19 17:37:47.219
6.0, 21936.180822393995, 58292.097841751325, -38583.51422351768, -4345.760267467531, -187500.02235174447, -98928.75390395569, 12109.258724362699, -36990.61715491023, 0.646, -0.744, 0.25, 192.0, 0.0, 0.0, 0.0, 0.0, 0.0, 0.0, 0.0, 0.0, 0.0, 1.6635910672239163E9, 0.0, 2022-09-19 17:37:47.223
7.0, 21596.948396795797, 58209.37403552223, -38566.39278726492, -4322.961488123118, -187500.02235174447, -99833.32900206198, 12042.561118908063, -36986.05739904135, 0.646, -0.744, 0.25, 192.0, 0.0, 0.0, 0.0, 0.0, 0.0, 0.0, 0.0, 0.0, 0.0, 1.6635910672279482E9, 0.0, 2022-09-19 17:37:47.227
8.0, 21642.70241769581, 58302.17847850067, -38609.822226741584, -4304.029560569473, -187500.02235174447, -99894.39396791387, 12338.654677707515, -37011.27016678693, 0.654, -0.742, 0.222, 192.0, 20.0, 112.0, 232.0, 208.0, 6.0, 240.0, 0.0, 0.0, 0.0, 1.663591067230902E9, 0.0, 2022-09-19 17:37:47.230
9.0, 22031.689826451522, 58512.016655447085, -38662.01355004472, -4284.695301615632, -187500.02235174447, -99075.82838247162, 12805.6720263567, -37048.17289688264, 0.654, -0.742, 0.222, 192.0, 0.0, 0.0, 0.0, 0.0, 0.0, 0.0, 0.0, 0.0, 0.0, 1.663591067234825E9, 0.0, 2022-09-19 17:37:47.234
10.0, 22397.43142097371, 58626.189366124796, -38671.915372838426, -4291.669045885688, -187500.02235174447, -98073.68791981792, 12863.07130611793, -37046.652978259684, 0.654, -0.742, 0.222, 192.0, 0.0, 0.0, 0.0, 0.0, 0.0, 0.0, 0.0, 0.0, 0.0, 1.6635910672411234E9, 0.0, 2022-09-19 17:37:47.241
11.0, 21986.047564273784, 58395.16173543474, -38573.09831060151, -4328.325906792392, -187500.02235174447, -98784.56280047451, 12171.240111737265, -36983.174024006614, 0.654, -0.742, 0.222, 192.0, 0.0, 0.0, 0.0, 0.0, 0.0, 0.0, 0.0, 0.0, 0.0, 1.6635910672429788E9, 0.0, 2022-09-19 17:37:47.242
12.0, 21617.020263316663, 58311.87913559427, -38558.25675228319, -4307.002342582028, -187500.02235174447, -99739.56343407196, 12057.894415604404, -36972.08755875678, 0.654, -0.742, 0.222, 192.0, 0.0, 0.0, 0.0, 0.0, 0.0, 0.0, 0.0, 0.0, 0.0, 1.6635910672468424E9, 0.0, 2022-09-19 17:37:47.246
13.0, 21646.81513867559, 58408.975113508124, -38599.83099697006, -4290.059720284906, -187500.02235174447, -99845.04131615655, 12352.892738925546, -36994.81928286782, 0.654, -0.742, 0.222, 192.0, 0.0, 0.0, 0.0, 0.0, 0.0, 0.0, 0.0, 0.0, 0.0, 1.663591067251864E9, 0.0, 2022-09-19 17:37:47.251
14.0, 22022.235038546925, 58586.69383367227, -38660.292465721664, -4261.404783893202, -187500.02235174447, -99074.26376035974, 12803.548610633447, -37024.54710299338, 0.654, -0.742, 0.222, 192.0, 0.0, 0.0, 0.0, 0.0, 0.0, 0.0, 0.0, 0.0, 0.0, 1.6635910672558665E9, 0.0, 2022-09-19 17:37:47.255
15.0, 22407.377947256322, 58674.69265159281, -38695.98820161679, -4291.065548785395, -187500.02235174447, -98031.6889919864, 12876.415297557747, -37060.73457726653, 0.654, -0.742, 0.222, 192.0, 0.0, 0.0, 0.0, 0.0, 0.0, 0.0, 0.0, 0.0, 0.0, 1.6635910672588873E9, 0.0, 2022-09-19 17:37:47.258
16.0, 22019.619884445656, 58434.38904695381, -38618.293537890146, -4363.462849076134, -187500.02235174447, -98672.4911537756, 12167.909701813425, -37024.81532392685, 0.654, -0.742, 0.222, 192.0, 0.0, 0.0, 0.0, 0.0, 0.0, 0.0, 0.0, 0.0, 0.0, 1.663591067262905E9, 0.0, 2022-09-19 17:37:47.262
17.0, 21640.690760694833, 58332.8674236378, -38554.23343828123, -4323.319116034403, -187500.02235174447, -99660.28179648898, 12049.221938755743, -36975.1273960027, 0.654, -0.742, 0.222, 192.0, 0.0, 0.0, 0.0, 0.0, 0.0, 0.0, 0.0, 0.0, 0.0, 1.6635910672669306E9, 0.0, 2022-09-19 17:37:47.266
18.0, 21661.656696993912, 58420.10628224687, -38579.423854282366, -4285.052929526917, -187500.02235174447, -99797.052120811, 12359.955890173424, -36996.96505033554, 0.662, -0.744, 0.20800000000000002, 192.0, 20.0, 176.0, 232.0, 192.0, 6.0, 128.0, 0.0, 0.0, 0.0, 1.663591067270928E9, 0.0, 2022-09-19 17:37:47.270
19.0, 22004.040718560307, 58595.74629017667, -38642.56753236861, -4270.099612486317, -187500.02235174447, -99096.72726353732, 12797.15601171923, -37032.459620530564, 0.662, -0.744, 0.20800000000000002, 192.0, 0.0, 0.0, 0.0, 0.0, 0.0, 0.0, 0.0, 0.0, 0.0, 1.6635910672748713E9, 0.0, 2022-09-19 17:37:47.274
20.0, 22420.3419590404, 58744.9665361603, -38686.19813754537, -4281.968388792085, -187500.02235174447, -98008.84550915308, 12924.628010347846, -37047.92702769364, 0.662, -0.744, 0.20800000000000002, 192.0, 0.0, 0.0, 0.0, 0.0, 0.0, 0.0, 0.0, 0.0, 0.0, 1.6635910672799015E9, 0.0, 2022-09-19 17:37:47.279
21.0, 22069.620736792178, 58545.87954829688, -38606.5141685622, -4336.2160725851145, -187500.02235174447, -98558.38549833125, 12222.962048406845, -36989.61132640974, 0.662, -0.744, 0.20800000000000002, 192.0, 0.0, 0.0, 0.0, 0.0, 0.0, 0.0, 0.0, 0.0, 0.0, 1.6635910672839272E9, 0.0, 2022-09-19 17:37:47.283
22.0, 21648.46916776528, 58427.99644803959, -38566.415139009376, -4334.025601628495, -187500.02235174447, -99599.86503122629, 12029.686514101806, -36980.84944258326, 0.662, -0.744, 0.20800000000000002, 192.0, 0.0, 0.0, 0.0, 0.0, 0.0, 0.0, 0.0, 0.0, 0.0, 1.6635910672879615E9, 0.0, 2022-09-19 17:37:47.287
23.0, 21659.75679871521, 58528.28872541055, -38592.11964513298, -4295.759415121009, -187500.02235174447, -99774.20863797769, 12319.812157131691, -36988.44903569806, 0.662, -0.744, 0.20800000000000002, 192.0, 0.0, 0.0, 0.0, 0.0, 0.0, 0.0, 0.0, 0.0, 0.0, 1.6635910672919571E9, 0.0, 2022-09-19 17:37:47.291
24.0, 21999.97270106944, 58730.88493715345, -38650.74827083925, -4269.719632830576, -187500.02235174447, -99112.93227826743, 12746.238737850039, -37024.144771593186, 0.662, -0.744, 0.20800000000000002, 192.0, 0.0, 0.0, 0.0, 0.0, 0.0, 0.0, 0.0, 0.0, 0.0, 1.6635910672959924E9, 0.0, 2022-09-19 17:37:47.295
25.0, 22438.268058093556, 58883.79322097221, -38669.76960537072, -4282.683644614654, -187500.02235174447, -97987.00785482024, 12960.99429857663, -37050.27396086144, 0.662, -0.744, 0.20800000000000002, 192.0, 0.0, 0.0, 0.0, 0.0, 0.0, 0.0, 0.0, 0.0, 0.0, 1.6635910672989492E9, 0.0, 2022-09-19 17:37:47.298
26.0, 22136.474804458, 58698.22903850425, -38586.263488085686, -4337.020735385506, -187500.02235174447, -98430.64527876918, 12307.094014536622, -37004.296422516876, 0.662, -0.744, 0.20800000000000002, 192.0, 0.0, 0.0, 0.0, 0.0, 0.0, 0.0, 0.0, 0.0, 0.0, 1.6635910673029504E9, 0.0, 2022-09-19 17:37:47.302
27.0, 21698.58177883408, 58556.18370249077, -38567.599781465506, -4330.695191704654, -187500.02235174447, -99504.06545449085, 12026.110234988957, -36982.21289899503, 0.662, -0.744, 0.20800000000000002, 192.0, 0.0, 0.0, 0.0, 0.0, 0.0, 0.0, 0.0, 0.0, 0.0, 1.663591067306984E9, 0.0, 2022-09-19 17:37:47.306
28.0, 21670.53033954267, 58609.5820199945, -38607.29647961813, -4299.514508189501, -187500.02235174447, -99742.13388468431, 12293.526505652251, -36992.673515400114, 0.672, -0.754, 0.2, 192.0, 21.0, 0.0, 232.0, 112.0, 6.0, 64.0, 0.0, 0.0, 0.0, 1.6635910673120294E9, 0.0, 2022-09-19 17:37:47.312
29.0, 21987.791000341298, 58779.90231274394, -38643.863933547014, -4251.03357446594, -187500.02235174447, -99137.40743844598, 12742.505996526002, -36999.826073625816, 0.672, -0.754, 0.2, 192.0, 0.0, 0.0, 0.0, 0.0, 0.0, 0.0, 0.0, 0.0, 0.0, 1.6635910673149965E9, 0.0, 2022-09-19 17:37:47.314
30.0, 22437.262229593067, 58896.801936245196, -38686.19813754537, -4268.445583396624, -187500.02235174447, -97989.24302926577, 12977.42283075128, -37049.33518759432, 0.672, -0.754, 0.2, 192.0, 0.0, 0.0, 0.0, 0.0, 0.0, 0.0, 0.0, 0.0, 0.0, 1.6635910673189855E9, 0.0, 2022-09-19 17:37:47.318
31.0, 22159.318287291324, 58672.524532380645, -38598.3110783471, -4321.083941588872, -187500.02235174447, -98351.72126909748, 12330.518642725783, -37003.96114635005, 0.672, -0.754, 0.2, 192.0, 0.0, 0.0, 0.0, 0.0, 0.0, 0.0, 0.0, 0.0, 0.0, 1.66359106732298E9, 0.0, 2022-09-19 17:37:47.322
32.0, 21695.05020321014, 58501.08665240844, -38566.3033802871, -4313.082017073872, -187500.02235174447, -99469.30849186284, 12015.09082497249, -36969.807680822334, 0.672, -0.754, 0.2, 192.0, 0.0, 0.0, 0.0, 0.0, 0.0, 0.0, 0.0, 0.0, 0.0, 1.663591067327104E9, 0.0, 2022-09-19 17:37:47.327
33.0, 21663.064856894598, 58559.134132758874, -38591.225575354765, -4272.066565998383, -187500.02235174447, -99747.05126846448, 12303.62949414605, -36980.20124199406, 0.672, -0.754, 0.2, 192.0, 0.0, 0.0, 0.0, 0.0, 0.0, 0.0, 0.0, 0.0, 0.0, 1.6635910673330984E9, 0.0, 2022-09-19 17:37:47.333
34.0, 21952.765816779833, 58709.315503754086, -38635.25851193172, -4242.070524939361, -187500.02235174447, -99211.70463701543, 12735.979287145054, -37007.023335340426, 0.672, -0.754, 0.2, 192.0, 0.0, 0.0, 0.0, 0.0, 0.0, 0.0, 0.0, 0.0, 0.0, 1.663591067336038E9, 0.0, 2022-09-19 17:37:47.336
35.0, 22425.48286026512, 58867.18587484192, -38684.2311840333, -4256.107420457294, -187500.02235174447, -98048.11752416105, 13016.627790525888, -37048.77639398294, 0.672, -0.754, 0.2, 192.0, 0.0, 0.0, 0.0, 0.0, 0.0, 0.0, 0.0, 0.0, 0.0, 1.663591067341004E9, 0.0, 2022-09-19 17:37:47.341
36.0, 22198.76911625494, 58695.63623614744, -38618.80762801262, -4320.502796233034, -187500.02235174447, -98306.9060214646, 12385.570989319205, -37013.32652727682, 0.672, -0.754, 0.2, 192.0, 0.0, 0.0, 0.0, 0.0, 0.0, 0.0, 0.0, 0.0, 0.0, 1.6635910673440204E9, 0.0, 2022-09-19 17:37:47.344
37.0, 21715.658511597936, 58526.58999283195, -38560.53663021763, -4315.048970585939, -187500.02235174447, -99443.0228403834, 12033.933345548314, -36981.631753639194, 0.672, -0.754, 0.2, 192.0, 0.0, 0.0, 0.0, 0.0, 0.0, 0.0, 0.0, 0.0, 0.0, 1.663591067348072E9, 0.0, 2022-09-19 17:37:47.348
38.0, 21665.34473482904, 58598.428499511305, -38591.985534666244, -4285.209391738104, -187500.02235174447, -99766.45258265169, 12293.14652599651, -36998.79789338087, 0.664, -0.75, 0.202, 192.0, 20.0, 192.0, 232.0, 144.0, 6.0, 80.0, 0.0, 0.0, 0.0, 1.663591067351163E9, 0.0, 2022-09-19 17:37:47.351
39.0, 21923.73090073239, 58768.63703353847, -38644.17685796939, -4264.802249050409, -187500.02235174447, -99295.07664383372, 12694.51680118046, -37032.97371065304, 0.664, -0.75, 0.202, 192.0, 0.0, 0.0, 0.0, 0.0, 0.0, 0.0, 0.0, 0.0, 0.0, 1.6635910673550496E9, 0.0, 2022-09-19 17:37:47.355
40.0, 22407.355595511868, 58944.74642810183, -38679.51496595323, -4263.9528827611075, -187500.02235174447, -98122.61588843059, 13025.00969469663, -37065.249629646496, 0.664, -0.75, 0.202, 192.0, 0.0, 0.0, 0.0, 0.0, 0.0, 0.0, 0.0, 0.0, 0.0, 1.6635910673590753E9, 0.0, 2022-09-19 17:37:47.359
41.0, 22218.528058353433, 58786.49607735826, -38623.1662181814, -4319.407560754724, -187500.02235174447, -98286.85650668819, 12437.047056799776, -37009.54908246388, 0.664, -0.75, 0.202, 192.0, 0.0, 0.0, 0.0, 0.0, 0.0, 0.0, 0.0, 0.0, 0.0, 1.663591067363056E9, 0.0, 2022-09-19 17:37:47.363
42.0, 21725.314465202628, 58608.911467660844, -38574.238249568734, -4313.976086852084, -187500.02235174447, -99440.40768628212, 12047.43379919932, -36968.73479708848, 0.664, -0.75, 0.202, 192.0, 0.0, 0.0, 0.0, 0.0, 0.0, 0.0, 0.0, 0.0, 0.0, 1.663591067368055E9, 0.0, 2022-09-19 17:37:47.368
43.0, 21649.989086388243, 58670.66933759086, -38596.54529053513, -4278.302702701414, -187500.02235174447, -99815.42525475327, 12299.33795921063, -36992.94173633358, 0.664, -0.75, 0.202, 192.0, 0.0, 0.0, 0.0, 0.0, 0.0, 0.0, 0.0, 0.0, 0.0, 1.6635910673711352E9, 0.0, 2022-09-19 17:37:47.371
44.0, 21904.95543538993, 58844.61061294206, -38624.66378505991, -4236.0132021919735, -187500.02235174447, -99385.5565053888, 12712.286438022427, -37005.99515509548, 0.664, -0.75, 0.202, 192.0, 0.0, 0.0, 0.0, 0.0, 0.0, 0.0, 0.0, 0.0, 0.0, 1.6635910673760667E9, 0.0, 2022-09-19 17:37:47.376
45.0, 22406.506229222567, 59037.394408869084, -38666.64036114697, -4227.653649765689, -187500.02235174447, -98204.55738360375, 13086.54404718209, -37031.677309474624, 0.664, -0.75, 0.202, 192.0, 0.0, 0.0, 0.0, 0.0, 0.0, 0.0, 0.0, 0.0, 0.0, 1.6635910673801427E9, 0.0, 2022-09-19 17:37:47.380
46.0, 22271.971079346073, 58898.85829673509, -38617.935909978856, -4289.210353995604, -187500.02235174447, -98251.83132312672, 12540.848558050224, -37000.34016374829, 0.664, -0.75, 0.202, 192.0, 0.0, 0.0, 0.0, 0.0, 0.0, 0.0, 0.0, 0.0, 0.0, 1.6635910673840957E9, 0.0, 2022-09-19 17:37:47.384
47.0, 21751.39895098197, 58682.851038319, -38584.87767992946, -4322.693267189654, -187500.02235174447, -99424.85087214124, 12066.030450586135, -36985.99034380798, 0.664, -0.75, 0.202, 192.0, 0.0, 0.0, 0.0, 0.0, 0.0, 0.0, 0.0, 0.0, 0.0, 1.663591067388145E9, 0.0, 2022-09-19 17:37:47.388
48.0, 21658.28158358116, 58726.16871907339, -38592.834900955546, -4281.163725991693, -187500.02235174447, -99841.62149925489, 12305.507040680295, -36989.83484385429, 0.668, -0.752, 0.2, 192.0, 20.0, 224.0, 232.0, 128.0, 6.0, 64.0, 0.0, 0.0, 0.0, 1.6635910673931017E9, 0.0, 2022-09-19 17:37:47.393
49.0, 21879.541501944244, 58851.20437755637, -38646.30027369264, -4259.437830381135, -187500.02235174447, -99473.04123318687, 12690.068804033854, -37041.78029796843, 0.668, -0.752, 0.2, 192.0, 0.0, 0.0, 0.0, 0.0, 0.0, 0.0, 0.0, 0.0, 0.0, 1.6635910673971293E9, 0.0, 2022-09-19 17:37:47.397
50.0, 22394.078659305414, 59043.1388071941, -38693.06012309314, -4241.690545283621, -187500.02235174447, -98287.46000378848, 13073.624738886921, -37069.451757604096, 0.668, -0.752, 0.2, 192.0, 0.0, 0.0, 0.0, 0.0, 0.0, 0.0, 0.0, 0.0, 0.0, 1.6635910674001286E9, 0.0, 2022-09-19 17:37:47.400
51.0, 22316.22753336758, 58933.637611107544, -38615.92425297788, -4265.27163568397, -187500.02235174447, -98218.23665121039, 12566.843636851745, -37011.963070865044, 0.668, -0.752, 0.2, 192.0, 0.0, 0.0, 0.0, 0.0, 0.0, 0.0, 0.0, 0.0, 0.0, 1.6635910674041293E9, 0.0, 2022-09-19 17:37:47.404
52.0, 21786.111210121064, 58726.77221617368, -38555.12750805944, -4278.503868401512, -187500.02235174447, -99389.93744730204, 12091.91377066538, -36986.9291170751, 0.668, -0.752, 0.2, 192.0, 0.0, 0.0, 0.0, 0.0, 0.0, 0.0, 0.0, 0.0, 0.0, 1.663591067407127E9, 0.0, 2022-09-19 17:37:47.407
53.0, 21664.89769993993, 58755.22598686528, -38576.42872052536, -4235.119132413761, -187500.02235174447, -99858.34060410746, 12318.33694199764, -37005.79398939538, 0.668, -0.752, 0.2, 192.0, 0.0, 0.0, 0.0, 0.0, 0.0, 0.0, 0.0, 0.0, 0.0, 1.6635910674111767E9, 0.0, 2022-09-19 17:37:47.411
54.0, 21873.52888268577, 58899.5512008132, -38600.50154930372, -4189.253352791471, -187500.02235174447, -99531.0440100484, 12716.130938068742, -37021.28374830291, 0.668, -0.752, 0.2, 192.0, 0.0, 0.0, 0.0, 0.0, 0.0, 0.0, 0.0, 0.0, 0.0, 1.6635910674151473E9, 0.0, 2022-09-19 17:37:47.415
55.0, 22376.197263741167, 59105.92485736905, -38665.70158787985, -4186.660550434655, -187500.02235174447, -98371.18963851806, 13113.857878906474, -37071.23989716052, 0.668, -0.752, 0.2, 192.0, 0.0, 0.0, 0.0, 0.0, 0.0, 0.0, 0.0, 0.0, 0.0, 1.663591067419135E9, 0.0, 2022-09-19 17:37:47.419
56.0, 22336.589972566366, 58996.11073686013, -38615.87954948897, -4252.084106455339, -187500.02235174447, -98206.16670920452, 12648.203986669063, -37040.17097236765, 0.668, -0.752, 0.2, 192.0, 0.0, 0.0, 0.0, 0.0, 0.0, 0.0, 0.0, 0.0, 0.0, 1.6635910674231195E9, 0.0, 2022-09-19 17:37:47.423
57.0, 21807.16655339796, 58759.718687500805, -38537.84960959549, -4275.46403115559, -187500.02235174447, -99367.67510982456, 12137.44427412084, -36990.77361712141, 0.668, -0.752, 0.2, 192.0, 0.0, 0.0, 0.0, 0.0, 0.0, 0.0, 0.0, 0.0, 0.0, 1.663591067427153E9, 0.0, 2022-09-19 17:37:47.427
58.0, 21659.309763826106, 58765.10545791453, -38589.21391835379, -4257.8508565248085, -187500.02235174447, -99896.33856968148, 12301.930761567446, -37023.22835007052, 0.668, -0.75, 0.21, 192.0, 20.0, 224.0, 232.0, 144.0, 6.0, 144.0, 0.0, 0.0, 0.0, 1.6635910674301765E9, 0.0, 2022-09-19 17:37:47.430
59.0, 21851.93709754194, 58902.83690724813, -38631.99515724125, -4238.091914426317, -187500.02235174447, -99622.73086580407, 12667.202969456073, -37050.497478305995, 0.668, -0.75, 0.21, 192.0, 0.0, 0.0, 0.0, 0.0, 0.0, 0.0, 0.0, 0.0, 0.0, 1.6635910674351747E9, 0.0, 2022-09-19 17:37:47.435
60.0, 22373.537406150986, 59122.956886643995, -38653.56459064062, -4226.9160421986635, -187500.02235174447, -98469.0455757434, 13121.323361554547, -37071.50811809398, 0.668, -0.75, 0.21, 192.0, 0.0, 0.0, 0.0, 0.0, 0.0, 0.0, 0.0, 0.0, 0.0, 1.663591067439227E9, 0.0, 2022-09-19 17:37:47.439
61.0, 22373.872682317815, 59029.705408776455, -38613.331450621066, -4306.711769904109, -187500.02235174447, -98214.66037209754, 12721.674170693657, -37054.4984405635, 0.668, -0.75, 0.21, 192.0, 0.0, 0.0, 0.0, 0.0, 0.0, 0.0, 0.0, 0.0, 0.0, 1.6635910674432013E9, 0.0, 2022-09-19 17:37:47.443
62.0, 21830.054739720195, 58791.86049602753, -38548.98077833423, -4365.116878165827, -187500.02235174447, -99374.20181920551, 12154.92333828489, -37009.124399319226, 0.668, -0.75, 0.21, 192.0, 0.0, 0.0, 0.0, 0.0, 0.0, 0.0, 0.0, 0.0, 0.0, 1.6635910674472094E9, 0.0, 2022-09-19 17:37:47.447
63.0, 21660.360295815506, 58797.06845248562, -38587.671647986375, -4364.848657232364, -187500.02235174447, -99949.51336974066, 12309.798575615714, -37038.44988804458, 0.668, -0.75, 0.21, 192.0, 0.0, 0.0, 0.0, 0.0, 0.0, 0.0, 0.0, 0.0, 0.0, 1.663591067452216E9, 0.0, 2022-09-19 17:37:47.452
64.0, 21840.403597403, 58943.07004726768, -38625.915482749406, -4344.217997100115, -187500.02235174447, -99716.92111693873, 12668.611129356757, -37072.46924310556, 0.668, -0.75, 0.21, 192.0, 0.0, 0.0, 0.0, 0.0, 0.0, 0.0, 0.0, 0.0, 0.0, 1.663591067455197E9, 0.0, 2022-09-19 17:37:47.455
65.0, 22357.399446654254, 59183.44070714006, -38666.70741638034, -4327.387133525269, -187500.02235174447, -98591.06374872492, 13138.087169896027, -37093.546938126914, 0.668, -0.75, 0.21, 192.0, 0.0, 0.0, 0.0, 0.0, 0.0, 0.0, 0.0, 0.0, 0.0, 1.6635910674602087E9, 0.0, 2022-09-19 17:37:47.460
66.0, 22410.6413019468, 59137.99961066242, -38616.34893612253, -4374.035224203494, -187500.02235174447, -98224.33867744669, 12798.653578597734, -37058.879382476734, 0.668, -0.75, 0.21, 192.0, 0.0, 0.0, 0.0, 0.0, 0.0, 0.0, 0.0, 0.0, 0.0, 1.663591067463228E9, 0.0, 2022-09-19 17:37:47.463
67.0, 21876.769885631787, 58915.66680856548, -38555.708653415284, -4402.779567573019, -187500.02235174447, -99344.20577814648, 12184.539399688174, -37012.410105754156, 0.668, -0.75, 0.21, 192.0, 0.0, 0.0, 0.0, 0.0, 0.0, 0.0, 0.0, 0.0, 0.0, 1.6635910674672732E9, 0.0, 2022-09-19 17:37:47.467
68.0, 21698.470020111803, 58935.71632334189, -38589.549194520616, -4380.785451028997, -187500.02235174447, -99948.52989298462, 12304.590619157627, -37030.96205365206, 0.666, -0.738, 0.198, 192.0, 20.0, 208.0, 232.0, 240.0, 6.0, 48.0, 0.0, 0.0, 0.0, 1.6635910674712276E9, 0.0, 2022-09-19 17:37:47.471
69.0, 21855.26750746578, 59075.437077932016, -38611.05157268662, -4355.840904216874, -187500.02235174447, -99758.76358255907, 12668.275853189929, -37056.219524886554, 0.666, -0.738, 0.198, 192.0, 0.0, 0.0, 0.0, 0.0, 0.0, 0.0, 0.0, 0.0, 0.0, 1.6635910674762444E9, 0.0, 2022-09-19 17:37:47.476
70.0, 22352.794987296464, 59280.58138854282, -38647.52961963769, -4335.322002806903, -187500.02235174447, -98673.7428514651, 13148.927765956852, -37090.73061832555, 0.666, -0.738, 0.198, 192.0, 0.0, 0.0, 0.0, 0.0, 0.0, 0.0, 0.0, 0.0, 0.0, 1.6635910674812517E9, 0.0, 2022-09-19 17:37:47.481
71.0, 22446.694665753206, 59236.90607987715, -38614.02435469918, -4382.908866752251, -187500.02235174447, -98222.17055823453, 12850.35316352286, -37071.396359371705, 0.666, -0.738, 0.198, 192.0, 0.0, 0.0, 0.0, 0.0, 0.0, 0.0, 0.0, 0.0, 0.0, 1.663591067484266E9, 0.0, 2022-09-19 17:37:47.484
72.0, 21905.223656323393, 58991.50627750233, -38562.7494529187, -4431.613317920365, -187500.02235174447, -99335.82387397575, 12191.93782710288, -37038.87457118923, 0.666, -0.738, 0.198, 192.0, 0.0, 0.0, 0.0, 0.0, 0.0, 0.0, 0.0, 0.0, 0.0, 1.6635910674882605E9, 0.0, 2022-09-19 17:37:47.488
73.0, 21694.692575298857, 59002.16805960752, -38578.17215659287, -4410.021532776539, -187500.02235174447, -100013.41700713839, 12287.133906738032, -37041.065042145856, 0.666, -0.738, 0.198, 192.0, 0.0, 0.0, 0.0, 0.0, 0.0, 0.0, 0.0, 0.0, 0.0, 1.6635910674912572E9, 0.0, 2022-09-19 17:37:47.491
74.0, 21834.994475244817, 59127.024904134865, -38597.28289810215, -4372.1353259247935, -187500.02235174447, -99878.41247062832, 12658.30697516286, -37042.182629368624, 0.666, -0.738, 0.198, 192.0, 0.0, 0.0, 0.0, 0.0, 0.0, 0.0, 0.0, 0.0, 0.0, 1.663591067495293E9, 0.0, 2022-09-19 17:37:47.495
75.0, 22324.117699160302, 59329.66581936667, -38654.123384252, -4346.654337245744, -187500.02235174447, -98833.58017606499, 13151.520568313666, -37076.0008187295, 0.666, -0.738, 0.198, 192.0, 0.0, 0.0, 0.0, 0.0, 0.0, 0.0, 0.0, 0.0, 0.0, 1.663591067499488E9, 0.0, 2022-09-19 17:37:47.499
76.0, 22469.605203819898, 59310.42096739066, -38638.208942199824, -4391.134308711804, -187500.02235174447, -98279.32396880674, 12900.868105991854, -37068.37887387024, 0.666, -0.738, 0.198, 192.0, 0.0, 0.0, 0.0, 0.0, 0.0, 0.0, 0.0, 0.0, 0.0, 1.6635910675033376E9, 0.0, 2022-09-19 17:37:47.503
77.0, 21946.932011476998, 59067.18928422801, -38535.12269677195, -4419.185748003215, -187500.02235174447, -99341.0988856672, 12254.85798774457, -36997.05445731336, 0.666, -0.738, 0.198, 192.0, 0.0, 0.0, 0.0, 0.0, 0.0, 0.0, 0.0, 0.0, 0.0, 1.6635910675073369E9, 0.0, 2022-09-19 17:37:47.507
78.0, 21708.595360350057, 59054.60525209967, -38540.95650207478, -4387.2227534321255, -187500.02235174447, -100068.89403687645, 12353.607994748116, -37020.70260294707, 0.666, -0.738, 0.198, 192.0, 0.0, 0.0, 0.0, 0.0, 0.0, 0.0, 0.0, 0.0, 0.0, 1.663591067510344E9, 0.0, 2022-09-19 17:37:47.510
79.0, 21815.36964361306, 59180.69144257205, -38599.8086452256, -4368.24612238957, -187500.02235174447, -99989.76886150466, 12669.304033434873, -37046.720033493046, 0.672, -0.74, 0.20400000000000001, 192.0, 21.0, 0.0, 232.0, 224.0, 6.0, 96.0, 0.0, 0.0, 0.0, 1.6635910675143445E9, 0.0, 2022-09-19 17:37:47.514
80.0, 22292.5123325005, 59429.46635835962, -38656.35855869753, -4334.472636517601, -187500.02235174447, -98981.50402087021, 13139.07064665206, -37078.72773155305, 0.672, -0.74, 0.20400000000000001, 192.0, 0.0, 0.0, 0.0, 0.0, 0.0, 0.0, 0.0, 0.0, 0.0, 1.6635910675183609E9, 0.0, 2022-09-19 17:37:47.518
81.0, 22486.97250926167, 59446.94542252367, -38629.78233454017, -4350.275319847503, -187500.02235174447, -98326.88848100764, 12956.702763641211, -37062.925048223144, 0.672, -0.74, 0.20400000000000001, 192.0, 0.0, 0.0, 0.0, 0.0, 0.0, 0.0, 0.0, 0.0, 0.0, 1.6635910675233319E9, 0.0, 2022-09-19 17:37:47.523
82.0, 21980.01259327085, 59207.826460340795, -38534.809772349574, -4361.987633942083, -187500.02235174447, -99331.30882159577, 12297.303950465197, -36989.879547343204, 0.672, -0.74, 0.20400000000000001, 192.0, 0.0, 0.0, 0.0, 0.0, 0.0, 0.0, 0.0, 0.0, 0.0, 1.6635910675273712E9, 0.0, 2022-09-19 17:37:47.527
83.0, 21716.53022963169, 59176.42225938109, -38532.775763604135, -4333.645621972754, -187500.02235174447, -100101.81815645912, 12364.40388732003, -37006.15161730666, 0.672, -0.74, 0.20400000000000001, 192.0, 0.0, 0.0, 0.0, 0.0, 0.0, 0.0, 0.0, 0.0, 0.0, 1.663591067531418E9, 0.0, 2022-09-19 17:37:47.531
84.0, 21806.92068420895, 59264.935167424104, -38579.602668238, -4324.816682912909, -187500.02235174447, -100063.32845250708, 12680.368146940249, -37049.82692597234, 0.672, -0.74, 0.20400000000000001, 192.0, 0.0, 0.0, 0.0, 0.0, 0.0, 0.0, 0.0, 0.0, 0.0, 1.6635910675343368E9, 0.0, 2022-09-19 17:37:47.534
85.0, 22266.4054949767, 59457.29428020648, -38639.43828814486, -4320.882775888775, -187500.02235174447, -99107.67961832043, 13148.503082812202, -37103.87344406527, 0.672, -0.74, 0.20400000000000001, 192.0, 0.0, 0.0, 0.0, 0.0, 0.0, 0.0, 0.0, 0.0, 0.0, 1.6635910675383923E9, 0.0, 2022-09-19 17:37:47.538
86.0, 22495.712041343697, 59473.16401876975, -38635.973767754294, -4363.306386864947, -187500.02235174447, -98386.65704568113, 12987.235246567161, -37104.43223767665, 0.672, -0.74, 0.20400000000000001, 192.0, 0.0, 0.0, 0.0, 0.0, 0.0, 0.0, 0.0, 0.0, 0.0, 1.6635910675424318E9, 0.0, 2022-09-19 17:37:47.542
87.0, 21991.74725910989, 59214.95666682204, -38535.18975200531, -4401.282000694514, -187500.02235174447, -99356.32042364126, 12317.062892563688, -37029.598597240285, 0.672, -0.74, 0.20400000000000001, 192.0, 0.0, 0.0, 0.0, 0.0, 0.0, 0.0, 0.0, 0.0, 0.0, 1.6635910675463958E9, 0.0, 2022-09-19 17:37:47.546
88.0, 21707.276607427193, 59165.76047727591, -38539.45893519628, -4378.10324169436, -187500.02235174447, -100175.78007886173, 12348.310631312208, -37016.098143589275, 0.672, -0.74, 0.20400000000000001, 192.0, 0.0, 0.0, 0.0, 0.0, 0.0, 0.0, 0.0, 0.0, 0.0, 1.6635910675524018E9, 0.0, 2022-09-19 17:37:47.552
89.0, 21787.564073510657, 59271.39482157169, -38584.11772061798, -4373.29761663647, -187500.02235174447, -100170.59447414809, 12664.7889810549, -37052.97852194053, 0.676, -0.734, 0.202, 192.0, 21.0, 32.0, 233.0, 16.0, 6.0, 80.0, 0.0, 0.0, 0.0, 1.6635910675553932E9, 0.0, 2022-09-19 17:37:47.555
90.0, 22237.080006251337, 59489.97253060014, -38637.091354977056, -4350.4764855476005, -187500.02235174447, -99250.06023050073, 13137.21545186227, -37089.68008633615, 0.676, -0.734, 0.202, 192.0, 0.0, 0.0, 0.0, 0.0, 0.0, 0.0, 0.0, 0.0, 0.0, 1.6635910675596194E9, 0.0, 2022-09-19 17:37:47.559
91.0, 22520.142498033347, 59543.92964171525, -38633.58213109757, -4371.330663124402, -187500.02235174447, -98429.95237469106, 13055.899805533863, -37084.29331592242, 0.676, -0.734, 0.202, 192.0, 0.0, 0.0, 0.0, 0.0, 0.0, 0.0, 0.0, 0.0, 0.0, 1.6635910675624433E9, 0.0, 2022-09-19 17:37:47.562
92.0, 22036.651913720598, 59286.3928421012, -38546.544438188605, -4406.512308897056, -187500.02235174447, -99336.33796409822, 12369.365974589107, -37031.16321935216, 0.676, -0.734, 0.202, 192.0, 0.0, 0.0, 0.0, 0.0, 0.0, 0.0, 0.0, 0.0, 0.0, 1.6635910675664217E9, 0.0, 2022-09-19 17:37:47.566
93.0, 21710.15998246193, 59208.63112314119, -38556.35685400449, -4376.896247493773, -187500.02235174447, -100221.69056197294, 12338.788788174246, -37025.91055940516, 0.676, -0.734, 0.202, 192.0, 0.0, 0.0, 0.0, 0.0, 0.0, 0.0, 0.0, 0.0, 0.0, 1.6635910675704162E9, 0.0, 2022-09-19 17:37:47.570
94.0, 21776.16468383845, 59316.746511071506, -38575.1546710914, -4338.406543541735, -187500.02235174447, -100259.39795486904, 12652.02613497092, -37041.02033865695, 0.676, -0.734, 0.202, 192.0, 0.0, 0.0, 0.0, 0.0, 0.0, 0.0, 0.0, 0.0, 0.0, 1.6635910675744083E9, 0.0, 2022-09-19 17:37:47.574
95.0, 22188.800238227876, 59515.63233323483, -38642.38871841296, -4327.007153869528, -187500.02235174447, -99411.26101151241, 13117.747082441698, -37104.78986558794, 0.676, -0.734, 0.202, 192.0, 0.0, 0.0, 0.0, 0.0, 0.0, 0.0, 0.0, 0.0, 0.0, 1.663591067579434E9, 0.0, 2022-09-19 17:37:47.579
96.0, 22499.713003601195, 59585.615645124395, -38645.49561089225, -4356.220883872615, -187500.02235174447, -98534.44678001961, 13091.93081759582, -37111.58479590235, 0.676, -0.734, 0.202, 192.0, 0.0, 0.0, 0.0, 0.0, 0.0, 0.0, 0.0, 0.0, 0.0, 1.663591067583452E9, 0.0, 2022-09-19 17:37:47.583
97.0, 22061.59646053272, 59364.623947694774, -38536.217932250256, -4378.594980072377, -187500.02235174447, -99350.95600497199, 12426.832309583702, -37024.10006810428, 0.676, -0.734, 0.202, 192.0, 0.0, 0.0, 0.0, 0.0, 0.0, 0.0, 0.0, 0.0, 0.0, 1.6635910675874422E9, 0.0, 2022-09-19 17:37:47.587
98.0, 21714.160944719428, 59287.71159502406, -38533.982757804726, -4361.1606193972375, -187500.02235174447, -100275.53591436577, 12376.295015370253, -37028.27984431742, 0.676, -0.734, 0.202, 192.0, 0.0, 0.0, 0.0, 0.0, 0.0, 0.0, 0.0, 0.0, 0.0, 1.663591067590432E9, 0.0, 2022-09-19 17:37:47.590
99.0, 21766.531081978213, 59390.015529396005, -38572.62892396795, -4327.655354458732, -187500.02235174447, -100348.9837466459, 12677.194199227597, -37048.105841649274, 0.668, -0.74, 0.2, 192.0, 20.0, 224.0, 232.0, 224.0, 6.0, 64.0, 0.0, 0.0, 0.0, 1.6635910675944934E9, 0.0, 2022-09-19 17:37:47.594
100.0, 22170.807083941352, 59591.002415538125, -38608.54817730763, -4283.823583581875, -187500.02235174447, -99536.9448705846, 13172.844132524031, -37077.118405952264, 0.668, -0.74, 0.2, 192.0, 0.0, 0.0, 0.0, 0.0, 0.0, 0.0, 0.0, 0.0, 0.0, 1.6635910675984507E9, 0.0, 2022-09-19 17:37:47.598
101.0, 22506.485582171154, 59661.72333499472, -38635.906712520926, -4311.785615895465, -187500.02235174447, -98600.04914999595, 13196.961664791306, -37108.88023482326, 0.668, -0.74, 0.2, 192.0, 0.0, 0.0, 0.0, 0.0, 0.0, 0.0, 0.0, 0.0, 0.0, 1.6635910676024644E9, 0.0, 2022-09-19 17:37:47.602
102.0, 22088.642071323644, 59438.07177997492, -38575.06526411358, -4353.695136749165, -187500.02235174447, -99346.70917352548, 12457.811827398757, -37049.312835849865, 0.668, -0.74, 0.2, 192.0, 0.0, 0.0, 0.0, 0.0, 0.0, 0.0, 0.0, 0.0, 0.0, 1.6635910676065056E9, 0.0, 2022-09-19 17:37:47.606
103.0, 21725.247409969263, 59350.721162643575, -38544.935112587824, -4317.038275842461, -187500.02235174447, -100307.29774323676, 12370.192989133953, -37024.88237916021, 0.668, -0.74, 0.2, 192.0, 0.0, 0.0, 0.0, 0.0, 0.0, 0.0, 0.0, 0.0, 0.0, 1.6635910676116471E9, 0.0, 2022-09-19 17:37:47.611
104.0, 21761.30077377567, 59440.64223058728, -38556.28979877112, -4273.0500427544175, -187500.02235174447, -100420.7551980919, 12710.543001954915, -37029.82211468484, 0.668, -0.74, 0.2, 192.0, 0.0, 0.0, 0.0, 0.0, 0.0, 0.0, 0.0, 0.0, 0.0, 1.6635910676155229E9, 0.0, 2022-09-19 17:37:47.615
105.0, 22139.04525507036, 59626.876965388896, -38617.2653576452, -4249.267786653971, -187500.02235174447, -99671.70353790565, 13180.913112272396, -37075.39732162921, 0.668, -0.74, 0.2, 192.0, 0.0, 0.0, 0.0, 0.0, 0.0, 0.0, 0.0, 0.0, 0.0, 1.663591067619594E9, 0.0, 2022-09-19 17:37:47.619
106.0, 22516.052128798026, 59704.14694597089, -38646.523791137195, -4269.876095041764, -187500.02235174447, -98672.71467122015, 13249.421209027912, -37098.1066939958, 0.668, -0.74, 0.2, 192.0, 0.0, 0.0, 0.0, 0.0, 0.0, 0.0, 0.0, 0.0, 0.0, 1.6635910676236255E9, 0.0, 2022-09-19 17:37:47.623
107.0, 22131.08803404427, 59456.288451705994, -38570.99724662271, -4317.373552009291, -187500.02235174447, -99336.91910945406, 12523.883584008645, -37035.45475428757, 0.668, -0.74, 0.2, 192.0, 0.0, 0.0, 0.0, 0.0, 0.0, 0.0, 0.0, 0.0, 0.0, 1.663591067626526E9, 0.0, 2022-09-19 17:37:47.626
108.0, 21740.759520621243, 59328.503528655, -38538.43075495133, -4286.9081243167075, -187500.02235174447, -100345.74274369988, 12372.383460090574, -37008.833826641305, 0.668, -0.74, 0.2, 192.0, 0.0, 0.0, 0.0, 0.0, 0.0, 0.0, 0.0, 0.0, 0.0, 1.6635910676307113E9, 0.0, 2022-09-19 17:37:47.630
109.0, 21752.69535216038, 59399.2691516005, -38568.29268554362, -4250.899463999208, -187500.02235174447, -100509.69278927956, 12680.949292296087, -37032.16904785264, 0.66, -0.748, 0.196, 192.0, 20.0, 160.0, 232.0, 160.0, 6.0, 32.0, 0.0, 0.0, 0.0, 1.663591067636514E9, 0.0, 2022-09-19 17:37:47.636
110.0, 22117.18524899307, 59576.13850547535, -38621.780410025174, -4202.865565164753, -187500.02235174447, -99811.60310645141, 13134.35442857199, -37063.03680694542, 0.66, -0.748, 0.196, 192.0, 0.0, 0.0, 0.0, 0.0, 0.0, 0.0, 0.0, 0.0, 0.0, 1.6635910676405697E9, 0.0, 2022-09-19 17:37:47.640
111.0, 22522.40002422333, 59664.3831925849, -38650.234180716776, -4204.11726285425, -187500.02235174447, -98769.05068982253, 13262.00524115625, -37095.26802244998, 0.66, -0.748, 0.196, 192.0, 0.0, 0.0, 0.0, 0.0, 0.0, 0.0, 0.0, 0.0, 0.0, 1.66359106764466E9, 0.0, 2022-09-19 17:37:47.644
112.0, 22157.977182624007, 59405.21471562561, -38570.41610126688, -4249.0442692094175, -187500.02235174447, -99363.27181616686, 12568.63177640817, -37049.581056783325, 0.66, -0.748, 0.196, 192.0, 0.0, 0.0, 0.0, 0.0, 0.0, 0.0, 0.0, 0.0, 0.0, 1.6635910676476448E9, 0.0, 2022-09-19 17:37:47.647
113.0, 21741.072445043617, 59256.08387661981, -38549.360757989976, -4223.652687508188, -187500.02235174447, -100411.76979682087, 12359.575910517682, -37018.17685582362, 0.66, -0.748, 0.196, 192.0, 0.0, 0.0, 0.0, 0.0, 0.0, 0.0, 0.0, 0.0, 0.0, 1.6635910676517167E9, 0.0, 2022-09-19 17:37:47.651
114.0, 21738.814918853634, 59330.939868800626, -38576.58518273654, -4195.176565072127, -187500.02235174447, -100612.89079342972, 12645.007687211953, -37034.203056598075, 0.66, -0.748, 0.196, 192.0, 0.0, 0.0, 0.0, 0.0, 0.0, 0.0, 0.0, 0.0, 0.0, 1.6635910676546476E9, 0.0, 2022-09-19 17:37:47.654
115.0, 22064.88216696765, 59511.54196399951, -38621.48983734725, -4185.341797511792, -187500.02235174447, -99981.61047477847, 13106.437099747312, -37080.76174029848, 0.66, -0.748, 0.196, 192.0, 0.0, 0.0, 0.0, 0.0, 0.0, 0.0, 0.0, 0.0, 0.0, 1.6635910676585977E9, 0.0, 2022-09-19 17:37:47.658
116.0, 22504.093945514436, 59657.14122738138, -38642.38871841296, -4188.627503946723, -187500.02235174447, -98886.30794123506, 13312.274314436236, -37087.24374619052, 0.66, -0.748, 0.196, 192.0, 0.0, 0.0, 0.0, 0.0, 0.0, 0.0, 0.0, 0.0, 0.0, 1.6635910676625843E9, 0.0, 2022-09-19 17:37:47.662
117.0, 22178.63019450071, 59428.77345428151, -38576.473424014264, -4233.286289368426, -187500.02235174447, -99378.69451984102, 12625.785186980389, -37017.97569012352, 0.66, -0.748, 0.196, 192.0, 0.0, 0.0, 0.0, 0.0, 0.0, 0.0, 0.0, 0.0, 0.0, 1.6635910676676068E9, 0.0, 2022-09-19 17:37:47.667
118.0, 21732.578782150602, 59268.60085351478, -38547.57261843355, -4222.937431685618, -187500.02235174447, -100465.8610184027, 12374.68568976947, -37004.74345740598, 0.66, -0.748, 0.196, 192.0, 0.0, 0.0, 0.0, 0.0, 0.0, 0.0, 0.0, 0.0, 0.0, 1.663591067671636E9, 0.0, 2022-09-19 17:37:47.671
119.0, 21705.689633570866, 59339.99232530503, -38588.76688346468, -4203.2008413315825, -187500.02235174447, -100718.34632376986, 12634.904698718155, -37046.49651604849, 0.66, -0.752, 0.202, 192.0, 20.0, 160.0, 232.0, 128.0, 6.0, 80.0, 0.0, 0.0, 0.0, 1.6635910676745987E9, 0.0, 2022-09-19 17:37:47.674
120.0, 22021.40802400208, 59531.47972005364, -38622.473314103285, -4179.530343953413, -187500.02235174447, -100134.00466847476, 13091.997872829184, -37087.51196712398, 0.66, -0.752, 0.202, 192.0, 0.0, 0.0, 0.0, 0.0, 0.0, 0.0, 0.0, 0.0, 0.0, 1.663591067678638E9, 0.0, 2022-09-19 17:37:47.678
121.0, 22486.70428832821, 59690.22180917524, -38650.61416037252, -4181.810221887854, -187500.02235174447, -99005.12981475948, 13329.775730344742, -37108.947290056625, 0.66, -0.752, 0.202, 192.0, 0.0, 0.0, 0.0, 0.0, 0.0, 0.0, 0.0, 0.0, 0.0, 1.6635910676826663E9, 0.0, 2022-09-19 17:37:47.682
122.0, 22199.283206377415, 59487.178562543224, -38571.98072337875, -4235.476760325046, -187500.02235174447, -99401.64976139662, 12684.70438536458, -37044.350748580786, 0.66, -0.752, 0.202, 192.0, 0.0, 0.0, 0.0, 0.0, 0.0, 0.0, 0.0, 0.0, 0.0, 1.663591067686633E9, 0.0, 2022-09-19 17:37:47.686
123.0, 21734.813956596132, 59336.460749681086, -38547.393804477906, -4223.093893896806, -187500.02235174447, -100517.15827192763, 12383.112297429121, -37012.253643542965, 0.66, -0.752, 0.202, 192.0, 0.0, 0.0, 0.0, 0.0, 0.0, 0.0, 0.0, 0.0, 0.0, 1.663591067690615E9, 0.0, 2022-09-19 17:37:47.690
124.0, 21705.801392293142, 59414.80361399694, -38576.004037380706, -4188.44868999108, -187500.02235174447, -100793.80581305097, 12650.662678559147, -37034.0912978758, 0.66, -0.752, 0.202, 192.0, 0.0, 0.0, 0.0, 0.0, 0.0, 0.0, 0.0, 0.0, 0.0, 1.6635910676947756E9, 0.0, 2022-09-19 17:37:47.694
125.0, 21992.97660505493, 59581.88290380036, -38610.98451745326, -4165.895779835675, -187500.02235174447, -100267.73515555086, 13089.315663494548, -37078.37010364176, 0.66, -0.752, 0.202, 192.0, 0.0, 0.0, 0.0, 0.0, 0.0, 0.0, 0.0, 0.0, 0.0, 1.6635910676996732E9, 0.0, 2022-09-19 17:37:47.699
126.0, 22473.29324165502, 59753.65605993939, -38643.64041610246, -4162.364204211736, -187500.02235174447, -99118.18493821441, 13371.752306431808, -37088.67425783566, 0.66, -0.752, 0.202, 192.0, 0.0, 0.0, 0.0, 0.0, 0.0, 0.0, 0.0, 0.0, 0.0, 1.6635910677026603E9, 0.0, 2022-09-19 17:37:47.702
127.0, 22221.657302577176, 59566.43784838174, -38594.42187481187, -4227.564242787867, -187500.02235174447, -99419.53115696087, 12730.525461497959, -37045.78126022593, 0.66, -0.752, 0.202, 192.0, 0.0, 0.0, 0.0, 0.0, 0.0, 0.0, 0.0, 0.0, 0.0, 1.6635910677066488E9, 0.0, 2022-09-19 17:37:47.706
128.0, 21729.047206526662, 59384.09231711535, -38548.220819022754, -4243.4116296066795, -187500.02235174447, -100567.91908358564, 12384.520457329805, -37041.4450218016, 0.66, -0.752, 0.202, 192.0, 0.0, 0.0, 0.0, 0.0, 0.0, 0.0, 0.0, 0.0, 0.0, 1.6635910677108488E9, 0.0, 2022-09-19 17:37:47.710
129.0, 21686.444781594848, 59441.06691373193, -38571.86896465647, -4220.232870606526, -187500.02235174447, -100883.05632866101, 12653.814274527345, -37062.589772056315, 0.662, -0.74, 0.20400000000000001, 192.0, 20.0, 176.0, 232.0, 224.0, 6.0, 96.0, 0.0, 0.0, 0.0, 1.6635910677156825E9, 0.0, 2022-09-19 17:37:47.715
130.0, 21975.519892635333, 59610.89546810335, -38594.220709111774, -4179.552695697867, -187500.02235174447, -100387.7416715314, 13087.371061726935, -37063.796766256906, 0.662, -0.74, 0.20400000000000001, 192.0, 0.0, 0.0, 0.0, 0.0, 0.0, 0.0, 0.0, 0.0, 0.0, 1.6635910677206943E9, 0.0, 2022-09-19 17:37:47.720
131.0, 22465.82775900695, 59774.532589260656, -38643.863933547014, -4181.966684099041, -187500.02235174447, -99226.5685470782, 13383.106992615103, -37076.716074552074, 0.662, -0.74, 0.20400000000000001, 192.0, 0.0, 0.0, 0.0, 0.0, 0.0, 0.0, 0.0, 0.0, 0.0, 1.6635910677237182E9, 0.0, 2022-09-19 17:37:47.723
132.0, 22270.428808978657, 59611.67777915928, -38566.79511866512, -4243.366926117769, -187500.02235174447, -99411.52923244587, 12807.460165913126, -37025.195303582586, 0.662, -0.74, 0.20400000000000001, 192.0, 0.0, 0.0, 0.0, 0.0, 0.0, 0.0, 0.0, 0.0, 0.0, 1.663591067727856E9, 0.0, 2022-09-19 17:37:47.727
133.0, 21763.334782521106, 59412.43432908468, -38519.58823437551, -4265.003414750507, -187500.02235174447, -100570.35542373126, 12418.249239712864, -37016.1875505671, 0.662, -0.74, 0.20400000000000001, 192.0, 0.0, 0.0, 0.0, 0.0, 0.0, 0.0, 0.0, 0.0, 0.0, 1.6635910677307608E9, 0.0, 2022-09-19 17:37:47.730
134.0, 21688.791714762654, 59457.562501139946, -38553.42877548084, -4240.997641205507, -187500.02235174447, -100940.61207063343, 12655.915338506144, -37047.211771871065, 0.662, -0.74, 0.20400000000000001, 192.0, 0.0, 0.0, 0.0, 0.0, 0.0, 0.0, 0.0, 0.0, 0.0, 1.6635910677347414E9, 0.0, 2022-09-19 17:37:47.734
135.0, 21942.461662585934, 59618.070378073506, -38603.85431097201, -4228.301850354892, -187500.02235174447, -100513.26906839242, 13048.25550893015, -37079.89002226472, 0.662, -0.74, 0.20400000000000001, 192.0, 0.0, 0.0, 0.0, 0.0, 0.0, 0.0, 0.0, 0.0, 0.0, 1.6635910677388277E9, 0.0, 2022-09-19 17:37:47.738
136.0, 22435.138813869813, 59830.434302143374, -38639.818267800605, -4230.782893989432, -187500.02235174447, -99349.45843809348, 13403.93881844745, -37102.13000799775, 0.662, -0.74, 0.20400000000000001, 192.0, 0.0, 0.0, 0.0, 0.0, 0.0, 0.0, 0.0, 0.0, 0.0, 1.6635910677427807E9, 0.0, 2022-09-19 17:37:47.742
137.0, 22289.919530143685, 59701.12946046943, -38564.179964563846, -4272.915932287685, -187500.02235174447, -99421.20753779502, 12871.341451566394, -37053.939646952116, 0.662, -0.74, 0.20400000000000001, 192.0, 0.0, 0.0, 0.0, 0.0, 0.0, 0.0, 0.0, 0.0, 0.0, 1.6635910677467268E9, 0.0, 2022-09-19 17:37:47.746
138.0, 21787.765239210756, 59508.3456645424, -38512.97211801674, -4271.731289831554, -187500.02235174447, -100573.05998481036, 12440.332763234706, -37013.21476855454, 0.662, -0.74, 0.20400000000000001, 192.0, 0.0, 0.0, 0.0, 0.0, 0.0, 0.0, 0.0, 0.0, 0.0, 1.6635910677507782E9, 0.0, 2022-09-19 17:37:47.750
139.0, 21697.464191611314, 59522.02493214905, -38554.41225223688, -4241.623490050255, -187500.02235174447, -100983.08038509851, 12658.351678651772, -37044.70837649207, 0.674, -0.744, 0.20600000000000002, 192.0, 21.0, 16.0, 232.0, 192.0, 6.0, 112.0, 0.0, 0.0, 0.0, 1.663591067755793E9, 0.0, 2022-09-19 17:37:47.755
140.0, 21920.646359997554, 59639.75157019515, -38612.83971224305, -4219.0482281503955, -187500.02235174447, -100609.31451431687, 13030.15059592135, -37082.68399032164, 0.674, -0.744, 0.20600000000000002, 192.0, 0.0, 0.0, 0.0, 0.0, 0.0, 0.0, 0.0, 0.0, 0.0, 1.663591067758747E9, 0.0, 2022-09-19 17:37:47.758
141.0, 22418.598522972887, 59832.334200422076, -38643.88628529147, -4207.201803589082, -187500.02235174447, -99446.77793345189, 13406.553972548722, -37118.178560516666, 0.674, -0.744, 0.20600000000000002, 192.0, 0.0, 0.0, 0.0, 0.0, 0.0, 0.0, 0.0, 0.0, 0.0, 1.663591067761818E9, 0.0, 2022-09-19 17:37:47.761
142.0, 22319.088556657858, 59706.62798960543, -38580.6532002274, -4251.234740166037, -187500.02235174447, -99415.70900865902, 12905.31610313846, -37073.072740205855, 0.674, -0.744, 0.20600000000000002, 192.0, 0.0, 0.0, 0.0, 0.0, 0.0, 0.0, 0.0, 0.0, 0.0, 1.6635910677668421E9, 0.0, 2022-09-19 17:37:47.766
143.0, 21802.919721951454, 59487.6926526657, -38530.473533925244, -4252.195865177616, -187500.02235174447, -100570.86951385374, 12429.067484029232, -37028.27984431742, 0.674, -0.744, 0.20600000000000002, 192.0, 0.0, 0.0, 0.0, 0.0, 0.0, 0.0, 0.0, 0.0, 0.0, 1.6635910677707953E9, 0.0, 2022-09-19 17:37:47.770
144.0, 21687.58472056207, 59498.801469659986, -38561.944790118316, -4211.426283291135, -187500.02235174447, -101026.42041759736, 12628.221527126017, -37030.58207399632, 0.674, -0.744, 0.20600000000000002, 192.0, 0.0, 0.0, 0.0, 0.0, 0.0, 0.0, 0.0, 0.0, 0.0, 1.6635910677748113E9, 0.0, 2022-09-19 17:37:47.774
145.0, 21905.38011853458, 59624.775901410096, -38602.915537704896, -4188.515745224446, -187500.02235174447, -100687.8138408439, 12993.314921059004, -37058.07471967635, 0.674, -0.744, 0.20600000000000002, 192.0, 0.0, 0.0, 0.0, 0.0, 0.0, 0.0, 0.0, 0.0, 0.0, 1.6635910677787902E9, 0.0, 2022-09-19 17:37:47.778
146.0, 22419.760813684563, 59817.98438048177, -38626.36251763851, -4169.695576393077, -187500.02235174447, -99523.86910007824, 13421.551993078232, -37087.891946779724, 0.674, -0.744, 0.20600000000000002, 192.0, 0.0, 0.0, 0.0, 0.0, 0.0, 0.0, 0.0, 0.0, 0.0, 1.6635910677828252E9, 0.0, 2022-09-19 17:37:47.782
147.0, 22352.102083218346, 59695.09448946649, -38588.52101427568, -4239.656536538188, -187500.02235174447, -99400.68863638505, 12939.268402966072, -37071.64222856072, 0.674, -0.744, 0.20600000000000002, 192.0, 0.0, 0.0, 0.0, 0.0, 0.0, 0.0, 0.0, 0.0, 0.0, 1.6635910677877975E9, 0.0, 2022-09-19 17:37:47.787
148.0, 21811.055756933183, 59466.212626244145, -38539.995377063206, -4269.22789445256, -187500.02235174447, -100566.84619985179, 12412.951876276957, -37027.94456815059, 0.674, -0.744, 0.20600000000000002, 192.0, 0.0, 0.0, 0.0, 0.0, 0.0, 0.0, 0.0, 0.0, 0.0, 1.6635910677908037E9, 0.0, 2022-09-19 17:37:47.790
149.0, 21683.650813537934, 59487.84911487688, -38567.97976112125, -4230.559376544878, -187500.02235174447, -101066.11711574998, 12601.44413726856, -37025.77644893843, 0.674, -0.74, 0.20400000000000001, 192.0, 21.0, 16.0, 232.0, 224.0, 6.0, 96.0, 0.0, 0.0, 0.0, 1.66359106779488E9, 0.0, 2022-09-19 17:37:47.794
150.0, 21887.677536925978, 59631.973163124705, -38593.326639333565, -4201.435053519614, -187500.02235174447, -100770.02355695052, 12977.7134034292, -37060.28754237742, 0.674, -0.74, 0.20400000000000001, 192.0, 0.0, 0.0, 0.0, 0.0, 0.0, 0.0, 0.0, 0.0, 0.0, 1.6635910677998912E9, 0.0, 2022-09-19 17:37:47.799
151.0, 22392.782258127005, 59828.17677595339, -38652.29054120667, -4211.3592280577695, -187500.02235174447, -99624.72017106059, 13407.001007437828, -37126.71692689859, 0.674, -0.74, 0.20400000000000001, 192.0, 0.0, 0.0, 0.0, 0.0, 0.0, 0.0, 0.0, 0.0, 0.0, 1.6635910678048437E9, 0.0, 2022-09-19 17:37:47.804
152.0, 22384.199188256167, 59740.98262083324, -38622.965052481304, -4271.664234598188, -187500.02235174447, -99381.48848789794, 12974.47240048318, -37100.99006903054, 0.674, -0.74, 0.20400000000000001, 192.0, 0.0, 0.0, 0.0, 0.0, 0.0, 0.0, 0.0, 0.0, 0.0, 1.6635910678078744E9, 0.0, 2022-09-19 17:37:47.807
153.0, 21845.276277694258, 59529.6021735194, -38546.23151376623, -4288.606856895311, -187500.02235174447, -100525.45076912055, 12418.629219368604, -37038.695757233596, 0.674, -0.74, 0.20400000000000001, 192.0, 0.0, 0.0, 0.0, 0.0, 0.0, 0.0, 0.0, 0.0, 0.0, 1.6635910678109126E9, 0.0, 2022-09-19 17:37:47.810
154.0, 21707.030738238187, 59570.95290076172, -38541.42588870834, -4231.7887224899205, -187500.02235174447, -101053.600138855, 12625.047579413365, -37031.65495773017, 0.674, -0.74, 0.20400000000000001, 192.0, 0.0, 0.0, 0.0, 0.0, 0.0, 0.0, 0.0, 0.0, 0.0, 1.6635910678158708E9, 0.0, 2022-09-19 17:37:47.815
155.0, 21878.64743216603, 59682.21988466023, -38606.93885170685, -4225.843158464809, -187500.02235174447, -100812.33540920442, 12960.726077643167, -37084.58388860034, 0.674, -0.74, 0.20400000000000001, 192.0, 0.0, 0.0, 0.0, 0.0, 0.0, 0.0, 0.0, 0.0, 0.0, 1.6635910678188882E9, 0.0, 2022-09-19 17:37:47.818
156.0, 22378.790066097983, 59856.384677455986, -38667.020340802716, -4222.468045052057, -187500.02235174447, -99690.97074162612, 13392.360614819601, -37125.711098398104, 0.674, -0.74, 0.20400000000000001, 192.0, 0.0, 0.0, 0.0, 0.0, 0.0, 0.0, 0.0, 0.0, 0.0, 1.6635910678229043E9, 0.0, 2022-09-19 17:37:47.822
157.0, 22418.352653783877, 59743.553071445596, -38645.18268646988, -4282.0354440254505, -187500.02235174447, -99346.01626944737, 12997.628807738878, -37124.83938036435, 0.674, -0.74, 0.20400000000000001, 192.0, 0.0, 0.0, 0.0, 0.0, 0.0, 0.0, 0.0, 0.0, 0.0, 1.663591067826878E9, 0.0, 2022-09-19 17:37:47.826
158.0, 21891.365574761105, 59487.84911487688, -38549.2489992677, -4294.463013942601, -187500.02235174447, -100455.46745723099, 12423.323085704218, -37056.82302198685, 0.674, -0.74, 0.20400000000000001, 192.0, 0.0, 0.0, 0.0, 0.0, 0.0, 0.0, 0.0, 0.0, 0.0, 1.6635910678309305E9, 0.0, 2022-09-19 17:37:47.830
159.0, 21707.164848704917, 59480.696556651186, -38577.27808681466, -4264.668138583677, -187500.02235174447, -101054.24833944421, 12584.72503241599, -37073.74329253951, 0.674, -0.742, 0.202, 192.0, 21.0, 16.0, 232.0, 208.0, 6.0, 80.0, 0.0, 0.0, 0.0, 1.6635910678349545E9, 0.0, 2022-09-19 17:37:47.834
160.0, 21849.07607425166, 59598.53495341956, -38623.00975597021, -4252.464086111079, -187500.02235174447, -100870.6064069994, 12919.263591678571, -37122.06776405189, 0.674, -0.742, 0.202, 192.0, 0.0, 0.0, 0.0, 0.0, 0.0, 0.0, 0.0, 0.0, 0.0, 1.6635910678390334E9, 0.0, 2022-09-19 17:37:47.839
161.0, 22350.448054128654, 59834.68113358988, -38652.78227958468, -4213.8849751812195, -187500.02235174447, -99769.82769606444, 13392.785297964252, -37126.269892009484, 0.674, -0.742, 0.202, 192.0, 0.0, 0.0, 0.0, 0.0, 0.0, 0.0, 0.0, 0.0, 0.0, 1.6635910678422153E9, 0.0, 2022-09-19 17:37:47.842
162.0, 22438.312761582467, 59788.48007780076, -38613.107933176514, -4249.379545376247, -187500.02235174447, -99320.66939123505, 13074.96584355424, -37096.58677537284, 0.674, -0.742, 0.202, 192.0, 0.0, 0.0, 0.0, 0.0, 0.0, 0.0, 0.0, 0.0, 0.0, 1.6635910678460948E9, 0.0, 2022-09-19 17:37:47.846
163.0, 21914.09729887215, 59549.78579876254, -38518.06831575255, -4263.304682171904, -187500.02235174447, -100406.31597117377, 12490.28891209232, -37042.51790553545, 0.674, -0.742, 0.202, 192.0, 0.0, 0.0, 0.0, 0.0, 0.0, 0.0, 0.0, 0.0, 0.0, 1.663591067850888E9, 0.0, 2022-09-19 17:37:47.850
164.0, 21698.38061313398, 59519.78975770352, -38543.482249198234, -4247.926681986652, -187500.02235174447, -101066.76531633918, 12600.304198301339, -37073.832699517334, 0.674, -0.742, 0.202, 192.0, 0.0, 0.0, 0.0, 0.0, 0.0, 0.0, 0.0, 0.0, 0.0, 1.6635910678549278E9, 0.0, 2022-09-19 17:37:47.854
165.0, 21833.161632199484, 59624.485328732175, -38579.04387462662, -4233.956841702085, -187500.02235174447, -100919.15439595633, 12944.431655935246, -37095.42448466116, 0.674, -0.742, 0.202, 192.0, 0.0, 0.0, 0.0, 0.0, 0.0, 0.0, 0.0, 0.0, 0.0, 1.6635910678589408E9, 0.0, 2022-09-19 17:37:47.858
166.0, 22310.483135042567, 59807.97079896579, -38638.36540441101, -4226.983097432029, -187500.02235174447, -99869.4717728462, 13388.538466517743, -37125.55463618692, 0.674, -0.742, 0.202, 192.0, 0.0, 0.0, 0.0, 0.0, 0.0, 0.0, 0.0, 0.0, 0.0, 1.6635910678629835E9, 0.0, 2022-09-19 17:37:47.862
167.0, 22455.277735624044, 59792.011653424706, -38601.73089524876, -4274.234685210548, -187500.02235174447, -99317.16016735557, 13151.229995635747, -37118.513836683494, 0.674, -0.742, 0.202, 192.0, 0.0, 0.0, 0.0, 0.0, 0.0, 0.0, 0.0, 0.0, 0.0, 1.6635910678670545E9, 0.0, 2022-09-19 17:37:47.867
168.0, 21938.259534628338, 59552.132731930345, -38534.92153107185, -4308.745778649542, -187500.02235174447, -100367.0886596547, 12498.46965056296, -37059.90756272168, 0.674, -0.742, 0.202, 192.0, 0.0, 0.0, 0.0, 0.0, 0.0, 0.0, 0.0, 0.0, 0.0, 1.66359106787105E9, 0.0, 2022-09-19 17:37:47.871
169.0, 21712.126935973996, 59546.16481616078, -38548.42198472285, -4268.289121185437, -187500.02235174447, -101066.27357796117, 12569.972881075488, -37064.35555986829, 0.674, -0.742, 0.20400000000000001, 192.0, 21.0, 16.0, 232.0, 208.0, 6.0, 96.0, 0.0, 0.0, 0.0, 1.6635910678760588E9, 0.0, 2022-09-19 17:37:47.876
170.0, 21832.133451954538, 59664.98668968519, -38573.79121467963, -4243.03164995094, -187500.02235174447, -100957.24176850817, 12911.84281251941, -37103.38170568725, 0.674, -0.742, 0.20400000000000001, 192.0, 0.0, 0.0, 0.0, 0.0, 0.0, 0.0, 0.0, 0.0, 0.0, 1.663591067880039E9, 0.0, 2022-09-19 17:37:47.880
171.0, 22308.02444315248, 59858.17281701241, -38617.95826172332, -4218.712951983565, -187500.02235174447, -99932.05665732107, 13399.446117811933, -37131.92488335668, 0.674, -0.742, 0.20400000000000001, 192.0, 0.0, 0.0, 0.0, 0.0, 0.0, 0.0, 0.0, 0.0, 0.0, 1.6635910678829937E9, 0.0, 2022-09-19 17:37:47.882
172.0, 22493.990957020636, 59843.934755794384, -38596.07590390157, -4259.7284030590545, -187500.02235174447, -99292.6403036881, 13187.328062931068, -37101.459455664095, 0.674, -0.742, 0.20400000000000001, 192.0, 0.0, 0.0, 0.0, 0.0, 0.0, 0.0, 0.0, 0.0, 0.0, 1.66359106788707E9, 0.0, 2022-09-19 17:37:47.887
173.0, 21972.34594492268, 59599.71959587569, -38511.42984764932, -4304.8118716254085, -187500.02235174447, -100313.98091482889, 12514.026464703855, -37043.300216591386, 0.674, -0.742, 0.20400000000000001, 192.0, 0.0, 0.0, 0.0, 0.0, 0.0, 0.0, 0.0, 0.0, 0.0, 1.663591067890962E9, 0.0, 2022-09-19 17:37:47.890
174.0, 21701.263988168717, 59575.15502871932, -38534.318033971555, -4303.47076695809, -187500.02235174447, -101083.79734561412, 12561.30040422683, -37061.56159181137, 0.674, -0.742, 0.20400000000000001, 192.0, 0.0, 0.0, 0.0, 0.0, 0.0, 0.0, 0.0, 0.0, 0.0, 1.6635910678939779E9, 0.0, 2022-09-19 17:37:47.893
175.0, 21816.286065135726, 59707.96909427275, -38557.675606927354, -4278.548571890423, -187500.02235174447, -101010.08129240051, 12903.326797881939, -37078.884193764236, 0.674, -0.742, 0.20400000000000001, 192.0, 0.0, 0.0, 0.0, 0.0, 0.0, 0.0, 0.0, 0.0, 0.0, 1.6635910678981085E9, 0.0, 2022-09-19 17:37:47.898
176.0, 22285.60564346381, 59921.36119858756, -38612.92911922087, -4260.17543794816, -187500.02235174447, -100030.78431258016, 13390.4607165409, -37118.9608715726, 0.674, -0.742, 0.20400000000000001, 192.0, 0.0, 0.0, 0.0, 0.0, 0.0, 0.0, 0.0, 0.0, 0.0, 1.6635910679020424E9, 0.0, 2022-09-19 17:37:47.902
177.0, 22507.938445560747, 59915.75091072928, -38603.675497016375, -4290.8420313408415, -187500.02235174447, -99313.13685335362, 13242.805092669141, -37105.10279001031, 0.674, -0.742, 0.20400000000000001, 192.0, 0.0, 0.0, 0.0, 0.0, 0.0, 0.0, 0.0, 0.0, 0.0, 1.6635910679060051E9, 0.0, 2022-09-19 17:37:47.906
178.0, 22016.98237859993, 59657.09652389247, -38516.10136224048, -4322.872081145297, -187500.02235174447, -100272.29491141974, 12565.457828695517, -37049.13402189422, 0.674, -0.742, 0.20400000000000001, 192.0, 0.0, 0.0, 0.0, 0.0, 0.0, 0.0, 0.0, 0.0, 0.0, 1.6635910679140337E9, 0.0, 2022-09-19 17:37:47.914
179.0, 21731.43884318338, 59598.42319469729, -38522.82923732153, -4290.417348196191, -187500.02235174447, -101080.98102581275, 12589.173029562597, -37049.71516725006, 0.674, -0.738, 0.20400000000000001, 192.0, 21.0, 16.0, 232.0, 240.0, 6.0, 96.0, 0.0, 0.0, 0.0, 1.6635910679170172E9, 0.0, 2022-09-19 17:37:47.917
180.0, 21815.257884890783, 59704.68338783782, -38550.321883001554, -4260.264844925981, -187500.02235174447, -101062.33967093703, 12906.590152572413, -37066.367216869265, 0.674, -0.738, 0.20400000000000001, 192.0, 0.0, 0.0, 0.0, 0.0, 0.0, 0.0, 0.0, 0.0, 0.0, 1.6635910679200435E9, 0.0, 2022-09-19 17:37:47.920
181.0, 22257.710666383588, 59925.98800968981, -38614.650203543926, -4246.071487196861, -187500.02235174447, -100141.38074414502, 13374.300405299713, -37115.228130248564, 0.674, -0.738, 0.20400000000000001, 192.0, 0.0, 0.0, 0.0, 0.0, 0.0, 0.0, 0.0, 0.0, 0.0, 1.6635910679240236E9, 0.0, 2022-09-19 17:37:47.924
182.0, 22523.65172191283, 59983.87902782906, -38605.284822617155, -4278.436813168146, -187500.02235174447, -99340.56244380027, 13271.705898249853, -37122.1124675408, 0.674, -0.738, 0.20400000000000001, 192.0, 0.0, 0.0, 0.0, 0.0, 0.0, 0.0, 0.0, 0.0, 0.0, 1.6635910679270384E9, 0.0, 2022-09-19 17:37:47.927
183.0, 22041.79281494532, 59737.048713809105, -38513.77678081713, -4316.2559647865255, -187500.02235174447, -100245.40576284, 12581.953416103534, -37066.791900013915, 0.674, -0.738, 0.20400000000000001, 192.0, 0.0, 0.0, 0.0, 0.0, 0.0, 0.0, 0.0, 0.0, 0.0, 1.663591067930069E9, 0.0, 2022-09-19 17:37:47.930
184.0, 21733.8304798401, 59673.65916653385, -38514.78260931762, -4292.160784263705, -187500.02235174447, -101096.20256378682, 12558.81936059229, -37058.72292026555, 0.674, -0.738, 0.20400000000000001, 192.0, 0.0, 0.0, 0.0, 0.0, 0.0, 0.0, 0.0, 0.0, 0.0, 1.6635910679340415E9, 0.0, 2022-09-19 17:37:47.934
185.0, 21807.680643520434, 59770.93395840335, -38552.13237430243, -4279.688510857643, -187500.02235174447, -101111.17823257188, 12864.725335207622, -37080.001780987004, 0.674, -0.738, 0.20400000000000001, 192.0, 0.0, 0.0, 0.0, 0.0, 0.0, 0.0, 0.0, 0.0, 0.0, 1.663591067939087E9, 0.0, 2022-09-19 17:37:47.939
186.0, 22239.002256274493, 59982.292053972735, -38587.60459275301, -4269.339653174836, -187500.02235174447, -100228.95487892091, 13359.280033025747, -37119.8102378619, 0.674, -0.738, 0.20400000000000001, 192.0, 0.0, 0.0, 0.0, 0.0, 0.0, 0.0, 0.0, 0.0, 0.0, 1.663591067943069E9, 0.0, 2022-09-19 17:37:47.943
187.0, 22528.12207080389, 60013.29392353224, -38604.524863305676, -4321.530976477978, -187500.02235174447, -99372.0560517378, 13316.722311582842, -37148.28636029796, 0.674, -0.738, 0.20400000000000001, 192.0, 0.0, 0.0, 0.0, 0.0, 0.0, 0.0, 0.0, 0.0, 0.0, 1.6635910679471092E9, 0.0, 2022-09-19 17:37:47.947
188.0, 22081.444809609035, 59761.367411776475, -38528.86420832446, -4358.076078662405, -187500.02235174447, -100195.91900061596, 12615.101053130753, -37062.723882523045, 0.674, -0.738, 0.20400000000000001, 192.0, 0.0, 0.0, 0.0, 0.0, 0.0, 0.0, 0.0, 0.0, 0.0, 1.6635910679501169E9, 0.0, 2022-09-19 17:37:47.950
189.0, 21758.551509207668, 59692.85931502096, -38505.931318513314, -4319.273450287992, -187500.02235174447, -101084.84787760352, 12568.475314196983, -37031.43144028562, 0.674, -0.738, 0.20400000000000001, 192.0, 0.0, 0.0, 0.0, 0.0, 0.0, 0.0, 0.0, 0.0, 0.0, 1.6635910679541168E9, 0.0, 2022-09-19 17:37:47.954
190.0, 21803.65732951848, 59787.76482197819, -38557.183868549335, -4314.646639185744, -187500.02235174447, -101153.31127087012, 12866.178198597217, -37089.88125203625, 0.686, -0.742, 0.202, 192.0, 21.0, 112.0, 232.0, 208.0, 6.0, 80.0, 0.0, 0.0, 0.0, 1.663591067958111E9, 0.0, 2022-09-19 17:37:47.958
191.0, 22211.62136931674, 59991.56802792168, -38603.87666271647, -4285.075281271373, -187500.02235174447, -100326.16261555704, 13336.101274025594, -37115.094019781835, 0.686, -0.742, 0.202, 192.0, 0.0, 0.0, 0.0, 0.0, 0.0, 0.0, 0.0, 0.0, 0.0, 1.6635910679620883E9, 0.0, 2022-09-19 17:37:47.962
192.0, 22576.178321382802, 60082.62903483261, -38586.956392163804, -4288.1374702617495, -187500.02235174447, -99364.61292083419, 13374.725088444364, -37107.49442666703, 0.686, -0.742, 0.202, 192.0, 0.0, 0.0, 0.0, 0.0, 0.0, 0.0, 0.0, 0.0, 0.0, 1.6635910679671354E9, 0.0, 2022-09-19 17:37:47.967
193.0, 22147.918897619118, 59828.489700375765, -38511.65336509387, -4339.457075531134, -187500.02235174447, -100124.6839910369, 12671.047469502386, -37064.37791161274, 0.686, -0.742, 0.202, 192.0, 0.0, 0.0, 0.0, 0.0, 0.0, 0.0, 0.0, 0.0, 0.0, 1.6635910679711037E9, 0.0, 2022-09-19 17:37:47.971
194.0, 21768.83331165711, 59706.225658205236, -38519.3423651865, -4336.551348751945, -187500.02235174447, -101088.20063927182, 12553.521997156382, -37071.61987681626, 0.686, -0.742, 0.202, 192.0, 0.0, 0.0, 0.0, 0.0, 0.0, 0.0, 0.0, 0.0, 0.0, 1.6635910679751067E9, 0.0, 2022-09-19 17:37:47.975
195.0, 21810.98870169982, 59793.62097902549, -38544.44337420981, -4302.040255312951, -187500.02235174447, -101180.02160549421, 12865.373535796827, -37085.47795837855, 0.686, -0.742, 0.202, 192.0, 0.0, 0.0, 0.0, 0.0, 0.0, 0.0, 0.0, 0.0, 0.0, 1.6635910679791245E9, 0.0, 2022-09-19 17:37:47.979
196.0, 22207.30748263687, 59994.943141334435, -38590.82324395457, -4269.049080496917, -187500.02235174447, -100396.86118326917, 13335.833053092128, -37109.148455756724, 0.686, -0.742, 0.202, 192.0, 0.0, 0.0, 0.0, 0.0, 0.0, 0.0, 0.0, 0.0, 0.0, 1.6635910679821365E9, 0.0, 2022-09-19 17:37:47.982
197.0, 22579.79930398456, 60068.14510442557, -38609.39754359693, -4303.671932658188, -187500.02235174447, -99404.73430213146, 13405.972827192883, -37142.3184445284, 0.686, -0.742, 0.202, 192.0, 0.0, 0.0, 0.0, 0.0, 0.0, 0.0, 0.0, 0.0, 0.0, 1.663591067986153E9, 0.0, 2022-09-19 17:37:47.986
198.0, 22190.387212084202, 59834.077636489594, -38527.07606876804, -4337.892453419263, -187500.02235174447, -100073.83377240108, 12697.936618082122, -37064.15439416819, 0.686, -0.742, 0.202, 192.0, 0.0, 0.0, 0.0, 0.0, 0.0, 0.0, 0.0, 0.0, 0.0, 1.6635910679921434E9, 0.0, 2022-09-19 17:37:47.992
199.0, 21804.64080627451, 59738.83685336553, -38500.63395507741, -4326.604822469333, -187500.02235174447, -101058.71868833527, 12558.238215236452, -37050.25160911699, 0.686, -0.742, 0.202, 192.0, 0.0, 0.0, 0.0, 0.0, 0.0, 0.0, 0.0, 0.0, 0.0, 1.663591067996182E9, 0.0, 2022-09-19 17:37:47.996
200.0, 21830.635885076033, 59845.00763952824, -38532.26167348167, -4313.372589751791, -187500.02235174447, -101191.35393993306, 12863.719506707133, -37082.97456299956, 0.676, -0.73, 0.20600000000000002, 192.0, 21.0, 32.0, 233.0, 48.0, 6.0, 112.0, 0.0, 0.0, 0.0, 1.6635910679992156E9, 0.0, 2022-09-19 17:37:47.999
201.0, 22205.25112214698, 60041.34536282365, -38596.52293879067, -4303.269601257993, -187500.02235174447, -100466.97860562547, 13302.01486373125, -37128.70623215511, 0.676, -0.73, 0.20600000000000002, 192.0, 0.0, 0.0, 0.0, 0.0, 0.0, 0.0, 0.0, 0.0, 0.0, 1.663591068003182E9, 0.0, 2022-09-19 17:37:48.003
202.0, 22624.48044115072, 60165.1516753616, -38606.02243018418, -4307.829357126875, -187500.02235174447, -99400.9121538296, 13426.916411747505, -37121.15134252922, 0.676, -0.73, 0.20600000000000002, 192.0, 0.0, 0.0, 0.0, 0.0, 0.0, 0.0, 0.0, 0.0, 0.0, 1.6635910680061717E9, 0.0, 2022-09-19 17:37:48.006
203.0, 22246.490090667023, 59914.543916528695, -38522.80688557707, -4364.24516013207, -187500.02235174447, -99996.92141973037, 12723.082330594341, -37074.77147278446, 0.676, -0.73, 0.20600000000000002, 192.0, 0.0, 0.0, 0.0, 0.0, 0.0, 0.0, 0.0, 0.0, 0.0, 1.6635910680101743E9, 0.0, 2022-09-19 17:37:48.010
204.0, 21820.64465530451, 59765.860112411996, -38493.10141719597, -4361.093564163872, -187500.02235174447, -101032.83536825603, 12543.86604355169, -37065.22727790204, 0.676, -0.73, 0.20600000000000002, 192.0, 0.0, 0.0, 0.0, 0.0, 0.0, 0.0, 0.0, 0.0, 0.0, 1.6635910680142035E9, 0.0, 2022-09-19 17:37:48.014
205.0, 21820.51054483778, 59828.89203177596, -38533.759240360174, -4332.729200450087, -187500.02235174447, -101215.0914925446, 12838.283221516995, -37084.38272290024, 0.676, -0.73, 0.20600000000000002, 192.0, 0.0, 0.0, 0.0, 0.0, 0.0, 0.0, 0.0, 0.0, 0.0, 1.663591068018732E9, 0.0, 2022-09-19 17:37:48.018
206.0, 22152.836281399286, 60004.35322575012, -38588.63277299795, -4326.917746891707, -187500.02235174447, -100563.64990039467, 13281.026575687716, -37138.25042703753, 0.676, -0.73, 0.20600000000000002, 192.0, 0.0, 0.0, 0.0, 0.0, 0.0, 0.0, 0.0, 0.0, 0.0, 1.6635910680222287E9, 0.0, 2022-09-19 17:37:48.022
207.0, 22606.91197000885, 60170.15846611959, -38616.23717740025, -4330.583432982377, -187500.02235174447, -99450.33186082028, 13457.672412118009, -37145.17946781868, 0.676, -0.73, 0.20600000000000002, 192.0, 0.0, 0.0, 0.0, 0.0, 0.0, 0.0, 0.0, 0.0, 0.0, 1.6635910680272233E9, 0.0, 2022-09-19 17:37:48.027
208.0, 22287.84081790934, 59964.07538224166, -38548.8466678675, -4387.334512154403, -187500.02235174447, -99939.23156729121, 12768.076392182875, -37086.997877001515, 0.676, -0.73, 0.20600000000000002, 192.0, 0.0, 0.0, 0.0, 0.0, 0.0, 0.0, 0.0, 0.0, 0.0, 1.663591068031221E9, 0.0, 2022-09-19 17:37:48.031
209.0, 21864.65524013701, 59818.342008393054, -38518.78357157511, -4371.040090446483, -187500.02235174447, -100991.55169624707, 12523.235383419442, -37046.161239881665, 0.676, -0.73, 0.20600000000000002, 192.0, 0.0, 0.0, 0.0, 0.0, 0.0, 0.0, 0.0, 0.0, 0.0, 1.6635910680352416E9, 0.0, 2022-09-19 17:37:48.035
210.0, 21837.900202024008, 59837.363342924524, -38552.93703710283, -4369.073136934417, -187500.02235174447, -101225.66386767196, 12805.783785078978, -37090.350638669806, 0.67, -0.738, 0.20800000000000002, 192.0, 20.0, 240.0, 232.0, 240.0, 6.0, 128.0, 0.0, 0.0, 0.0, 1.6635910680392804E9, 0.0, 2022-09-19 17:37:48.039
211.0, 22163.498063504467, 59959.91795777297, -38586.17408110787, -4346.296709334459, -187500.02235174447, -100614.63422949723, 13268.48724704829, -37125.77815363147, 0.67, -0.738, 0.20800000000000002, 192.0, 0.0, 0.0, 0.0, 0.0, 0.0, 0.0, 0.0, 0.0, 0.0, 1.6635910680434003E9, 0.0, 2022-09-19 17:37:48.043
212.0, 22622.044101005093, 60068.25686314784, -38617.578282067574, -4353.650433260254, -187500.02235174447, -99485.02176821492, 13489.613054944642, -37144.374805018284, 0.67, -0.738, 0.20800000000000002, 192.0, 0.0, 0.0, 0.0, 0.0, 0.0, 0.0, 0.0, 0.0, 0.0, 1.663591068047254E9, 0.0, 2022-09-19 17:37:48.047
213.0, 22335.51708883251, 59856.094104778065, -38524.17034198884, -4395.336436669402, -187500.02235174447, -99881.09467996296, 12837.702076161157, -37089.34481016932, 0.67, -0.738, 0.20800000000000002, 192.0, 0.0, 0.0, 0.0, 0.0, 0.0, 0.0, 0.0, 0.0, 0.0, 1.6635910680502555E9, 0.0, 2022-09-19 17:37:48.050
214.0, 21878.64743216603, 59691.83113477602, -38495.5377573416, -4384.786413286497, -187500.02235174447, -100974.09498382748, 12546.838825564246, -37075.21850767356, 0.67, -0.738, 0.20800000000000002, 192.0, 0.0, 0.0, 0.0, 0.0, 0.0, 0.0, 0.0, 0.0, 0.0, 1.663591068055293E9, 0.0, 2022-09-19 17:37:48.055
215.0, 21850.014847518785, 59737.62985916494, -38538.67662414034, -4362.702889764654, -187500.02235174447, -101233.55403346468, 12796.798383807944, -37103.38170568725, 0.67, -0.738, 0.20800000000000002, 192.0, 0.0, 0.0, 0.0, 0.0, 0.0, 0.0, 0.0, 0.0, 0.0, 1.6635910680592587E9, 0.0, 2022-09-19 17:37:48.059
216.0, 22144.320266761813, 59883.162067313446, -38595.070075401076, -4347.90603493524, -187500.02235174447, -100683.96934079759, 13198.682749114365, -37158.25523832503, 0.67, -0.738, 0.20800000000000002, 192.0, 0.0, 0.0, 0.0, 0.0, 0.0, 0.0, 0.0, 0.0, 0.0, 1.663591068062493E9, 0.0, 2022-09-19 17:37:48.062
217.0, 22615.58444685751, 60041.54652852375, -38622.629776314476, -4349.671822747209, -187500.02235174447, -99537.5930711738, 13451.078647503693, -37183.400950837255, 0.67, -0.738, 0.20800000000000002, 192.0, 0.0, 0.0, 0.0, 0.0, 0.0, 0.0, 0.0, 0.0, 0.0, 1.6635910680663612E9, 0.0, 2022-09-19 17:37:48.066
218.0, 22366.407199669746, 59870.19805552937, -38525.10911525597, -4394.509422124555, -187500.02235174447, -99837.95581316421, 12848.028582099509, -37132.26015952351, 0.67, -0.738, 0.20800000000000002, 192.0, 0.0, 0.0, 0.0, 0.0, 0.0, 0.0, 0.0, 0.0, 0.0, 1.6635910680703902E9, 0.0, 2022-09-19 17:37:48.070
219.0, 21883.453057223924, 59710.42778616283, -38479.10922516695, -4382.327721396413, -187500.02235174447, -100962.829704622, 12534.724180069468, -37091.311763681384, 0.67, -0.738, 0.20800000000000002, 192.0, 0.0, 0.0, 0.0, 0.0, 0.0, 0.0, 0.0, 0.0, 0.0, 1.6635910680743487E9, 0.0, 2022-09-19 17:37:48.074
220.0, 21855.960411543896, 59814.63161881347, -38521.68929835431, -4342.183988354682, -187500.02235174447, -101247.65798421598, 12799.033558253475, -37120.8607698513, 0.676, -0.742, 0.21, 192.0, 21.0, 32.0, 232.0, 208.0, 6.0, 144.0, 0.0, 0.0, 0.0, 1.6635910680783584E9, 0.0, 2022-09-19 17:37:48.078
221.0, 22135.983066079985, 59993.758498878306, -38581.524918261166, -4331.701020205142, -187500.02235174447, -100746.04013514997, 13189.987920521251, -37168.51468903002, 0.676, -0.742, 0.21, 192.0, 0.0, 0.0, 0.0, 0.0, 0.0, 0.0, 0.0, 0.0, 0.0, 1.6635910680824392E9, 0.0, 2022-09-19 17:37:48.082
222.0, 22605.72732755272, 60149.95248913199, -38627.48010486127, -4352.823418715408, -187500.02235174447, -99597.1604701472, 13476.671394905019, -37202.60109932436, 0.676, -0.742, 0.21, 192.0, 0.0, 0.0, 0.0, 0.0, 0.0, 0.0, 0.0, 0.0, 0.0, 1.663591068087356E9, 0.0, 2022-09-19 17:37:48.087
223.0, 22402.48291522061, 59969.86448405558, -38550.63480742393, -4393.436538390701, -187500.02235174447, -99790.48070794114, 12889.401661086282, -37138.33983401535, 0.676, -0.742, 0.21, 192.0, 0.0, 0.0, 0.0, 0.0, 0.0, 0.0, 0.0, 0.0, 0.0, 1.6635910680903523E9, 0.0, 2022-09-19 17:37:48.090
224.0, 21918.14296461856, 59791.721080746785, -38493.839024762994, -4378.505573094556, -187500.02235174447, -100912.69474180875, 12521.089615951732, -37088.56249911338, 0.676, -0.742, 0.21, 192.0, 0.0, 0.0, 0.0, 0.0, 0.0, 0.0, 0.0, 0.0, 0.0, 1.6635910680943575E9, 0.0, 2022-09-19 17:37:48.094
225.0, 21849.254888207306, 59846.19228198437, -38545.38214747693, -4362.546427553467, -187500.02235174447, -101262.47719078985, 12739.689676724634, -37121.956005329615, 0.676, -0.742, 0.21, 192.0, 0.0, 0.0, 0.0, 0.0, 0.0, 0.0, 0.0, 0.0, 0.0, 1.663591068098364E9, 0.0, 2022-09-19 17:37:48.098
226.0, 22103.818905808796, 60002.49803096033, -38579.58031649355, -4351.392907070268, -187500.02235174447, -100822.84072909842, 13147.921937456364, -37160.69157847066, 0.676, -0.742, 0.21, 192.0, 0.0, 0.0, 0.0, 0.0, 0.0, 0.0, 0.0, 0.0, 0.0, 1.6635910681023448E9, 0.0, 2022-09-19 17:37:48.102
227.0, 22608.1860194428, 60171.879550442645, -38619.58993906855, -4350.811761714431, -187500.02235174447, -99647.80952308292, 13509.416700532043, -37194.777988765, 0.676, -0.742, 0.21, 192.0, 0.0, 0.0, 0.0, 0.0, 0.0, 0.0, 0.0, 0.0, 0.0, 1.6635910681063519E9, 0.0, 2022-09-19 17:37:48.106
228.0, 22463.25730839459, 59997.64770241353, -38560.80485115109, -4408.367503686846, -187500.02235174447, -99725.68300076522, 12948.61143214839, -37150.85681091032, 0.676, -0.742, 0.21, 192.0, 0.0, 0.0, 0.0, 0.0, 0.0, 0.0, 0.0, 0.0, 0.0, 1.6635910681103644E9, 0.0, 2022-09-19 17:37:48.110
229.0, 21966.936822764495, 59786.177848121864, -38515.11788548445, -4413.888384567307, -187500.02235174447, -100858.46940976018, 12508.19265940102, -37098.44197016263, 0.676, -0.742, 0.21, 192.0, 0.0, 0.0, 0.0, 0.0, 0.0, 0.0, 0.0, 0.0, 0.0, 1.6635910681154237E9, 0.0, 2022-09-19 17:37:48.115
230.0, 21886.179970047473, 59808.55194432163, -38519.96821403125, -4384.697006308676, -187500.02235174447, -101243.65702195848, 12759.918005456688, -37107.49442666703, 0.676, -0.746, 0.20600000000000002, 192.0, 21.0, 32.0, 232.0, 176.0, 6.0, 112.0, 0.0, 0.0, 0.0, 1.663591068118408E9, 0.0, 2022-09-19 17:37:48.118
231.0, 22129.143432276658, 59946.88689075552, -38559.48609822823, -4371.86710499133, -187500.02235174447, -100843.6502031863, 13162.249405652216, -37141.75965091701, 0.676, -0.746, 0.20600000000000002, 192.0, 0.0, 0.0, 0.0, 0.0, 0.0, 0.0, 0.0, 0.0, 0.0, 1.663591068122377E9, 0.0, 2022-09-19 17:37:48.122
232.0, 22642.540650670606, 60133.367494746155, -38615.45486634432, -4381.165430684738, -187500.02235174447, -99662.96400582363, 13528.81801471925, -37191.89461373027, 0.676, -0.746, 0.20600000000000002, 192.0, 0.0, 0.0, 0.0, 0.0, 0.0, 0.0, 0.0, 0.0, 0.0, 1.663591068126402E9, 0.0, 2022-09-19 17:37:48.126
233.0, 22520.41071896681, 59981.53209466125, -38578.9544676488, -4443.437390737223, -187500.02235174447, -99650.64819462874, 12992.867886169897, -37156.332988301874, 0.676, -0.746, 0.20600000000000002, 192.0, 0.0, 0.0, 0.0, 0.0, 0.0, 0.0, 0.0, 0.0, 0.0, 1.66359106813039E9, 0.0, 2022-09-19 17:37:48.130
234.0, 22009.516895951856, 59759.31105128659, -38516.90602504087, -4428.72994288563, -187500.02235174447, -100788.64256008179, 12519.636752562137, -37086.39437990122, 0.676, -0.746, 0.20600000000000002, 192.0, 0.0, 0.0, 0.0, 0.0, 0.0, 0.0, 0.0, 0.0, 0.0, 1.6635910681363957E9, 0.0, 2022-09-19 17:37:48.136
235.0, 21925.206115866436, 59794.67151101489, -38527.92543505734, -4381.053671962461, -187500.02235174447, -101201.21105923784, 12752.43017106416, -37101.12417949727, 0.676, -0.746, 0.20600000000000002, 192.0, 0.0, 0.0, 0.0, 0.0, 0.0, 0.0, 0.0, 0.0, 0.0, 1.6635910681394029E9, 0.0, 2022-09-19 17:37:48.139
236.0, 22139.13466204818, 59937.02977145073, -38568.4044442659, -4371.643587546777, -187500.02235174447, -100850.73570617863, 13136.03080940614, -37135.54586595844, 0.676, -0.746, 0.20600000000000002, 192.0, 0.0, 0.0, 0.0, 0.0, 0.0, 0.0, 0.0, 0.0, 0.0, 1.6635910681424336E9, 0.0, 2022-09-19 17:37:48.142
237.0, 22652.241307764212, 60145.01275360737, -38617.511226834205, -4377.991482972084, -187500.02235174447, -99681.67241593271, 13538.63043053513, -37182.03749442548, 0.676, -0.746, 0.20600000000000002, 192.0, 0.0, 0.0, 0.0, 0.0, 0.0, 0.0, 0.0, 0.0, 0.0, 1.6635910681455114E9, 0.0, 2022-09-19 17:37:48.145
238.0, 22601.86047576195, 60033.522252264294, -38568.24798205471, -4434.161416788271, -187500.02235174447, -99542.68926890961, 13061.644203858878, -37149.9180376432, 0.676, -0.746, 0.20600000000000002, 192.0, 0.0, 0.0, 0.0, 0.0, 0.0, 0.0, 0.0, 0.0, 0.0, 1.6635910681504607E9, 0.0, 2022-09-19 17:37:48.150
239.0, 22057.953126186505, 59764.16137983339, -38517.66598435235, -4454.680318198242, -187500.02235174447, -100694.83228860288, 12528.53274685535, -37087.86959503527, 0.676, -0.746, 0.20600000000000002, 192.0, 0.0, 0.0, 0.0, 0.0, 0.0, 0.0, 0.0, 0.0, 0.0, 1.663591068155543E9, 0.0, 2022-09-19 17:37:48.155
240.0, 21942.99810445286, 59764.11667634448, -38534.92153107185, -4419.990410803605, -187500.02235174447, -101157.22282614981, 12720.668342193168, -37093.256365449, 0.67, -0.742, 0.20600000000000002, 192.0, 20.0, 240.0, 232.0, 208.0, 6.0, 112.0, 0.0, 0.0, 0.0, 1.6635910681584575E9, 0.0, 2022-09-19 17:37:48.158
241.0, 22144.275563272902, 59878.44584923337, -38572.65127571241, -4407.0040472750725, -187500.02235174447, -100851.07098234547, 13085.82879135952, -37132.148400801234, 0.67, -0.742, 0.20600000000000002, 192.0, 0.0, 0.0, 0.0, 0.0, 0.0, 0.0, 0.0, 0.0, 0.0, 1.6635910681624432E9, 0.0, 2022-09-19 17:37:48.162
242.0, 22653.895336853904, 60064.47941833489, -38633.9174072644, -4414.246012478592, -187500.02235174447, -99706.30403832246, 13503.873467907128, -37182.88686071478, 0.67, -0.742, 0.20600000000000002, 192.0, 0.0, 0.0, 0.0, 0.0, 0.0, 0.0, 0.0, 0.0, 0.0, 1.663591068166459E9, 0.0, 2022-09-19 17:37:48.166
243.0, 22654.18590953182, 59976.94998704791, -38581.54727000562, -4456.960196132683, -187500.02235174447, -99463.80996272684, 13084.510038436656, -37144.77713641848, 0.67, -0.742, 0.20600000000000002, 192.0, 0.0, 0.0, 0.0, 0.0, 0.0, 0.0, 0.0, 0.0, 0.0, 1.6635910681705112E9, 0.0, 2022-09-19 17:37:48.170
244.0, 22116.84997282624, 59762.03796411014, -38504.120827212435, -4480.787155722041, -187500.02235174447, -100606.11821485976, 12541.250889450419, -37091.736446826035, 0.67, -0.742, 0.20600000000000002, 192.0, 0.0, 0.0, 0.0, 0.0, 0.0, 0.0, 0.0, 0.0, 0.0, 1.6635910681734643E9, 0.0, 2022-09-19 17:37:48.173
245.0, 21954.978639480905, 59791.18463887986, -38531.92639731483, -4458.725983944653, -187500.02235174447, -101158.11689592802, 12721.920039882665, -37100.31951669687, 0.67, -0.742, 0.20600000000000002, 192.0, 0.0, 0.0, 0.0, 0.0, 0.0, 0.0, 0.0, 0.0, 0.0, 1.6635910681774657E9, 0.0, 2022-09-19 17:37:48.177
246.0, 22118.347539704748, 59905.67027397994, -38582.86602292848, -4448.041850095016, -187500.02235174447, -100932.87836705189, 13067.67917486181, -37138.362185759805, 0.67, -0.742, 0.20600000000000002, 192.0, 0.0, 0.0, 0.0, 0.0, 0.0, 0.0, 0.0, 0.0, 0.0, 1.6635910681824725E9, 0.0, 2022-09-19 17:37:48.182
247.0, 22630.58246738702, 60100.286912952295, -38619.7687530242, -4421.331515470924, -187500.02235174447, -99814.7099989307, 13515.00463664587, -37170.36988381981, 0.67, -0.742, 0.20600000000000002, 192.0, 0.0, 0.0, 0.0, 0.0, 0.0, 0.0, 0.0, 0.0, 0.0, 1.6635910681865335E9, 0.0, 2022-09-19 17:37:48.186
248.0, 22674.48129349724, 60021.20644106942, -38570.01376986668, -4458.88244615584, -187500.02235174447, -99482.71953853602, 13145.664411266376, -37121.15134252922, 0.67, -0.742, 0.20600000000000002, 192.0, 0.0, 0.0, 0.0, 0.0, 0.0, 0.0, 0.0, 0.0, 0.0, 1.663591068190591E9, 0.0, 2022-09-19 17:37:48.190
249.0, 22137.502984702944, 59764.49665600022, -38500.63395507741, -4486.464498813689, -187500.02235174447, -100607.61578173826, 12558.126456514176, -37052.68794926262, 0.67, -0.742, 0.20600000000000002, 192.0, 0.0, 0.0, 0.0, 0.0, 0.0, 0.0, 0.0, 0.0, 0.0, 1.6635910681945062E9, 0.0, 2022-09-19 17:37:48.194
250.0, 21948.474281844414, 59765.278967056154, -38539.503638685186, -4477.479097542656, -187500.02235174447, -101216.52200418974, 12675.316652693351, -37080.09118796482, 0.66, -0.738, 0.21, 192.0, 20.0, 160.0, 232.0, 240.0, 6.0, 144.0, 0.0, 0.0, 0.0, 1.6635910681995313E9, 0.0, 2022-09-19 17:37:48.199
251.0, 22103.14835347514, 59889.53231448321, -38566.25867679819, -4455.127353087349, -187500.02235174447, -101030.80135951059, 13025.05439818554, -37115.33988897084, 0.66, -0.738, 0.21, 192.0, 0.0, 0.0, 0.0, 0.0, 0.0, 0.0, 0.0, 0.0, 0.0, 1.6635910682025187E9, 0.0, 2022-09-19 17:37:48.202
252.0, 22612.65636833386, 60079.34332839768, -38602.93788944935, -4429.825178363941, -187500.02235174447, -99943.50075048218, 13503.091156851193, -37154.47779351209, 0.66, -0.738, 0.21, 192.0, 0.0, 0.0, 0.0, 0.0, 0.0, 0.0, 0.0, 0.0, 0.0, 1.6635910682055175E9, 0.0, 2022-09-19 17:37:48.205
253.0, 22699.358785075998, 60003.325045505175, -38571.04195011163, -4467.64432998232, -187500.02235174447, -99519.93519305412, 13184.489391385245, -37126.73927864305, 0.66, -0.738, 0.21, 192.0, 0.0, 0.0, 0.0, 0.0, 0.0, 0.0, 0.0, 0.0, 0.0, 1.663591068211548E9, 0.0, 2022-09-19 17:37:48.211
254.0, 22158.24540355747, 59743.70953365679, -38499.024629476626, -4495.695769273731, -187500.02235174447, -100621.07153190035, 12562.328584471774, -37068.311818636874, 0.66, -0.738, 0.21, 192.0, 0.0, 0.0, 0.0, 0.0, 0.0, 0.0, 0.0, 0.0, 0.0, 1.663591068214556E9, 0.0, 2022-09-19 17:37:48.214
255.0, 21942.796938752766, 59738.05454230959, -38533.66983338235, -4486.1292226468595, -187500.02235174447, -101276.69290026343, 12670.84630380229, -37100.63244111925, 0.66, -0.738, 0.21, 192.0, 0.0, 0.0, 0.0, 0.0, 0.0, 0.0, 0.0, 0.0, 0.0, 1.663591068218567E9, 0.0, 2022-09-19 17:37:48.218
0.0, 22061.328239599257, 59845.76759883972, -38589.50449103171, -4486.084519157948, -187500.02235174447, -101151.18785514687, 12992.689072214256, -37152.10850859982, 0.66, -0.738, 0.21, 192.0, 0.0, 0.0, 0.0, 0.0, 0.0, 0.0, 0.0, 0.0, 0.0, 1.6635910682245493E9, 0.0, 2022-09-19 17:37:48.224
1.0, 22549.89266990336, 60068.50273233685, -38628.88826476196, -4458.301300800002, -187500.02235174447, -100107.29433385067, 13464.266176732324, -37169.85579369734, 0.66, -0.738, 0.21, 192.0, 0.0, 0.0, 0.0, 0.0, 0.0, 0.0, 0.0, 0.0, 0.0, 1.6635910682275677E9, 0.0, 2022-09-19 17:37:48.227
2.0, 22695.53663677414, 60049.950784438945, -38603.72020050528, -4485.235152868647, -187500.02235174447, -99578.51911527147, 13205.052996284128, -37145.157116074224, 0.66, -0.738, 0.21, 192.0, 0.0, 0.0, 0.0, 0.0, 0.0, 0.0, 0.0, 0.0, 0.0, 1.6635910682305694E9, 0.0, 2022-09-19 17:37:48.230
3.0, 22186.118028893237, 59813.62579031299, -38521.08580125401, -4507.3186763904905, -187500.02235174447, -100623.61963076825, 12575.67257591159, -37093.546938126914, 0.66, -0.738, 0.21, 192.0, 0.0, 0.0, 0.0, 0.0, 0.0, 0.0, 0.0, 0.0, 0.0, 1.6635910682345743E9, 0.0, 2022-09-19 17:37:48.234
4.0, 21958.420808127023, 59771.49275201473, -38511.83217904952, -4461.050565368005, -187500.02235174447, -101312.23217394736, 12701.80346987289, -37080.73938855402, 0.666, -0.742, 0.20800000000000002, 192.0, 20.0, 208.0, 232.0, 208.0, 6.0, 128.0, 0.0, 0.0, 0.0, 1.663591068238568E9, 0.0, 2022-09-19 17:37:48.238
5.0, 22080.729553786463, 59880.72572716782, -38542.14114453091, -4427.813521362963, -187500.02235174447, -101205.72611161783, 13023.109796417928, -37084.49448162252, 0.666, -0.742, 0.20800000000000002, 192.0, 0.0, 0.0, 0.0, 0.0, 0.0, 0.0, 0.0, 0.0, 0.0, 1.6635910682425907E9, 0.0, 2022-09-19 17:37:48.242
6.0, 22549.915021647816, 60071.497866093865, -38589.2586218427, -4418.135216013815, -187500.02235174447, -100210.29117230073, 13490.19420030048, -37135.6129211918, 0.666, -0.742, 0.20800000000000002, 192.0, 0.0, 0.0, 0.0, 0.0, 0.0, 0.0, 0.0, 0.0, 0.0, 1.6635910682466023E9, 0.0, 2022-09-19 17:37:48.246
7.0, 22710.93698870385, 60037.67967673298, -38592.03023815516, -4477.277931842557, -187500.02235174447, -99618.23816516856, 13266.408534813945, -37158.568162747404, 0.666, -0.742, 0.20800000000000002, 192.0, 0.0, 0.0, 0.0, 0.0, 0.0, 0.0, 0.0, 0.0, 0.0, 1.6635910682506015E9, 0.0, 2022-09-19 17:37:48.250
8.0, 22195.595168542288, 59804.014540197204, -38507.20536794727, -4505.1505571783255, -187500.02235174447, -100632.73914250603, 12613.692893230069, -37105.14749349922, 0.666, -0.742, 0.20800000000000002, 192.0, 0.0, 0.0, 0.0, 0.0, 0.0, 0.0, 0.0, 0.0, 0.0, 1.663591068254621E9, 0.0, 2022-09-19 17:37:48.254
9.0, 21945.90383123205, 59790.62584526847, -38525.176170489336, -4463.866885169374, -187500.02235174447, -101371.91133164303, 12670.332213679816, -37099.33603994084, 0.666, -0.742, 0.20800000000000002, 192.0, 0.0, 0.0, 0.0, 0.0, 0.0, 0.0, 0.0, 0.0, 0.0, 1.6635910682576957E9, 0.0, 2022-09-19 17:37:48.257
10.0, 22051.582879016743, 59901.98223614482, -38560.49192672872, -4434.675506910742, -187500.02235174447, -101308.90176402353, 13008.24588635515, -37119.25144425052, 0.666, -0.742, 0.20800000000000002, 192.0, 0.0, 0.0, 0.0, 0.0, 0.0, 0.0, 0.0, 0.0, 0.0, 1.6635910682616863E9, 0.0, 2022-09-19 17:37:48.261
11.0, 22514.442803197242, 60091.480325636905, -38615.49956983323, -4413.77662584503, -187500.02235174447, -100351.5318455138, 13489.568351455731, -37166.72654947359, 0.666, -0.742, 0.20800000000000002, 192.0, 0.0, 0.0, 0.0, 0.0, 0.0, 0.0, 0.0, 0.0, 0.0, 1.663591068265622E9, 0.0, 2022-09-19 17:37:48.265
12.0, 22738.563744850606, 60077.48813360788, -38609.956337208314, -4439.481131968633, -187500.02235174447, -99659.87946508879, 13305.76995679974, -37146.74408993055, 0.666, -0.742, 0.20800000000000002, 192.0, 0.0, 0.0, 0.0, 0.0, 0.0, 0.0, 0.0, 0.0, 0.0, 1.6635910682706027E9, 0.0, 2022-09-19 17:37:48.270
13.0, 22232.855526549283, 59792.95042669182, -38506.11013246896, -4471.488830028633, -187500.02235174447, -100629.09580815981, 12642.772512766423, -37087.17669095715, 0.666, -0.742, 0.20800000000000002, 192.0, 0.0, 0.0, 0.0, 0.0, 0.0, 0.0, 0.0, 0.0, 0.0, 1.663591068274638E9, 0.0, 2022-09-19 17:37:48.274
14.0, 21956.185633681493, 59731.349018973, -38495.09072245249, -4428.68523939672, -187500.02235174447, -101420.3922653666, 12698.875391349244, -37062.67917903414, 0.676, -0.734, 0.198, 192.0, 21.0, 32.0, 233.0, 16.0, 6.0, 48.0, 0.0, 0.0, 0.0, 1.663591068278649E9, 0.0, 2022-09-19 17:37:48.278
15.0, 22041.7034079675, 59828.15442420894, -38548.645502167405, -4418.4928439251, -187500.02235174447, -101405.52835530382, 13004.781365964576, -37109.17080750118, 0.676, -0.734, 0.198, 192.0, 0.0, 0.0, 0.0, 0.0, 0.0, 0.0, 0.0, 0.0, 0.0, 1.6635910682827115E9, 0.0, 2022-09-19 17:37:48.282
16.0, 22486.391363905834, 60038.08200813318, -38613.84554074354, -4397.839832048397, -187500.02235174447, -100496.52761179539, 13460.086400519182, -37138.04926133743, 0.676, -0.734, 0.198, 192.0, 0.0, 0.0, 0.0, 0.0, 0.0, 0.0, 0.0, 0.0, 0.0, 1.6635910682876625E9, 0.0, 2022-09-19 17:37:48.287
17.0, 22749.136119977968, 60076.63876731858, -38604.726029005775, -4437.849454623396, -187500.02235174447, -99723.76075074206, 13369.31596628618, -37135.05412758042, 0.676, -0.734, 0.198, 192.0, 0.0, 0.0, 0.0, 0.0, 0.0, 0.0, 0.0, 0.0, 0.0, 1.66359106829167E9, 0.0, 2022-09-19 17:37:48.291
18.0, 22266.271384509968, 59828.15442420894, -38521.77870533213, -4489.996074437628, -187500.02235174447, -100624.4466453131, 12684.190295242108, -37080.47116762056, 0.676, -0.734, 0.198, 192.0, 0.0, 0.0, 0.0, 0.0, 0.0, 0.0, 0.0, 0.0, 0.0, 1.6635910682956836E9, 0.0, 2022-09-19 17:37:48.295
19.0, 21960.588927339188, 59767.7600106907, -38520.86228380946, -4476.294455086524, -187500.02235174447, -101464.91694032156, 12662.777324053923, -37075.33026639584, 0.676, -0.734, 0.198, 192.0, 0.0, 0.0, 0.0, 0.0, 0.0, 0.0, 0.0, 0.0, 0.0, 1.663591068298671E9, 0.0, 2022-09-19 17:37:48.298
20.0, 22042.038684134328, 59865.63829966048, -38559.57550520605, -4459.105963600393, -187500.02235174447, -101478.01506257238, 12970.47143822568, -37110.46720867958, 0.676, -0.734, 0.198, 192.0, 0.0, 0.0, 0.0, 0.0, 0.0, 0.0, 0.0, 0.0, 0.0, 1.6635910683026936E9, 0.0, 2022-09-19 17:37:48.302
21.0, 22474.746105044618, 60060.83608398868, -38616.34893612253, -4447.952443117195, -187500.02235174447, -100615.34948531979, 13437.04175198576, -37152.712005700116, 0.676, -0.734, 0.198, 192.0, 0.0, 0.0, 0.0, 0.0, 0.0, 0.0, 0.0, 0.0, 0.0, 1.663591068306696E9, 0.0, 2022-09-19 17:37:48.306
22.0, 22783.423695972408, 60122.884526596616, -38613.107933176514, -4467.487867771133, -187500.02235174447, -99768.33012918594, 13410.465527828399, -37145.67120619669, 0.676, -0.734, 0.198, 192.0, 0.0, 0.0, 0.0, 0.0, 0.0, 0.0, 0.0, 0.0, 0.0, 1.6635910683097067E9, 0.0, 2022-09-19 17:37:48.309
23.0, 22313.210047866112, 59869.50515145125, -38518.67181285284, -4509.710313047208, -187500.02235174447, -100619.75277897749, 12721.361246271283, -37085.321496167366, 0.676, -0.734, 0.198, 192.0, 0.0, 0.0, 0.0, 0.0, 0.0, 0.0, 0.0, 0.0, 0.0, 1.663591068313746E9, 0.0, 2022-09-19 17:37:48.313
24.0, 21965.930994264007, 59771.44804852582, -38510.51342612665, -4504.3235426334795, -187500.02235174447, -101528.4182463191, 12675.920149793643, -37085.030923489445, 0.674, -0.738, 0.202, 192.0, 21.0, 16.0, 232.0, 240.0, 6.0, 80.0, 0.0, 0.0, 0.0, 1.6635910683177245E9, 0.0, 2022-09-19 17:37:48.317
25.0, 22029.186431072525, 59849.79091284167, -38551.506525457684, -4477.009710909094, -187500.02235174447, -101588.83501158179, 12980.440316252747, -37104.253423721006, 0.674, -0.738, 0.202, 192.0, 0.0, 0.0, 0.0, 0.0, 0.0, 0.0, 0.0, 0.0, 0.0, 1.6635910683217251E9, 0.0, 2022-09-19 17:37:48.321
26.0, 22442.380779073334, 60032.49407201935, -38612.16915990939, -4448.488884984122, -187500.02235174447, -100782.87581001232, 13431.61027808312, -37129.48854321105, 0.674, -0.738, 0.202, 192.0, 0.0, 0.0, 0.0, 0.0, 0.0, 0.0, 0.0, 0.0, 0.0, 1.6635910683268683E9, 0.0, 2022-09-19 17:37:48.326
27.0, 22782.239053516278, 60082.78549704379, -38629.670575817894, -4477.657911498298, -187500.02235174447, -99880.04414797356, 13433.666638573008, -37142.94429337315, 0.674, -0.738, 0.202, 192.0, 0.0, 0.0, 0.0, 0.0, 0.0, 0.0, 0.0, 0.0, 0.0, 1.6635910683307247E9, 0.0, 2022-09-19 17:37:48.330
28.0, 22348.57050759441, 59818.83374677107, -38534.83212409403, -4518.740417807152, -187500.02235174447, -100648.76534328048, 12750.753790230012, -37081.47699612105, 0.674, -0.738, 0.202, 192.0, 0.0, 0.0, 0.0, 0.0, 0.0, 0.0, 0.0, 0.0, 0.0, 1.6635910683347576E9, 0.0, 2022-09-19 17:37:48.334
29.0, 21986.986337540908, 59694.111012710455, -38515.22964420672, -4498.154461163815, -187500.02235174447, -101588.20916273704, 12674.13201023722, -37067.842432003315, 0.674, -0.738, 0.202, 192.0, 0.0, 0.0, 0.0, 0.0, 0.0, 0.0, 0.0, 0.0, 0.0, 1.6635910683377476E9, 0.0, 2022-09-19 17:37:48.337
30.0, 22022.30209378029, 59754.170150061866, -38555.44043248182, -4477.79202196503, -187500.02235174447, -101695.98927450053, 12959.966118331686, -37091.5576328704, 0.674, -0.738, 0.202, 192.0, 0.0, 0.0, 0.0, 0.0, 0.0, 0.0, 0.0, 0.0, 0.0, 1.6635910683417711E9, 0.0, 2022-09-19 17:37:48.341
31.0, 22421.593656729896, 59944.94228898791, -38611.140979664444, -4458.971853133661, -187500.02235174447, -100930.08439899498, 13415.472318586388, -37138.92097937119, 0.674, -0.738, 0.202, 192.0, 0.0, 0.0, 0.0, 0.0, 0.0, 0.0, 0.0, 0.0, 0.0, 1.6635910683457456E9, 0.0, 2022-09-19 17:37:48.345
32.0, 22808.457649762353, 60044.0722756472, -38630.05055547364, -4478.775498721064, -187500.02235174447, -99947.52406448414, 13464.33323196569, -37161.36213080432, 0.674, -0.738, 0.202, 192.0, 0.0, 0.0, 0.0, 0.0, 0.0, 0.0, 0.0, 0.0, 0.0, 1.6635910683497708E9, 0.0, 2022-09-19 17:37:48.349
33.0, 22401.879418120316, 59799.85711572852, -38548.53374344513, -4528.105798733926, -187500.02235174447, -100633.27558437295, 12754.106551898307, -37103.58287138735, 0.674, -0.738, 0.202, 192.0, 0.0, 0.0, 0.0, 0.0, 0.0, 0.0, 0.0, 0.0, 0.0, 1.6635910683547661E9, 0.0, 2022-09-19 17:37:48.354
34.0, 22005.35947148317, 59681.57168407103, -38531.166438003354, -4518.651010829331, -187500.02235174447, -101619.72512241903, 12607.367349549217, -37089.233051447045, 0.674, -0.738, 0.202, 192.0, 0.0, 0.0, 0.0, 0.0, 0.0, 0.0, 0.0, 0.0, 0.0, 1.6635910683587935E9, 0.0, 2022-09-19 17:37:48.358
35.0, 22035.847250920207, 59770.68808921434, -38530.0935542695, -4465.342100303424, -187500.02235174447, -101748.91820537069, 12937.413208176282, -37084.33801941133, 0.678, -0.738, 0.20800000000000002, 192.0, 21.0, 48.0, 232.0, 240.0, 6.0, 128.0, 0.0, 0.0, 0.0, 1.6635910683628218E9, 0.0, 2022-09-19 17:37:48.362
36.0, 22399.2866157635, 59944.115274443066, -38597.41700856889, -4439.950518602195, -187500.02235174447, -101045.7546765512, 13386.772678705775, -37132.66249092371, 0.678, -0.738, 0.20800000000000002, 192.0, 0.0, 0.0, 0.0, 0.0, 0.0, 0.0, 0.0, 0.0, 0.0, 1.6635910683668127E9, 0.0, 2022-09-19 17:37:48.366
37.0, 22803.160286326445, 60054.13056065209, -38624.39556412644, -4463.576312491455, -187500.02235174447, -100020.2566409417, 13498.978435871415, -37164.35726456133, 0.678, -0.738, 0.20800000000000002, 192.0, 0.0, 0.0, 0.0, 0.0, 0.0, 0.0, 0.0, 0.0, 0.0, 1.6635910683698869E9, 0.0, 2022-09-19 17:37:48.369
38.0, 22446.82877621994, 59834.39056091197, -38546.16445853287, -4508.36920837989, -187500.02235174447, -100601.80432817989, 12803.079223999886, -37104.70045861012, 0.678, -0.738, 0.20800000000000002, 192.0, 0.0, 0.0, 0.0, 0.0, 0.0, 0.0, 0.0, 0.0, 0.0, 1.6635910683758364E9, 0.0, 2022-09-19 17:37:48.375
39.0, 22038.12712885465, 59715.367521687454, -38522.27044371014, -4482.21766736718, -187500.02235174447, -101614.24894502747, 12615.033997897388, -37074.63736231773, 0.678, -0.738, 0.20800000000000002, 192.0, 0.0, 0.0, 0.0, 0.0, 0.0, 0.0, 0.0, 0.0, 0.0, 1.6635910683799477E9, 0.0, 2022-09-19 17:37:48.379
40.0, 22051.13584412764, 59809.22249665529, -38532.5969496485, -4432.283870254025, -187500.02235174447, -101784.94921743264, 12932.182899973739, -37084.963868256076, 0.678, -0.738, 0.20800000000000002, 192.0, 0.0, 0.0, 0.0, 0.0, 0.0, 0.0, 0.0, 0.0, 0.0, 1.6635910683828137E9, 0.0, 2022-09-19 17:37:48.382
41.0, 22404.025185588027, 59994.67492040097, -38586.86698518598, -4405.77470133003, -187500.02235174447, -101130.31132582562, 13374.814495422184, -37128.952101344126, 0.678, -0.738, 0.20800000000000002, 192.0, 0.0, 0.0, 0.0, 0.0, 0.0, 0.0, 0.0, 0.0, 0.0, 1.6635910683878295E9, 0.0, 2022-09-19 17:37:48.387
42.0, 22823.545077269686, 60104.354930443165, -38632.17397119689, -4430.763951631064, -187500.02235174447, -100077.94649338085, 13511.24954357738, -37164.29020932796, 0.678, -0.738, 0.20800000000000002, 192.0, 0.0, 0.0, 0.0, 0.0, 0.0, 0.0, 0.0, 0.0, 0.0, 1.663591068390842E9, 0.0, 2022-09-19 17:37:48.390
43.0, 22495.3097099435, 59891.90159939547, -38549.91955160136, -4468.828972438451, -187500.02235174447, -100577.84325812379, 12818.323113718405, -37097.43614166214, 0.678, -0.738, 0.20800000000000002, 192.0, 0.0, 0.0, 0.0, 0.0, 0.0, 0.0, 0.0, 0.0, 0.0, 1.66359106839491E9, 0.0, 2022-09-19 17:37:48.394
44.0, 22060.680039010054, 59758.34992627501, -38516.637804107406, -4456.200236821203, -187500.02235174447, -101625.96125912205, 12576.790163134357, -37060.555763310884, 0.678, -0.738, 0.20800000000000002, 192.0, 0.0, 0.0, 0.0, 0.0, 0.0, 0.0, 0.0, 0.0, 0.0, 1.6635910683978317E9, 0.0, 2022-09-19 17:37:48.397
45.0, 22043.089216123728, 59824.66755207391, -38538.85543809598, -4442.230396536636, -187500.02235174447, -101847.77997109652, 12875.230655101617, -37082.97456299956, 0.674, -0.742, 0.20800000000000002, 192.0, 21.0, 16.0, 232.0, 208.0, 6.0, 128.0, 0.0, 0.0, 0.0, 1.663591068401831E9, 0.0, 2022-09-19 17:37:48.401
46.0, 22382.343993466377, 60011.72930142037, -38576.138147847436, -4421.2644602375585, -187500.02235174447, -101233.71049567587, 13328.993419288805, -37112.18829300264, 0.674, -0.742, 0.20800000000000002, 192.0, 0.0, 0.0, 0.0, 0.0, 0.0, 0.0, 0.0, 0.0, 0.0, 1.6635910684058585E9, 0.0, 2022-09-19 17:37:48.405
47.0, 22837.403158831974, 60156.45684676849, -38647.39550917095, -4477.07676614246, -187500.02235174447, -100131.25540390676, 13507.405043531066, -37189.99471545157, 0.674, -0.742, 0.20800000000000002, 192.0, 0.0, 0.0, 0.0, 0.0, 0.0, 0.0, 0.0, 0.0, 0.0, 1.6635910684099405E9, 0.0, 2022-09-19 17:37:48.409
48.0, 22540.236716298667, 59929.787806247215, -38571.10900534499, -4521.757903308619, -187500.02235174447, -100539.95705127205, 12852.20835831265, -37108.29908946742, 0.674, -0.742, 0.20800000000000002, 192.0, 0.0, 0.0, 0.0, 0.0, 0.0, 0.0, 0.0, 0.0, 0.0, 1.6635910684148726E9, 0.0, 2022-09-19 17:37:48.414
49.0, 22095.235835937958, 59765.413077522884, -38481.27734437911, -4484.922228446273, -187500.02235174447, -101601.0837675433, 12621.046617155866, -37034.5383327649, 0.674, -0.742, 0.20800000000000002, 192.0, 0.0, 0.0, 0.0, 0.0, 0.0, 0.0, 0.0, 0.0, 0.0, 1.6635910684178689E9, 0.0, 2022-09-19 17:37:48.417
50.0, 22064.010448933896, 59818.207897926324, -38516.838969807504, -4470.594760250421, -187500.02235174447, -101856.76537236755, 12888.954626197175, -37067.93183898114, 0.674, -0.742, 0.20800000000000002, 192.0, 0.0, 0.0, 0.0, 0.0, 0.0, 0.0, 0.0, 0.0, 0.0, 1.6635910684218955E9, 0.0, 2022-09-19 17:37:48.421
51.0, 22350.60451633984, 59974.89362655803, -38578.842708926524, -4468.4042892938005, -187500.02235174447, -101324.74915084234, 13297.209238673358, -37108.656717378704, 0.674, -0.742, 0.20800000000000002, 192.0, 0.0, 0.0, 0.0, 0.0, 0.0, 0.0, 0.0, 0.0, 0.0, 1.6635910684258933E9, 0.0, 2022-09-19 17:37:48.425
52.0, 22837.80549023217, 60140.31888727175, -38609.84457848604, -4469.767745705574, -187500.02235174447, -100186.26304701126, 13553.628451064642, -37129.980281589065, 0.674, -0.742, 0.20800000000000002, 192.0, 0.0, 0.0, 0.0, 0.0, 0.0, 0.0, 0.0, 0.0, 0.0, 1.6635910684298935E9, 0.0, 2022-09-19 17:37:48.429
53.0, 22584.984908698192, 59925.98800968981, -38560.11194707298, -4535.2583569596245, -187500.02235174447, -100496.3711495842, 12890.295730864495, -37105.81804583288, 0.674, -0.742, 0.20800000000000002, 192.0, 0.0, 0.0, 0.0, 0.0, 0.0, 0.0, 0.0, 0.0, 0.0, 1.6635910684338956E9, 0.0, 2022-09-19 17:37:48.433
54.0, 22107.66340585511, 59740.71439989977, -38519.856455308975, -4531.5032638911325, -187500.02235174447, -101599.34033147577, 12563.982613561466, -37071.37400762725, 0.674, -0.742, 0.20800000000000002, 192.0, 0.0, 0.0, 0.0, 0.0, 0.0, 0.0, 0.0, 0.0, 0.0, 1.6635910684379976E9, 0.0, 2022-09-19 17:37:48.437
55.0, 22062.22230937747, 59801.13116516247, -38526.40551643437, -4489.83961222644, -187500.02235174447, -101898.83135543244, 12852.230710057105, -37074.92793499565, 0.67, -0.746, 0.2, 192.0, 20.0, 240.0, 232.0, 176.0, 6.0, 64.0, 0.0, 0.0, 0.0, 1.6635910684419076E9, 0.0, 2022-09-19 17:37:48.441
56.0, 22363.18854846818, 59996.619522168585, -38559.262580783674, -4449.695879184709, -187500.02235174447, -101388.98806440689, 13285.318110623135, -37096.47501665056, 0.67, -0.746, 0.2, 192.0, 0.0, 0.0, 0.0, 0.0, 0.0, 0.0, 0.0, 0.0, 0.0, 1.66359106844699E9, 0.0, 2022-09-19 17:37:48.446
57.0, 22843.058150179168, 60179.34503309072, -38605.64245052844, -4450.142914073815, -187500.02235174447, -100254.2123501554, 13568.022974493859, -37130.047336822434, 0.67, -0.746, 0.2, 192.0, 0.0, 0.0, 0.0, 0.0, 0.0, 0.0, 0.0, 0.0, 0.0, 1.6635910684509406E9, 0.0, 2022-09-19 17:37:48.450
58.0, 22629.53193539762, 59999.92758034797, -38545.20333352129, -4498.601496052921, -187500.02235174447, -100466.55392248082, 12951.047772294018, -37091.311763681384, 0.67, -0.746, 0.2, 192.0, 0.0, 0.0, 0.0, 0.0, 0.0, 0.0, 0.0, 0.0, 0.0, 1.6635910684540133E9, 0.0, 2022-09-19 17:37:48.454
59.0, 22134.731368390487, 59825.71808406331, -38494.531928841105, -4509.017408969094, -187500.02235174447, -101586.64454062517, 12583.20511379303, -37066.81425175837, 0.67, -0.746, 0.2, 192.0, 0.0, 0.0, 0.0, 0.0, 0.0, 0.0, 0.0, 0.0, 0.0, 1.6635910684579458E9, 0.0, 2022-09-19 17:37:48.457
60.0, 22075.342783372736, 59874.86957012053, -38524.72913560023, -4486.196277880225, -187500.02235174447, -101919.23849812013, 12836.271564516017, -37072.312780894375, 0.67, -0.746, 0.2, 192.0, 0.0, 0.0, 0.0, 0.0, 0.0, 0.0, 0.0, 0.0, 0.0, 1.6635910684619465E9, 0.0, 2022-09-19 17:37:48.461
61.0, 22324.3188648604, 60006.70015891793, -38574.305304802096, -4467.353757304401, -187500.02235174447, -101490.53203946735, 13227.740016906264, -37100.87831030826, 0.67, -0.746, 0.2, 192.0, 0.0, 0.0, 0.0, 0.0, 0.0, 0.0, 0.0, 0.0, 0.0, 1.6635910684680068E9, 0.0, 2022-09-19 17:37:48.468
62.0, 22821.734585968803, 60178.89799820161, -38631.771639796694, -4471.399423050812, -187500.02235174447, -100346.90503441157, 13553.404933620088, -37147.61580796431, 0.67, -0.746, 0.2, 192.0, 0.0, 0.0, 0.0, 0.0, 0.0, 0.0, 0.0, 0.0, 0.0, 1.6635910684719698E9, 0.0, 2022-09-19 17:37:48.471
63.0, 22665.58529920403, 60011.03639734226, -38580.58614499404, -4521.981420753172, -187500.02235174447, -100444.13512279214, 12969.80088589202, -37112.523569169476, 0.67, -0.746, 0.2, 192.0, 0.0, 0.0, 0.0, 0.0, 0.0, 0.0, 0.0, 0.0, 0.0, 1.6635910684749708E9, 0.0, 2022-09-19 17:37:48.474
64.0, 22163.274546059914, 59803.70161577483, -38524.55032164459, -4511.65491481482, -187500.02235174447, -101567.5785026048, 12554.706639612514, -37051.50330680649, 0.67, -0.746, 0.2, 192.0, 0.0, 0.0, 0.0, 0.0, 0.0, 0.0, 0.0, 0.0, 0.0, 1.663591068479007E9, 0.0, 2022-09-19 17:37:48.479
65.0, 22080.863664253196, 59835.262278945724, -38531.92639731483, -4472.204085851203, -187500.02235174447, -101951.87204502488, 12812.690474115667, -37062.299199378394, 0.67, -0.73, 0.20600000000000002, 192.0, 20.0, 240.0, 233.0, 48.0, 6.0, 112.0, 0.0, 0.0, 0.0, 1.66359106848201E9, 0.0, 2022-09-19 17:37:48.482
66.0, 22309.186733864157, 59974.69246085793, -38573.83591816854, -4455.820257165463, -187500.02235174447, -101575.46866839752, 13202.683711371865, -37098.173749229165, 0.67, -0.73, 0.20600000000000002, 192.0, 0.0, 0.0, 0.0, 0.0, 0.0, 0.0, 0.0, 0.0, 0.0, 1.6635910684860077E9, 0.0, 2022-09-19 17:37:48.486
67.0, 22820.818164446137, 60170.87372194216, -38628.620043828494, -4454.389745520323, -187500.02235174447, -100424.86791907166, 13573.320337929767, -37121.01723206249, 0.67, -0.73, 0.20600000000000002, 192.0, 0.0, 0.0, 0.0, 0.0, 0.0, 0.0, 0.0, 0.0, 0.0, 1.663591068489998E9, 0.0, 2022-09-19 17:37:48.489
68.0, 22707.58422703555, 60021.1170340916, -38576.473424014264, -4513.063074715505, -187500.02235174447, -100421.06812251428, 13056.324488678514, -37091.24470844802, 0.67, -0.73, 0.20600000000000002, 192.0, 0.0, 0.0, 0.0, 0.0, 0.0, 0.0, 0.0, 0.0, 0.0, 1.6635910684971087E9, 0.0, 2022-09-19 17:37:48.497
69.0, 22185.78275272641, 59814.05047345764, -38514.33557442851, -4529.715124334708, -187500.02235174447, -101555.95559548803, 12598.314893044817, -37057.85120223179, 0.67, -0.73, 0.20600000000000002, 192.0, 0.0, 0.0, 0.0, 0.0, 0.0, 0.0, 0.0, 0.0, 0.0, 1.6635910685000343E9, 0.0, 2022-09-19 17:37:48.500
70.0, 22074.426361850066, 59857.166988511926, -38558.927304616846, -4519.768598052096, -187500.02235174447, -101994.45211821224, 12802.319264688405, -37077.45368211909, 0.67, -0.73, 0.20600000000000002, 192.0, 0.0, 0.0, 0.0, 0.0, 0.0, 0.0, 0.0, 0.0, 0.0, 1.663591068504033E9, 0.0, 2022-09-19 17:37:48.504
71.0, 22307.823277452386, 60039.17724361149, -38607.944680207336, -4495.8745832293735, -187500.02235174447, -101646.92719542113, 13155.230957893249, -37086.26026943449, 0.67, -0.73, 0.20600000000000002, 192.0, 0.0, 0.0, 0.0, 0.0, 0.0, 0.0, 0.0, 0.0, 0.0, 1.6635910685070403E9, 0.0, 2022-09-19 17:37:48.507
72.0, 22818.314769067143, 60256.480903205986, -38656.13504125298, -4496.36632160739, -187500.02235174447, -100510.02806544639, 13532.48370080992, -37124.28058675296, 0.67, -0.73, 0.20600000000000002, 192.0, 0.0, 0.0, 0.0, 0.0, 0.0, 0.0, 0.0, 0.0, 0.0, 1.6635910685100613E9, 0.0, 2022-09-19 17:37:48.510
73.0, 22737.960247750314, 60132.96516334596, -38570.617266966976, -4558.705336893241, -187500.02235174447, -100416.88834630113, 13107.465279992257, -37091.22235670356, 0.67, -0.73, 0.20600000000000002, 192.0, 0.0, 0.0, 0.0, 0.0, 0.0, 0.0, 0.0, 0.0, 0.0, 1.6635910685140784E9, 0.0, 2022-09-19 17:37:48.514
74.0, 22216.359939141268, 59939.42140810745, -38493.8837282519, -4557.632453159386, -187500.02235174447, -101544.46679883801, 12633.02715218391, -37027.72105070604, 0.67, -0.73, 0.20600000000000002, 192.0, 0.0, 0.0, 0.0, 0.0, 0.0, 0.0, 0.0, 0.0, 0.0, 1.6635910685180752E9, 0.0, 2022-09-19 17:37:48.518
75.0, 22091.547798102834, 59979.16280974899, -38525.377336189435, -4520.215632941203, -187500.02235174447, -102024.73873194918, 12824.469843443614, -37038.04755664439, 0.67, -0.724, 0.212, 192.0, 20.0, 240.0, 233.0, 96.0, 6.0, 160.0, 0.0, 0.0, 0.0, 1.6635910685220869E9, 0.0, 2022-09-19 17:37:48.522
76.0, 22273.826274135863, 60092.84378204868, -38589.72800847626, -4507.899821746329, -187500.02235174447, -101759.0211938645, 13160.908300984896, -37086.573193856864, 0.67, -0.724, 0.212, 192.0, 0.0, 0.0, 0.0, 0.0, 0.0, 0.0, 0.0, 0.0, 0.0, 1.6635910685260994E9, 0.0, 2022-09-19 17:37:48.526
77.0, 22785.457704717843, 60286.43224077609, -38642.72399457979, -4493.281780872558, -187500.02235174447, -100642.1045234328, 13561.742134301918, -37140.53030497197, 0.67, -0.724, 0.212, 192.0, 0.0, 0.0, 0.0, 0.0, 0.0, 0.0, 0.0, 0.0, 0.0, 1.663591068531072E9, 0.0, 2022-09-19 17:37:48.531
78.0, 22763.687105618374, 60184.57534129326, -38602.58026153806, -4549.384659455378, -187500.02235174447, -100442.81636986928, 13111.443890505301, -37120.547845428926, 0.67, -0.724, 0.212, 192.0, 0.0, 0.0, 0.0, 0.0, 0.0, 0.0, 0.0, 0.0, 0.0, 1.6635910685350974E9, 0.0, 2022-09-19 17:37:48.535
79.0, 22228.653398591687, 59955.0005739928, -38523.58919663301, -4555.263168247124, -187500.02235174447, -101571.33359567328, 12578.220674779497, -37059.639341788214, 0.67, -0.724, 0.212, 192.0, 0.0, 0.0, 0.0, 0.0, 0.0, 0.0, 0.0, 0.0, 0.0, 1.663591068539133E9, 0.0, 2022-09-19 17:37:48.539
80.0, 22081.534216586857, 59957.191044949424, -38520.52700764263, -4503.138900177348, -187500.02235174447, -102101.40521543089, 12776.570055075892, -37046.9435509376, 0.67, -0.724, 0.212, 192.0, 0.0, 0.0, 0.0, 0.0, 0.0, 0.0, 0.0, 0.0, 0.0, 1.6635910685431132E9, 0.0, 2022-09-19 17:37:48.543
81.0, 22252.078026780848, 60061.618395044614, -38572.33835129003, -4483.894048201329, -187500.02235174447, -101872.90333186429, 13114.506079495679, -37088.04840899091, 0.67, -0.724, 0.212, 192.0, 0.0, 0.0, 0.0, 0.0, 0.0, 0.0, 0.0, 0.0, 0.0, 1.6635910685471556E9, 0.0, 2022-09-19 17:37:48.547
82.0, 22765.542300408164, 60279.480848250496, -38629.78233454017, -4480.004844666105, -187500.02235174447, -100770.783516262, 13539.099817168692, -37148.12989808678, 0.67, -0.724, 0.212, 192.0, 0.0, 0.0, 0.0, 0.0, 0.0, 0.0, 0.0, 0.0, 0.0, 1.6635910685521407E9, 0.0, 2022-09-19 17:37:48.552
83.0, 22796.007728100747, 60213.744367807434, -38581.9048979169, -4530.206862712725, -187500.02235174447, -100467.82797191477, 13166.786809776642, -37128.72858389957, 0.67, -0.724, 0.212, 192.0, 0.0, 0.0, 0.0, 0.0, 0.0, 0.0, 0.0, 0.0, 0.0, 1.663591068555207E9, 0.0, 2022-09-19 17:37:48.555
84.0, 22247.428863934143, 59949.569100090164, -38514.82731280653, -4535.347763937445, -187500.02235174447, -101594.42294769561, 12593.06223309782, -37060.846335988805, 0.67, -0.724, 0.212, 192.0, 0.0, 0.0, 0.0, 0.0, 0.0, 0.0, 0.0, 0.0, 0.0, 1.6635910685581768E9, 0.0, 2022-09-19 17:37:48.558
85.0, 22056.27674535236, 59924.892774211505, -38560.22370579526, -4507.385731623856, -187500.02235174447, -102195.17078342091, 12729.43022601965, -37087.1543392127, 0.67, -0.726, 0.20600000000000002, 192.0, 20.0, 240.0, 233.0, 80.0, 6.0, 112.0, 0.0, 0.0, 0.0, 1.663591068562182E9, 0.0, 2022-09-19 17:37:48.562
86.0, 22210.481430349522, 60035.44450228745, -38598.3110783471, -4475.668606241776, -187500.02235174447, -102012.28881028757, 13075.144657509883, -37110.84718833533, 0.67, -0.726, 0.20600000000000002, 192.0, 0.0, 0.0, 0.0, 0.0, 0.0, 0.0, 0.0, 0.0, 0.0, 1.6635910685651724E9, 0.0, 2022-09-19 17:37:48.565
87.0, 22711.96516894879, 60256.749124139445, -38659.800727343645, -4460.044736867516, -187500.02235174447, -100946.87055908091, 13520.503165781876, -37150.34272078785, 0.67, -0.726, 0.20600000000000002, 192.0, 0.0, 0.0, 0.0, 0.0, 0.0, 0.0, 0.0, 0.0, 0.0, 1.6635910685702045E9, 0.0, 2022-09-19 17:37:48.570
88.0, 22788.005803585747, 60221.723940577984, -38598.86987195848, -4501.239001898647, -187500.02235174447, -100551.69171711108, 13219.224002268793, -37134.048299079936, 0.67, -0.726, 0.20600000000000002, 192.0, 0.0, 0.0, 0.0, 0.0, 0.0, 0.0, 0.0, 0.0, 0.0, 1.663591068574213E9, 0.0, 2022-09-19 17:37:48.574
89.0, 22249.88755582423, 59968.59043462163, -38520.839932065006, -4520.796778297041, -187500.02235174447, -101649.25177684448, 12638.8833092312, -37078.90654550869, 0.67, -0.726, 0.20600000000000002, 192.0, 0.0, 0.0, 0.0, 0.0, 0.0, 0.0, 0.0, 0.0, 0.0, 1.6635910685782013E9, 0.0, 2022-09-19 17:37:48.578
90.0, 22047.380751059147, 59969.03746951073, -38528.68539436882, -4472.986396907138, -187500.02235174447, -102290.00923514477, 12763.114304913797, -37050.005739927976, 0.67, -0.726, 0.20600000000000002, 192.0, 0.0, 0.0, 0.0, 0.0, 0.0, 0.0, 0.0, 0.0, 0.0, 1.663591068582262E9, 0.0, 2022-09-19 17:37:48.582
91.0, 22197.092735420792, 60115.44139569299, -38550.36658649047, -4433.334402243424, -187500.02235174447, -102137.61504144849, 13124.430254033836, -37070.211716915575, 0.67, -0.726, 0.20600000000000002, 192.0, 0.0, 0.0, 0.0, 0.0, 0.0, 0.0, 0.0, 0.0, 0.0, 1.663591068586208E9, 0.0, 2022-09-19 17:37:48.586
92.0, 22691.848598939014, 60334.75671228847, -38627.77067753919, -4422.8514340938855, -187500.02235174447, -101100.02471208868, 13564.558454103286, -37134.71885141359, 0.67, -0.726, 0.20600000000000002, 192.0, 0.0, 0.0, 0.0, 0.0, 0.0, 0.0, 0.0, 0.0, 0.0, 1.6635910685892167E9, 0.0, 2022-09-19 17:37:48.589
93.0, 22803.942597382378, 60287.728641954505, -38607.07296217358, -4475.020405652572, -187500.02235174447, -100616.35531382028, 13276.802095985664, -37130.36026124481, 0.67, -0.726, 0.20600000000000002, 192.0, 0.0, 0.0, 0.0, 0.0, 0.0, 0.0, 0.0, 0.0, 0.0, 1.6635910685932417E9, 0.0, 2022-09-19 17:37:48.593
94.0, 22264.013858319984, 60012.37750200958, -38529.0430222801, -4491.98537969415, -187500.02235174447, -101685.90863775118, 12647.153454679663, -37056.95713245358, 0.67, -0.726, 0.20600000000000002, 192.0, 0.0, 0.0, 0.0, 0.0, 0.0, 0.0, 0.0, 0.0, 0.0, 1.663591068598254E9, 0.0, 2022-09-19 17:37:48.598
95.0, 22035.89195440912, 59963.44953339691, -38540.21889450776, -4457.898969399806, -187500.02235174447, -102375.48230594187, 12747.42338030617, -37066.70249303609, 0.668, -0.73, 0.202, 192.0, 20.0, 224.0, 233.0, 48.0, 6.0, 80.0, 0.0, 0.0, 0.0, 1.6635910686032436E9, 0.0, 2022-09-19 17:37:48.603
96.0, 22155.96552562303, 60066.31226138023, -38577.9039356594, -4435.748390644597, -187500.02235174447, -102280.75561294027, 13067.187436483793, -37091.49057763703, 0.668, -0.73, 0.202, 192.0, 0.0, 0.0, 0.0, 0.0, 0.0, 0.0, 0.0, 0.0, 0.0, 1.6635910686072612E9, 0.0, 2022-09-19 17:37:48.607
97.0, 22637.53385991262, 60284.577045986305, -38635.83965728756, -4411.809672332964, -187500.02235174447, -101288.87460099156, 13515.518726768343, -37124.70526989761, 0.668, -0.73, 0.202, 192.0, 0.0, 0.0, 0.0, 0.0, 0.0, 0.0, 0.0, 0.0, 0.0, 1.6635910686103406E9, 0.0, 2022-09-19 17:37:48.610
98.0, 22806.378937528007, 60257.68789740657, -38629.55881709562, -4463.688071213731, -187500.02235174447, -100713.29482952296, 13281.473610576822, -37134.83061013587, 0.668, -0.73, 0.202, 192.0, 0.0, 0.0, 0.0, 0.0, 0.0, 0.0, 0.0, 0.0, 0.0, 1.6635910686143024E9, 0.0, 2022-09-19 17:37:48.614
99.0, 22274.228605536056, 59973.21724572388, -38519.1411994864, -4493.84057448394, -187500.02235174447, -101749.74521991554, 12653.233129171507, -37069.11648143727, 0.668, -0.73, 0.202, 192.0, 0.0, 0.0, 0.0, 0.0, 0.0, 0.0, 0.0, 0.0, 0.0, 1.6635910686193156E9, 0.0, 2022-09-19 17:37:48.619
100.0, 22013.987244842916, 59937.02977145073, -38538.74367937371, -4465.498562514611, -187500.02235174447, -102504.36246447117, 12704.12805129624, -37081.544051354416, 0.668, -0.73, 0.202, 192.0, 0.0, 0.0, 0.0, 0.0, 0.0, 0.0, 0.0, 0.0, 0.0, 1.6635910686233444E9, 0.0, 2022-09-19 17:37:48.623
101.0, 22129.389301465668, 60066.55813056924, -38562.39182500742, -4442.006879092083, -187500.02235174447, -102445.21974864243, 13037.794892525066, -37118.84911285032, 0.668, -0.73, 0.202, 192.0, 0.0, 0.0, 0.0, 0.0, 0.0, 0.0, 0.0, 0.0, 0.0, 1.6635910686262712E9, 0.0, 2022-09-19 17:37:48.626
102.0, 22593.456219846754, 60287.572179743314, -38615.208997155314, -4421.331515470924, -187500.02235174447, -101501.08206285026, 13519.162061114557, -37151.30384579943, 0.668, -0.73, 0.202, 192.0, 0.0, 0.0, 0.0, 0.0, 0.0, 0.0, 0.0, 0.0, 0.0, 1.6635910686302998E9, 0.0, 2022-09-19 17:37:48.630
103.0, 22792.431448987896, 60287.12514485421, -38603.83195922756, -4455.864960654373, -187500.02235174447, -100854.31198529148, 13350.16052128798, -37134.36122350231, 0.668, -0.73, 0.202, 192.0, 0.0, 0.0, 0.0, 0.0, 0.0, 0.0, 0.0, 0.0, 0.0, 1.6635910686344063E9, 0.0, 2022-09-19 17:37:48.634
104.0, 22287.572596975875, 60024.89447890455, -38514.603795361974, -4485.235152868647, -187500.02235174447, -101836.35822967986, 12672.7909055699, -37067.261286647474, 0.668, -0.73, 0.202, 192.0, 0.0, 0.0, 0.0, 0.0, 0.0, 0.0, 0.0, 0.0, 0.0, 1.6635910686383123E9, 0.0, 2022-09-19 17:37:48.638
105.0, 21999.369203969145, 59966.846998554116, -38513.53091162812, -4464.850361925407, -187500.02235174447, -102643.56912893882, 12700.484716950026, -37068.37887387024, 0.68, -0.736, 0.192, 192.0, 21.0, 64.0, 233.0, 0.0, 6.0, 0.0, 0.0, 0.0, 0.0, 1.6635910686424003E9, 0.0, 2022-09-19 17:37:48.642
106.0, 22080.50603634191, 60053.16943564051, -38560.26840928417, -4450.88052164084, -187500.02235174447, -102646.38544874018, 13001.741528718654, -37113.17176975868, 0.68, -0.736, 0.192, 192.0, 0.0, 0.0, 0.0, 0.0, 0.0, 0.0, 0.0, 0.0, 0.0, 1.6635910686453824E9, 0.0, 2022-09-19 17:37:48.645
107.0, 22534.537021462565, 60235.917298307104, -38615.85719774452, -4424.706628883676, -187500.02235174447, -101749.78992340446, 13468.155380267548, -37126.001671076025, 0.68, -0.736, 0.192, 192.0, 0.0, 0.0, 0.0, 0.0, 0.0, 0.0, 0.0, 0.0, 0.0, 1.6635910686493793E9, 0.0, 2022-09-19 17:37:48.649
108.0, 22783.021364572214, 60223.5120801344, -38614.426686099374, -4464.403327036301, -187500.02235174447, -101018.88787971591, 13362.968070860872, -37126.24754026503, 0.68, -0.736, 0.192, 192.0, 0.0, 0.0, 0.0, 0.0, 0.0, 0.0, 0.0, 0.0, 0.0, 1.6635910686543546E9, 0.0, 2022-09-19 17:37:48.654
109.0, 22287.349079531323, 59943.53412908723, -38523.700955355285, -4521.489682375155, -187500.02235174447, -101954.88953052636, 12691.164039512163, -37081.63345833224, 0.68, -0.736, 0.192, 192.0, 0.0, 0.0, 0.0, 0.0, 0.0, 0.0, 0.0, 0.0, 0.0, 1.6635910686583624E9, 0.0, 2022-09-19 17:37:48.658
110.0, 21984.52764565082, 59880.345747512074, -38528.171304246345, -4506.961048479206, -187500.02235174447, -102803.54056400545, 12685.732565609524, -37073.51977509496, 0.68, -0.736, 0.192, 192.0, 0.0, 0.0, 0.0, 0.0, 0.0, 0.0, 0.0, 0.0, 0.0, 1.663591068662408E9, 0.0, 2022-09-19 17:37:48.662
111.0, 22050.800567960807, 59971.13853348953, -38584.56475550708, -4501.775443765574, -187500.02235174447, -102844.31014589193, 12974.785324905555, -37121.15134252922, 0.68, -0.736, 0.192, 192.0, 0.0, 0.0, 0.0, 0.0, 0.0, 0.0, 0.0, 0.0, 0.0, 1.6635910686663585E9, 0.0, 2022-09-19 17:37:48.666
112.0, 22476.757762045596, 60148.0972943422, -38639.661805589414, -4492.722987261175, -187500.02235174447, -102003.43751948328, 13462.969775553916, -37158.59051449186, 0.68, -0.736, 0.192, 192.0, 0.0, 0.0, 0.0, 0.0, 0.0, 0.0, 0.0, 0.0, 0.0, 1.663591068669376E9, 0.0, 2022-09-19 17:37:48.669
113.0, 22771.97960281129, 60161.30717531528, -38629.201189184336, -4505.329371133968, -187500.02235174447, -101191.30923644415, 13429.889193760062, -37130.29320601144, 0.68, -0.736, 0.192, 192.0, 0.0, 0.0, 0.0, 0.0, 0.0, 0.0, 0.0, 0.0, 0.0, 1.6635910686733797E9, 0.0, 2022-09-19 17:37:48.673
114.0, 22314.059414155414, 59884.078488836116, -38530.2947199696, -4525.13301672137, -187500.02235174447, -102039.9379181788, 12735.219327833573, -37049.2457806165, 0.68, -0.736, 0.192, 192.0, 0.0, 0.0, 0.0, 0.0, 0.0, 0.0, 0.0, 0.0, 0.0, 1.66359106867735E9, 0.0, 2022-09-19 17:37:48.677
115.0, 21988.662718375053, 59774.107906116005, -38519.09649599749, -4509.039760713549, -187500.02235174447, -102917.75797817207, 12690.94052206761, -37044.14958288069, 0.6920000000000001, -0.75, 0.192, 192.0, 21.0, 160.0, 232.0, 144.0, 6.0, 0.0, 0.0, 0.0, 0.0, 1.66359106868235E9, 0.0, 2022-09-19 17:37:48.682
116.0, 22055.382675574147, 59847.443979673866, -38566.482194242744, -4498.132109419359, -187500.02235174447, -102973.5032288436, 12979.367432518893, -37075.1514524402, 0.6920000000000001, -0.75, 0.192, 192.0, 0.0, 0.0, 0.0, 0.0, 0.0, 0.0, 0.0, 0.0, 0.0, 1.6635910686864424E9, 0.0, 2022-09-19 17:37:48.686
117.0, 22466.36420087388, 60037.07617963269, -38623.657956559415, -4494.354664606412, -187500.02235174447, -102176.12709714498, 13435.432426384978, -37123.65473790822, 0.6920000000000001, -0.75, 0.192, 192.0, 0.0, 0.0, 0.0, 0.0, 0.0, 0.0, 0.0, 0.0, 0.0, 1.6635910686904612E9, 0.0, 2022-09-19 17:37:48.690
118.0, 22803.517914237727, 60121.52107018484, -38627.63656707246, -4532.1514644803365, -187500.02235174447, -101289.52280158077, 13444.976621267393, -37131.947235101135, 0.6920000000000001, -0.75, 0.192, 192.0, 0.0, 0.0, 0.0, 0.0, 0.0, 0.0, 0.0, 0.0, 0.0, 1.663591068693389E9, 0.0, 2022-09-19 17:37:48.693
119.0, 22369.849368315863, 59873.37200324202, -38541.78351661963, -4586.1532790843585, -187500.02235174447, -102063.25078764568, 12732.246545821017, -37082.14754845471, 0.6920000000000001, -0.75, 0.192, 192.0, 0.0, 0.0, 0.0, 0.0, 0.0, 0.0, 0.0, 0.0, 0.0, 1.6635910686993732E9, 0.0, 2022-09-19 17:37:48.699
120.0, 22024.26904729236, 59772.65504272641, -38515.76608607365, -4566.126116052404, -187500.02235174447, -102976.4089556228, 12665.8395130443, -37078.21364143058, 0.6920000000000001, -0.75, 0.192, 192.0, 0.0, 0.0, 0.0, 0.0, 0.0, 0.0, 0.0, 0.0, 0.0, 1.6635910687034068E9, 0.0, 2022-09-19 17:37:48.703
121.0, 22066.60325129071, 59858.70925887934, -38556.22274353776, -4547.037726287571, -187500.02235174447, -103072.94613992526, 12966.47047596818, -37089.68008633615, 0.6920000000000001, -0.75, 0.192, 192.0, 0.0, 0.0, 0.0, 0.0, 0.0, 0.0, 0.0, 0.0, 0.0, 1.663591068707441E9, 0.0, 2022-09-19 17:37:48.707
122.0, 22467.59354681892, 60050.107246650135, -38589.39273230943, -4519.1203974628925, -187500.02235174447, -102315.646686035, 13448.619955613609, -37103.71698185408, 0.6920000000000001, -0.75, 0.192, 192.0, 0.0, 0.0, 0.0, 0.0, 0.0, 0.0, 0.0, 0.0, 0.0, 1.6635910687104428E9, 0.0, 2022-09-19 17:37:48.710
123.0, 22838.81131873266, 60118.70475038347, -38604.34604935003, -4543.349688452446, -187500.02235174447, -101346.54210168625, 13514.736415712407, -37111.83066509136, 0.6920000000000001, -0.75, 0.192, 192.0, 0.0, 0.0, 0.0, 0.0, 0.0, 0.0, 0.0, 0.0, 0.0, 1.6635910687134387E9, 0.0, 2022-09-19 17:37:48.713
124.0, 22423.00181663058, 59859.15629376844, -38547.259694011176, -4609.354389828967, -187500.02235174447, -102002.99048459418, 12790.070508726896, -37081.16407169868, 0.6920000000000001, -0.75, 0.192, 192.0, 0.0, 0.0, 0.0, 0.0, 0.0, 0.0, 0.0, 0.0, 0.0, 1.6635910687174542E9, 0.0, 2022-09-19 17:37:48.717
125.0, 22028.337064783223, 59725.33639971452, -38552.087670813526, -4614.763511987151, -187500.02235174447, -102965.36719386188, 12634.725884762513, -37097.99493527352, 0.7000000000000001, -0.746, 0.202, 192.0, 21.0, 224.0, 232.0, 176.0, 6.0, 80.0, 0.0, 0.0, 0.0, 1.663591068721423E9, 0.0, 2022-09-19 17:37:48.721
126.0, 22070.17953040356, 59804.52863031968, -38541.76116487517, -4571.132906810392, -187500.02235174447, -103082.93736969678, 12955.316955484981, -37087.78018805745, 0.7000000000000001, -0.746, 0.202, 192.0, 0.0, 0.0, 0.0, 0.0, 0.0, 0.0, 0.0, 0.0, 0.0, 1.6635910687264345E9, 0.0, 2022-09-19 17:37:48.726
127.0, 22462.519700827565, 60014.992656110844, -38569.00794136619, -4533.760790081119, -187500.02235174447, -102364.19467499193, 13433.487824617367, -37112.16594125819, 0.7000000000000001, -0.746, 0.202, 192.0, 0.0, 0.0, 0.0, 0.0, 0.0, 0.0, 0.0, 0.0, 0.0, 1.6635910687304564E9, 0.0, 2022-09-19 17:37:48.730
128.0, 22857.027990463735, 60126.21493652045, -38607.07296217358, -4564.695604407264, -187500.02235174447, -101374.07945085519, 13528.929773441527, -37153.11433710031, 0.7000000000000001, -0.746, 0.202, 192.0, 0.0, 0.0, 0.0, 0.0, 0.0, 0.0, 0.0, 0.0, 0.0, 1.6635910687344656E9, 0.0, 2022-09-19 17:37:48.734
129.0, 22484.40205864931, 59907.704282725375, -38524.61737687795, -4610.851956707473, -187500.02235174447, -101976.39190869236, 12835.735122649088, -37100.967717286076, 0.7000000000000001, -0.746, 0.202, 192.0, 0.0, 0.0, 0.0, 0.0, 0.0, 0.0, 0.0, 0.0, 0.0, 1.663591068737486E9, 0.0, 2022-09-19 17:37:48.737
130.0, 22084.37288813268, 59802.964008207804, -38501.41626613334, -4583.828697661006, -187500.02235174447, -102966.52948457355, 12653.747219293979, -37084.29331592242, 0.7000000000000001, -0.746, 0.202, 192.0, 0.0, 0.0, 0.0, 0.0, 0.0, 0.0, 0.0, 0.0, 0.0, 1.6635910687414742E9, 0.0, 2022-09-19 17:37:48.741
131.0, 22108.780993077875, 59889.91229413895, -38531.032327536625, -4549.496418177655, -187500.02235174447, -103126.85854755147, 12933.814577318977, -37117.23978724954, 0.7000000000000001, -0.746, 0.202, 192.0, 0.0, 0.0, 0.0, 0.0, 0.0, 0.0, 0.0, 0.0, 0.0, 1.6635910687454848E9, 0.0, 2022-09-19 17:37:48.745
132.0, 22449.220412876657, 60067.161627669535, -38569.67849369985, -4544.3555169529345, -187500.02235174447, -102491.93489455401, 13397.4121090665, -37187.98305845059, 0.7000000000000001, -0.746, 0.202, 192.0, 0.0, 0.0, 0.0, 0.0, 0.0, 0.0, 0.0, 0.0, 0.0, 1.6635910687494795E9, 0.0, 2022-09-19 17:37:48.749
133.0, 22862.101836455087, 60193.71720477548, -38611.90093897592, -4557.5653979260205, -187500.02235174447, -101469.20847525698, 13538.049285179291, -37211.11711396183, 0.7000000000000001, -0.746, 0.202, 192.0, 0.0, 0.0, 0.0, 0.0, 0.0, 0.0, 0.0, 0.0, 0.0, 1.6635910687544775E9, 0.0, 2022-09-19 17:37:48.754
134.0, 22538.672094186797, 59997.804164624715, -38532.14991475939, -4592.456471020755, -187500.02235174447, -101964.12080098639, 12855.806989169954, -37131.67901416767, 0.7000000000000001, -0.746, 0.202, 192.0, 0.0, 0.0, 0.0, 0.0, 0.0, 0.0, 0.0, 0.0, 0.0, 1.6635910687584631E9, 0.0, 2022-09-19 17:37:48.758
135.0, 22114.48068791398, 59863.40312521495, -38479.9809432007, -4583.04638660507, -187500.02235174447, -102981.12517370287, 12662.017364742442, -37100.94536554162, 0.6880000000000001, -0.73, 0.20600000000000002, 192.0, 21.0, 128.0, 233.0, 48.0, 6.0, 112.0, 0.0, 0.0, 0.0, 1.6635910687625103E9, 0.0, 2022-09-19 17:37:48.762
136.0, 22129.65752239913, 59961.77315256276, -38496.40947537535, -4546.009546042627, -187500.02235174447, -103165.9517486038, 12967.319842257482, -37104.2087202321, 0.6880000000000001, -0.73, 0.20600000000000002, 192.0, 0.0, 0.0, 0.0, 0.0, 0.0, 0.0, 0.0, 0.0, 0.0, 1.663591068766497E9, 0.0, 2022-09-19 17:37:48.766
137.0, 22459.39045660382, 60155.160445590074, -38551.84180162451, -4533.760790081119, -187500.02235174447, -102572.95996820451, 13381.587073992143, -37139.63623519376, 0.6880000000000001, -0.73, 0.20600000000000002, 192.0, 0.0, 0.0, 0.0, 0.0, 0.0, 0.0, 0.0, 0.0, 0.0, 1.6635910687704728E9, 0.0, 2022-09-19 17:37:48.770
138.0, 22909.375775978064, 60303.75484272896, -38587.381075308454, -4561.700470650252, -187500.02235174447, -101502.37846402866, 13569.945224517016, -37185.12203516031, 0.6880000000000001, -0.73, 0.20600000000000002, 192.0, 0.0, 0.0, 0.0, 0.0, 0.0, 0.0, 0.0, 0.0, 0.0, 1.6635910687755127E9, 0.0, 2022-09-19 17:37:48.775
139.0, 22598.91004549385, 60080.12563945361, -38533.31220547107, -4639.708058799274, -187500.02235174447, -101925.22876563417, 12893.626140788334, -37154.9695318901, 0.6880000000000001, -0.73, 0.20600000000000002, 192.0, 0.0, 0.0, 0.0, 0.0, 0.0, 0.0, 0.0, 0.0, 0.0, 1.6635910687786376E9, 0.0, 2022-09-19 17:37:48.778
140.0, 22146.04135108487, 59916.846146207594, -38499.44931262128, -4636.131779686425, -187500.02235174447, -102975.8054585225, 12618.364407821227, -37125.085249553355, 0.6880000000000001, -0.73, 0.20600000000000002, 192.0, 0.0, 0.0, 0.0, 0.0, 0.0, 0.0, 0.0, 0.0, 0.0, 1.6635910687835E9, 0.0, 2022-09-19 17:37:48.783
141.0, 22135.893659102163, 59989.35520522061, -38512.659193594365, -4601.0618926360485, -187500.02235174447, -103207.32482759056, 12905.852545005388, -37146.94525563064, 0.6880000000000001, -0.73, 0.20600000000000002, 192.0, 0.0, 0.0, 0.0, 0.0, 0.0, 0.0, 0.0, 0.0, 0.0, 1.6635910687865393E9, 0.0, 2022-09-19 17:37:48.786
142.0, 22460.10571242639, 60170.694907986515, -38563.50941223019, -4564.695604407264, -187500.02235174447, -102649.93937610858, 13322.958448285872, -37178.416511823714, 0.6880000000000001, -0.73, 0.20600000000000002, 192.0, 0.0, 0.0, 0.0, 0.0, 0.0, 0.0, 0.0, 0.0, 0.0, 1.663591068791536E9, 0.0, 2022-09-19 17:37:48.791
