%OpenBCI Raw EEG Data
%Number of channels = 8
%Sample Rate = 250 Hz
%Board = OpenBCI_GUI$BoardCytonSerial
Sample Index, EXG Channel 0, EXG Channel 1, EXG Channel 2, EXG Channel 3, EXG Channel 4, EXG Channel 5, EXG Channel 6, EXG Channel 7, Accel Channel 0, Accel Channel 1, Accel Channel 2, Other, Other, Other, Other, Other, Other, Other, Analog Channel 0, Analog Channel 1, Analog Channel 2, Timestamp, Other, Timestamp (Formatted)
1.0, -46362.68125327602, -37557.88207744146, -50457.409078766, -43684.048197752025, -60765.67599364233, 187500.0, -39919.14271344456, -43608.52165323754, 0.0, 0.0, 0.0, 192.0, 0.0, 0.0, 0.0, 0.0, 0.0, 0.0, 0.0, 0.0, 0.0, 1.6635916909109378E9, 0.0, 2022-09-19 17:48:10.910
2.0, -46362.86006723167, -37553.076452383575, -50435.1020377996, -43687.3115524425, -60758.1881592498, 187500.0, -39879.17779435847, -43631.85687444888, 0.0, 0.0, 0.0, 192.0, 0.0, 0.0, 0.0, 0.0, 0.0, 0.0, 0.0, 0.0, 0.0, 1.6635916909109764E9, 0.0, 2022-09-19 17:48:10.910
0.0, 0.0, 0.0, 0.0, 0.0, 0.0, 0.0, 0.0, 0.0, 0.0, 0.0, 0.0, 192.0, 0.0, 0.0, 0.0, 0.0, 0.0, 0.0, 0.0, 0.0, 0.0, 1.6635916910119965E9, 0.0, 2022-09-19 17:48:11.011
1.0, -45473.99824547747, -37685.71170398137, -49140.64546115941, -43365.31232181934, -59923.5963730331, 187500.0, -39572.98124706522, -43055.986530302354, 0.768, -0.646, 0.21, 192.0, 24.0, 0.0, 235.0, 208.0, 6.0, 144.0, 0.0, 0.0, 0.0, 1.663591691029045E9, 0.0, 2022-09-19 17:48:11.029
2.0, -45447.19850387556, -37660.49893623578, -49108.41424565485, -43315.91496657312, -59866.62177641652, 187500.0, -39692.83130083457, -43008.15379716799, 0.768, -0.646, 0.21, 192.0, 0.0, 0.0, 0.0, 0.0, 0.0, 0.0, 0.0, 0.0, 0.0, 1.6635916910321145E9, 0.0, 2022-09-19 17:48:11.032
3.0, -45433.51923626891, -37647.33375875161, -49090.51049834615, -43322.061696298326, -59864.47600894881, 187500.0, -39591.10851181847, -43033.388916658034, 0.768, -0.646, 0.21, 192.0, 0.0, 0.0, 0.0, 0.0, 0.0, 0.0, 0.0, 0.0, 0.0, 1.6635916910361204E9, 0.0, 2022-09-19 17:48:11.036
4.0, -45433.49688452445, -37652.31819776514, -49081.815669753036, -43357.44450777108, -59894.695567452385, 187500.0, -39407.86891077387, -43088.508318484826, 0.768, -0.646, 0.21, 192.0, 0.0, 0.0, 0.0, 0.0, 0.0, 0.0, 0.0, 0.0, 0.0, 1.663591691040098E9, 0.0, 2022-09-19 17:48:11.040
5.0, -45461.43656509359, -37681.24135509031, -49121.06533301656, -43397.074150690336, -59940.36018137458, 187500.0, -39320.54064518698, -43124.02524042431, 0.768, -0.646, 0.21, 192.0, 0.0, 0.0, 0.0, 0.0, 0.0, 0.0, 0.0, 0.0, 0.0, 1.6635916910431156E9, 0.0, 2022-09-19 17:48:11.043
6.0, -45481.93311475911, -37693.02072441825, -49145.719307150765, -43365.602894497264, -59919.081320653124, 187500.0, -39586.5934594385, -43056.88060008056, 0.768, -0.646, 0.21, 192.0, 0.0, 0.0, 0.0, 0.0, 0.0, 0.0, 0.0, 0.0, 0.0, 1.66359169104712E9, 0.0, 2022-09-19 17:48:11.047
7.0, -45456.2286086355, -37665.908058393965, -49109.48712938871, -43322.88871084317, -59874.15431429796, 187500.0, -39703.33662072857, -43017.07214320566, 0.768, -0.646, 0.21, 192.0, 0.0, 0.0, 0.0, 0.0, 0.0, 0.0, 0.0, 0.0, 0.0, 1.6635916910511105E9, 0.0, 2022-09-19 17:48:11.051
8.0, -45434.81563744732, -37649.21130528585, -49090.37638787942, -43327.11319054523, -59882.379756257506, 187500.0, -39604.564261980566, -43037.30047193771, 0.768, -0.64, 0.216, 192.0, 24.0, 0.0, 236.0, 0.0, 6.0, 192.0, 0.0, 0.0, 0.0, 1.6635916910551748E9, 0.0, 2022-09-19 17:48:11.055
9.0, -45428.95948040003, -37649.054843074664, -49092.54450709159, -43356.23751357049, -59921.540012543206, 187500.0, -39418.48598939014, -43090.07294059669, 0.768, -0.64, 0.216, 192.0, 0.0, 0.0, 0.0, 0.0, 0.0, 0.0, 0.0, 0.0, 0.0, 1.6635916910591044E9, 0.0, 2022-09-19 17:48:11.059
10.0, -45450.84183822177, -37670.19959332938, -49128.82138834255, -43388.17815639712, -59959.090943228126, 187500.0, -39346.84864841088, -43122.63943226808, 0.768, -0.64, 0.216, 192.0, 0.0, 0.0, 0.0, 0.0, 0.0, 0.0, 0.0, 0.0, 0.0, 1.6635916910631115E9, 0.0, 2022-09-19 17:48:11.063
11.0, -45470.84664950927, -37680.41434054546, -49143.618243171964, -43349.62139721172, -59927.86555622406, 187500.0, -39625.060811646086, -43046.64350112004, 0.768, -0.64, 0.216, 192.0, 0.0, 0.0, 0.0, 0.0, 0.0, 0.0, 0.0, 0.0, 0.0, 1.663591691067176E9, 0.0, 2022-09-19 17:48:11.067
12.0, -45445.29860559686, -37654.933351866406, -49107.43076889882, -43306.21430947952, -59878.17762829991, 187500.0, -39725.44249599487, -43004.51046282178, 0.768, -0.64, 0.216, 192.0, 0.0, 0.0, 0.0, 0.0, 0.0, 0.0, 0.0, 0.0, 0.0, 1.6635916910712E9, 0.0, 2022-09-19 17:48:11.071
13.0, -45429.94295715606, -37640.42706971491, -49091.91865824684, -43316.71962937351, -59879.161105055944, 187500.0, -39613.19203534032, -43030.99728000132, 0.768, -0.64, 0.216, 192.0, 0.0, 0.0, 0.0, 0.0, 0.0, 0.0, 0.0, 0.0, 0.0, 1.663591691075133E9, 0.0, 2022-09-19 17:48:11.075
14.0, -45427.28309956588, -37640.29295924818, -49092.25393441367, -43357.28804555989, -59910.408843804464, 187500.0, -39408.71827706317, -43087.25662079533, 0.768, -0.64, 0.216, 192.0, 0.0, 0.0, 0.0, 0.0, 0.0, 0.0, 0.0, 0.0, 0.0, 1.663591691080182E9, 0.0, 2022-09-19 17:48:11.080
15.0, -45456.586236546784, -37672.72534045283, -49134.92341457885, -43393.58727855531, -59954.10650421459, 187500.0, -39355.3870147928, -43116.76092347633, 0.768, -0.64, 0.216, 192.0, 0.0, 0.0, 0.0, 0.0, 0.0, 0.0, 0.0, 0.0, 0.0, 1.6635916910832129E9, 0.0, 2022-09-19 17:48:11.083
16.0, -45470.04198670888, -37677.709779466364, -49151.798981642605, -43349.37552802271, -59924.557498044676, 187500.0, -39633.912102450384, -43040.116791739085, 0.768, -0.64, 0.216, 192.0, 0.0, 0.0, 0.0, 0.0, 0.0, 0.0, 0.0, 0.0, 0.0, 1.663591691087166E9, 0.0, 2022-09-19 17:48:11.087
17.0, -45443.91279744063, -37651.78175589821, -49116.95261203678, -43312.070466526806, -59886.04544234818, 187500.0, -39715.96535634582, -43009.09257043512, 0.768, -0.64, 0.216, 192.0, 0.0, 0.0, 0.0, 0.0, 0.0, 0.0, 0.0, 0.0, 0.0, 1.6635916910912137E9, 0.0, 2022-09-19 17:48:11.091
18.0, -45430.859378678724, -37641.87993310451, -49103.966248508244, -43322.86635909872, -59899.97057914384, 187500.0, -39604.16193058037, -43039.7591638278, 0.77, -0.634, 0.216, 192.0, 24.0, 16.0, 236.0, 48.0, 6.0, 192.0, 0.0, 0.0, 0.0, 1.6635916910952835E9, 0.0, 2022-09-19 17:48:11.095
19.0, -45429.13829435567, -37642.617540671534, -49097.46189087175, -43356.326920548316, -59934.72754177184, 187500.0, -39397.005962968586, -43093.89508889856, 0.77, -0.634, 0.216, 192.0, 0.0, 0.0, 0.0, 0.0, 0.0, 0.0, 0.0, 0.0, 0.0, 1.6635916910992675E9, 0.0, 2022-09-19 17:48:11.099
20.0, -45451.87001846672, -37665.50572699377, -49132.91175757787, -43385.78651974041, -59973.39605967952, 187500.0, -39349.93318914571, -43118.77258047731, 0.77, -0.634, 0.216, 192.0, 0.0, 0.0, 0.0, 0.0, 0.0, 0.0, 0.0, 0.0, 0.0, 1.6635916911032453E9, 0.0, 2022-09-19 17:48:11.103
21.0, -45468.74558553047, -37671.11601485205, -49150.055545575095, -43348.32499603331, -59938.81791100716, 187500.0, -39633.576826283555, -43052.633768634056, 0.77, -0.634, 0.216, 192.0, 0.0, 0.0, 0.0, 0.0, 0.0, 0.0, 0.0, 0.0, 0.0, 1.6635916911082113E9, 0.0, 2022-09-19 17:48:11.108
22.0, -45445.14214338567, -37656.185049555905, -49112.12463523443, -43320.89940558665, -59896.05902386416, 187500.0, -39699.69328638235, -43029.834989289644, 0.77, -0.634, 0.216, 192.0, 0.0, 0.0, 0.0, 0.0, 0.0, 0.0, 0.0, 0.0, 0.0, 1.6635916911112542E9, 0.0, 2022-09-19 17:48:11.111
23.0, -45422.902157652636, -37679.87789867853, -49093.48328035871, -43329.30366150185, -59902.69749196738, 187500.0, -39581.81018612506, -43047.20229473142, 0.77, -0.634, 0.216, 192.0, 0.0, 0.0, 0.0, 0.0, 0.0, 0.0, 0.0, 0.0, 0.0, 1.6635916911152515E9, 0.0, 2022-09-19 17:48:11.115
24.0, -45441.45410555054, -37716.40064911851, -49102.24516418519, -43369.82737419932, -59945.523434343755, 187500.0, -39388.31113437547, -43105.65210648205, 0.77, -0.634, 0.216, 192.0, 0.0, 0.0, 0.0, 0.0, 0.0, 0.0, 0.0, 0.0, 0.0, 1.6635916911192627E9, 0.0, 2022-09-19 17:48:11.119
25.0, -45442.70580324004, -37746.88842855554, -49140.98073732624, -43395.30836287837, -59985.73422261885, 187500.0, -39365.065320141955, -43123.73466774639, 0.77, -0.634, 0.216, 192.0, 0.0, 0.0, 0.0, 0.0, 0.0, 0.0, 0.0, 0.0, 0.0, 1.6635916911232564E9, 0.0, 2022-09-19 17:48:11.123
26.0, -45451.199466133054, -37750.844687324134, -49149.20617928579, -43346.20158031006, -59945.63519306603, 187500.0, -39643.03161418815, -43040.13914348354, 0.77, -0.634, 0.216, 192.0, 0.0, 0.0, 0.0, 0.0, 0.0, 0.0, 0.0, 0.0, 0.0, 1.663591691127294E9, 0.0, 2022-09-19 17:48:11.127
27.0, -45424.80205593134, -37721.67566080995, -49105.508518875664, -43305.94608854605, -59902.138698356, 187500.0, -39689.59029788856, -43010.5007303358, 0.77, -0.634, 0.216, 192.0, 0.0, 0.0, 0.0, 0.0, 0.0, 0.0, 0.0, 0.0, 0.0, 1.6635916911313004E9, 0.0, 2022-09-19 17:48:11.131
28.0, -45413.58148021477, -37712.064410694176, -49091.896306502385, -43314.5738619058, -59904.4409280349, 187500.0, -39568.77911910762, -43038.84274230513, 0.776, -0.636, 0.218, 192.0, 24.0, 64.0, 236.0, 32.0, 6.0, 208.0, 0.0, 0.0, 0.0, 1.6635916911362665E9, 0.0, 2022-09-19 17:48:11.136
29.0, -45418.67767795059, -37734.01382374929, -49104.16741420834, -43360.90902816165, -59943.422370364955, 187500.0, -39364.52887827503, -43104.020429136806, 0.776, -0.636, 0.218, 192.0, 0.0, 0.0, 0.0, 0.0, 0.0, 0.0, 0.0, 0.0, 0.0, 1.6635916911392884E9, 0.0, 2022-09-19 17:48:11.139
30.0, -45451.020652177416, -37768.27904799927, -49154.3023770216, -43396.40359835668, -59983.83432434015, 187500.0, -39369.71448298865, -43125.63456602509, 0.776, -0.636, 0.218, 192.0, 0.0, 0.0, 0.0, 0.0, 0.0, 0.0, 0.0, 0.0, 0.0, 1.663591691143253E9, 0.0, 2022-09-19 17:48:11.143
31.0, -45451.71355625553, -37755.605608893115, -49153.16243805438, -43349.68845244509, -59940.069608696656, 187500.0, -39650.69826253632, -43049.50452441032, 0.776, -0.636, 0.218, 192.0, 0.0, 0.0, 0.0, 0.0, 0.0, 0.0, 0.0, 0.0, 0.0, 1.663591691147456E9, 0.0, 2022-09-19 17:48:11.147
32.0, -45433.42982929109, -37727.218893434874, -49110.9399927783, -43318.88774858567, -59900.19409658839, 187500.0, -39685.54463214215, -43024.403515387006, 0.776, -0.636, 0.218, 192.0, 0.0, 0.0, 0.0, 0.0, 0.0, 0.0, 0.0, 0.0, 0.0, 1.6635916911512868E9, 0.0, 2022-09-19 17:48:11.151
33.0, -45420.242300062455, -37718.412306119484, -49097.685408316305, -43331.650594669656, -59906.27377108023, 187500.0, -39564.39817719438, -43052.94669305643, 0.776, -0.636, 0.218, 192.0, 0.0, 0.0, 0.0, 0.0, 0.0, 0.0, 0.0, 0.0, 0.0, 1.6635916911552775E9, 0.0, 2022-09-19 17:48:11.155
34.0, -45431.95461415704, -37738.819448807175, -49106.96138226526, -43379.01394117045, -59943.95881223188, 187500.0, -39361.33257881791, -43120.98540317838, 0.776, -0.636, 0.218, 192.0, 0.0, 0.0, 0.0, 0.0, 0.0, 0.0, 0.0, 0.0, 0.0, 1.6635916911593175E9, 0.0, 2022-09-19 17:48:11.159
35.0, -45468.32090238582, -37768.547268932736, -49151.19548454231, -43400.426912358635, -59974.29012945773, 187500.0, -39380.66683777176, -43126.88626371459, 0.776, -0.636, 0.218, 192.0, 0.0, 0.0, 0.0, 0.0, 0.0, 0.0, 0.0, 0.0, 0.0, 1.6635916911633103E9, 0.0, 2022-09-19 17:48:11.163
36.0, -45492.594896864284, -37776.28097251427, -49157.96806311227, -43349.733155933995, -59931.039503936714, 187500.0, -39664.824565032075, -43047.47051566488, 0.776, -0.636, 0.218, 192.0, 0.0, 0.0, 0.0, 0.0, 0.0, 0.0, 0.0, 0.0, 0.0, 1.663591691167306E9, 0.0, 2022-09-19 17:48:11.167
37.0, -45468.075033196816, -37765.596838664635, -49120.79711208309, -43324.76625737742, -59899.031805876715, 187500.0, -39694.2171089908, -43031.578425357155, 0.776, -0.636, 0.218, 192.0, 0.0, 0.0, 0.0, 0.0, 0.0, 0.0, 0.0, 0.0, 0.0, 1.663591691170352E9, 0.0, 2022-09-19 17:48:11.170
38.0, -45416.59896571624, -37726.19071318993, -49100.904059517874, -43330.06362081333, -59903.47980302332, 187500.0, -39557.91617130234, -43059.339291970646, 0.78, -0.636, 0.22, 192.0, 24.0, 96.0, 236.0, 32.0, 6.0, 224.0, 0.0, 0.0, 0.0, 1.6635916911753254E9, 0.0, 2022-09-19 17:48:11.175
39.0, -45413.62618370369, -37724.17905618895, -49107.20725145427, -43372.39782481168, -59944.450550609894, 187500.0, -39352.54834324698, -43117.43147580999, 0.78, -0.636, 0.22, 192.0, 0.0, 0.0, 0.0, 0.0, 0.0, 0.0, 0.0, 0.0, 0.0, 1.6635916911793551E9, 0.0, 2022-09-19 17:48:11.179
40.0, -45446.751468986455, -37754.01863503679, -49150.882560119935, -43394.43664484461, -59975.16184749149, 187500.0, -39397.81062576898, -43121.2312723674, 0.78, -0.636, 0.22, 192.0, 0.0, 0.0, 0.0, 0.0, 0.0, 0.0, 0.0, 0.0, 0.0, 1.6635916911833503E9, 0.0, 2022-09-19 17:48:11.183
41.0, -45450.75243124395, -37750.82233557968, -49155.68818517783, -43345.37456576521, -59927.95496320188, 187500.0, -39678.4144256609, -43042.910759795996, 0.78, -0.636, 0.22, 192.0, 0.0, 0.0, 0.0, 0.0, 0.0, 0.0, 0.0, 0.0, 0.0, 1.6635916911873217E9, 0.0, 2022-09-19 17:48:11.187
42.0, -45420.6222797182, -37731.13044871455, -49111.5434898786, -43320.85470209774, -59891.43221276191, 187500.0, -39679.8672890505, -43028.98562300034, 0.78, -0.636, 0.22, 192.0, 0.0, 0.0, 0.0, 0.0, 0.0, 0.0, 0.0, 0.0, 0.0, 1.6635916911923687E9, 0.0, 2022-09-19 17:48:11.192
43.0, -45416.66602094961, -37712.13146592754, -49102.2898676741, -43336.70208891655, -59898.115384354045, 187500.0, -39547.164982219336, -43059.272236737284, 0.78, -0.636, 0.22, 192.0, 0.0, 0.0, 0.0, 0.0, 0.0, 0.0, 0.0, 0.0, 0.0, 1.6635916911953914E9, 0.0, 2022-09-19 17:48:11.195
44.0, -45426.61254723222, -37726.32482365666, -49114.65038235788, -43382.63492377221, -59936.560384817174, 187500.0, -39341.2383605526, -43123.60055727966, 0.78, -0.636, 0.22, 192.0, 0.0, 0.0, 0.0, 0.0, 0.0, 0.0, 0.0, 0.0, 0.0, 1.6635916911984034E9, 0.0, 2022-09-19 17:48:11.198
45.0, -45465.86221049574, -37768.34610323264, -49163.64540620392, -43405.76897928345, -59963.87421654156, 187500.0, -39412.518073620566, -43127.80268523726, 0.78, -0.636, 0.22, 192.0, 0.0, 0.0, 0.0, 0.0, 0.0, 0.0, 0.0, 0.0, 0.0, 1.6635916912033637E9, 0.0, 2022-09-19 17:48:11.203
46.0, -45460.229570893, -37763.18285026346, -49161.14201082492, -43354.5834844808, -59911.414672304956, 187500.0, -39684.49410015275, -43049.92920755497, 0.78, -0.636, 0.22, 192.0, 0.0, 0.0, 0.0, 0.0, 0.0, 0.0, 0.0, 0.0, 0.0, 1.6635916912073755E9, 0.0, 2022-09-19 17:48:11.207
47.0, -45430.36764030071, -37734.68437608294, -49121.49001616121, -43334.04223132637, -59879.33991901159, 187500.0, -39672.580620358065, -43044.11775399659, 0.78, -0.636, 0.22, 192.0, 0.0, 0.0, 0.0, 0.0, 0.0, 0.0, 0.0, 0.0, 0.0, 1.6635916912113445E9, 0.0, 2022-09-19 17:48:11.211
48.0, -45416.8671866497, -37726.81656203468, -49107.16254796536, -43351.85657165725, -59893.913256396445, 187500.0, -39530.06589771103, -43082.18277480397, 0.776, -0.634, 0.232, 192.0, 24.0, 64.0, 236.0, 48.0, 7.0, 64.0, 0.0, 0.0, 0.0, 1.663591691215372E9, 0.0, 2022-09-19 17:48:11.215
49.0, -45422.79039893036, -37741.814582564184, -49115.85737655847, -43391.93324946562, -59935.35339061659, 187500.0, -39326.821485378925, -43137.12336267512, 0.776, -0.634, 0.232, 192.0, 0.0, 0.0, 0.0, 0.0, 0.0, 0.0, 0.0, 0.0, 0.0, 1.6635916912194223E9, 0.0, 2022-09-19 17:48:11.219
50.0, -45456.65329178015, -37771.609457923114, -49162.93015038135, -43406.55129033939, -59964.96945201987, 187500.0, -39438.80372510001, -43130.90957771654, 0.776, -0.634, 0.232, 192.0, 0.0, 0.0, 0.0, 0.0, 0.0, 0.0, 0.0, 0.0, 0.0, 1.663591691223419E9, 0.0, 2022-09-19 17:48:11.223
51.0, -45449.72425099901, -37758.19841124993, -49151.10607756449, -43350.26959780093, -59914.052178150676, 187500.0, -39703.04604805065, -43053.95252155692, 0.776, -0.634, 0.232, 192.0, 0.0, 0.0, 0.0, 0.0, 0.0, 0.0, 0.0, 0.0, 0.0, 1.663591691226418E9, 0.0, 2022-09-19 17:48:11.226
52.0, -45428.355983299734, -37732.94094001543, -49117.48905390371, -43327.71668764552, -59890.42638426142, 187500.0, -39673.60880060301, -43043.44720166292, 0.776, -0.634, 0.232, 192.0, 0.0, 0.0, 0.0, 0.0, 0.0, 0.0, 0.0, 0.0, 0.0, 1.6635916912314408E9, 0.0, 2022-09-19 17:48:11.231
53.0, -45408.440578990056, -37732.78447780424, -49102.781606052115, -43344.52519947591, -59906.497288524784, 187500.0, -39531.87638901191, -43074.96316134491, 0.776, -0.634, 0.232, 192.0, 0.0, 0.0, 0.0, 0.0, 0.0, 0.0, 0.0, 0.0, 0.0, 1.6635916912354712E9, 0.0, 2022-09-19 17:48:11.235
54.0, -45418.34240178375, -37747.84955356712, -49111.56584162305, -43386.41236858516, -59945.70224829939, 187500.0, -39335.40455524976, -43137.503342330856, 0.776, -0.634, 0.232, 192.0, 0.0, 0.0, 0.0, 0.0, 0.0, 0.0, 0.0, 0.0, 0.0, 1.6635916912394783E9, 0.0, 2022-09-19 17:48:11.239
55.0, -45459.961349959536, -37776.638600425555, -49156.425792744856, -43391.620325043245, -59964.00832700829, 187500.0, -39447.45385020421, -43116.671516498514, 0.776, -0.634, 0.232, 192.0, 0.0, 0.0, 0.0, 0.0, 0.0, 0.0, 0.0, 0.0, 0.0, 1.663591691243526E9, 0.0, 2022-09-19 17:48:11.243
56.0, -45457.6814720251, -37761.30530372921, -49137.80678961358, -43336.56797844982, -59914.275695595235, 187500.0, -39700.117969527004, -43036.56286437069, 0.776, -0.634, 0.232, 192.0, 0.0, 0.0, 0.0, 0.0, 0.0, 0.0, 0.0, 0.0, 0.0, 1.6635916912475295E9, 0.0, 2022-09-19 17:48:11.247
57.0, -45406.45127373353, -37730.39284114753, -49094.51146060365, -43317.47958868499, -59889.39820401648, 187500.0, -39663.6622743204, -43031.734887568346, 0.776, -0.634, 0.232, 192.0, 0.0, 0.0, 0.0, 0.0, 0.0, 0.0, 0.0, 0.0, 0.0, 1.6635916912515304E9, 0.0, 2022-09-19 17:48:11.251
58.0, -45399.32106725229, -37725.29664341172, -49086.487184344194, -43337.61851043922, -59906.94432341389, 187500.0, -39521.661641795836, -43071.61039967661, 0.768, -0.636, 0.226, 192.0, 24.0, 0.0, 236.0, 32.0, 7.0, 16.0, 0.0, 0.0, 0.0, 1.663591691254531E9, 0.0, 2022-09-19 17:48:11.254
59.0, -45412.84387264775, -37744.54149538773, -49107.1401962209, -43388.2899151194, -59959.18035020594, 187500.0, -39326.50856095655, -43137.19041790848, 0.768, -0.636, 0.226, 192.0, 0.0, 0.0, 0.0, 0.0, 0.0, 0.0, 0.0, 0.0, 0.0, 1.6635916912584445E9, 0.0, 2022-09-19 17:48:11.258
60.0, -45440.80590496134, -37769.55309743322, -49149.139124052424, -43394.1907756556, -59975.497123658315, 187500.0, -39458.13798405385, -43113.69873448595, 0.768, -0.636, 0.226, 192.0, 0.0, 0.0, 0.0, 0.0, 0.0, 0.0, 0.0, 0.0, 0.0, 1.6635916912635674E9, 0.0, 2022-09-19 17:48:11.263
61.0, -45442.86226545123, -37760.56769616219, -49131.525949421644, -43341.46301048553, -59918.36606483055, 187500.0, -39707.62815566399, -43039.33448068315, 0.768, -0.636, 0.226, 192.0, 0.0, 0.0, 0.0, 0.0, 0.0, 0.0, 0.0, 0.0, 0.0, 1.6635916912674856E9, 0.0, 2022-09-19 17:48:11.267
62.0, -45426.16551234311, -37740.18290521895, -49097.77481529413, -43330.10832430224, -59892.97448312933, 187500.0, -39666.992684244244, -43046.41998367548, 0.768, -0.636, 0.226, 192.0, 0.0, 0.0, 0.0, 0.0, 0.0, 0.0, 0.0, 0.0, 0.0, 1.6635916912714868E9, 0.0, 2022-09-19 17:48:11.271
63.0, -45400.4163027306, -37730.7057655699, -49092.20923092476, -43347.20740881055, -59906.653750735975, 187500.0, -39516.16311265983, -43084.57441146069, 0.768, -0.636, 0.226, 192.0, 0.0, 0.0, 0.0, 0.0, 0.0, 0.0, 0.0, 0.0, 0.0, 1.663591691275491E9, 0.0, 2022-09-19 17:48:11.275
64.0, -45407.658267934115, -37745.99435877733, -49099.96528625075, -43391.37445585423, -59948.943251245415, 187500.0, -39324.8321801224, -43144.54414183428, 0.768, -0.636, 0.226, 192.0, 0.0, 0.0, 0.0, 0.0, 0.0, 0.0, 0.0, 0.0, 0.0, 1.663591691279546E9, 0.0, 2022-09-19 17:48:11.279
65.0, -45429.831198433785, -37766.66972239849, -49157.99041485672, -43385.80887148486, -59959.78384730624, 187500.0, -39462.720091667186, -43111.687077484974, 0.768, -0.636, 0.226, 192.0, 0.0, 0.0, 0.0, 0.0, 0.0, 0.0, 0.0, 0.0, 0.0, 1.6635916912826023E9, 0.0, 2022-09-19 17:48:11.282
66.0, -45423.23743381947, -37747.04489076673, -49117.86903355945, -43325.45916145553, -59905.2902943242, 187500.0, -39698.39688520395, -43038.55216962721, 0.768, -0.636, 0.226, 192.0, 0.0, 0.0, 0.0, 0.0, 0.0, 0.0, 0.0, 0.0, 0.0, 1.6635916912865992E9, 0.0, 2022-09-19 17:48:11.286
67.0, -45400.72922715297, -37724.82725677815, -49072.22677138171, -43307.8236350803, -59890.96282612835, 187500.0, -39662.54468709764, -43039.826219061164, 0.768, -0.636, 0.226, 192.0, 0.0, 0.0, 0.0, 0.0, 0.0, 0.0, 0.0, 0.0, 0.0, 1.6635916912915175E9, 0.0, 2022-09-19 17:48:11.291
68.0, -45398.784625385364, -37727.73298355735, -49067.57760853501, -43331.360021991735, -59917.24847760779, 187500.0, -39516.56544406003, -43082.830975393175, 0.764, -0.644, 0.218, 192.0, 23.0, 224.0, 235.0, 224.0, 6.0, 208.0, 0.0, 0.0, 0.0, 1.663591691295506E9, 0.0, 2022-09-19 17:48:11.295
69.0, -45416.57661397179, -37749.01184427879, -49087.00127446667, -43378.3880923257, -59965.640004353525, 187500.0, -39337.12563957282, -43141.63841505509, 0.764, -0.644, 0.218, 192.0, 0.0, 0.0, 0.0, 0.0, 0.0, 0.0, 0.0, 0.0, 0.0, 1.6635916912995815E9, 0.0, 2022-09-19 17:48:11.299
70.0, -45448.629015520695, -37771.09536780064, -49128.10613251998, -43371.146127122185, -59973.53017014625, 187500.0, -39509.18936838977, -43103.05930412523, 0.764, -0.644, 0.218, 192.0, 0.0, 0.0, 0.0, 0.0, 0.0, 0.0, 0.0, 0.0, 0.0, 1.66359169130361E9, 0.0, 2022-09-19 17:48:11.303
71.0, -45435.59794850325, -37752.14108850254, -49104.457986886264, -43314.12682701669, -59919.640114264505, 187500.0, -39731.99155712027, -43031.9584050129, 0.764, -0.644, 0.218, 192.0, 0.0, 0.0, 0.0, 0.0, 0.0, 0.0, 0.0, 0.0, 0.0, 1.6635916913075755E9, 0.0, 2022-09-19 17:48:11.307
72.0, -45407.591212700754, -37729.8563992806, -49072.60675103745, -43303.28623095587, -59905.111480368556, 187500.0, -39668.22203018928, -43037.97102427138, 0.764, -0.644, 0.218, 192.0, 0.0, 0.0, 0.0, 0.0, 0.0, 0.0, 0.0, 0.0, 0.0, 1.6635916913106008E9, 0.0, 2022-09-19 17:48:11.310
73.0, -45397.376465484675, -37730.52695161426, -49065.29773060056, -43328.61075742373, -59930.1454341585, 187500.0, -39505.76955148811, -43079.45586198042, 0.764, -0.644, 0.218, 192.0, 0.0, 0.0, 0.0, 0.0, 0.0, 0.0, 0.0, 0.0, 0.0, 1.663591691314556E9, 0.0, 2022-09-19 17:48:11.314
74.0, -45408.999372601436, -37754.33155945916, -49091.404568124366, -43375.66117950215, -59982.47086792837, 187500.0, -39326.039174322985, -43140.18555166549, 0.764, -0.644, 0.218, 192.0, 0.0, 0.0, 0.0, 0.0, 0.0, 0.0, 0.0, 0.0, 0.0, 1.6635916913196428E9, 0.0, 2022-09-19 17:48:11.319
75.0, -45440.738849727975, -37770.693036400444, -49135.83983610151, -43371.03436839991, -59994.00436806731, 187500.0, -39511.49159806867, -43105.09331287066, 0.764, -0.644, 0.218, 192.0, 0.0, 0.0, 0.0, 0.0, 0.0, 0.0, 0.0, 0.0, 0.0, 1.6635916913235729E9, 0.0, 2022-09-19 17:48:11.323
76.0, -45439.66596599412, -37751.02350127977, -49118.56193763756, -43320.25120499745, -59939.1978906629, 187500.0, -39719.42987673639, -43039.557998127704, 0.764, -0.644, 0.218, 192.0, 0.0, 0.0, 0.0, 0.0, 0.0, 0.0, 0.0, 0.0, 0.0, 1.663591691327698E9, 0.0, 2022-09-19 17:48:11.327
77.0, -45409.91579412411, -37731.21985569237, -49089.14704193438, -43314.19388225006, -59924.93747770041, 187500.0, -39650.25122764721, -43049.77274534378, 0.764, -0.644, 0.218, 192.0, 0.0, 0.0, 0.0, 0.0, 0.0, 0.0, 0.0, 0.0, 0.0, 1.663591691331606E9, 0.0, 2022-09-19 17:48:11.331
78.0, -45387.094663035234, -37724.51433235578, -49078.75348076266, -43333.036402825885, -59935.12987317203, 187500.0, -39477.09226335195, -43083.07684458218, 0.764, -0.644, 0.218, 192.0, 0.0, 0.0, 0.0, 0.0, 0.0, 0.0, 0.0, 0.0, 0.0, 1.6635916913356633E9, 0.0, 2022-09-19 17:48:11.335
79.0, -45398.53875619635, -37729.83404753614, -49103.563917108055, -43374.074205645826, -59978.69342311543, 187500.0, -39310.370601459814, -43134.217635895926, 0.77, -0.65, 0.22, 192.0, 24.0, 16.0, 235.0, 176.0, 6.0, 224.0, 0.0, 0.0, 0.0, 1.6635916913386993E9, 0.0, 2022-09-19 17:48:11.338
80.0, -45436.64848049265, -37751.22466697987, -49144.311147250075, -43363.45712702956, -59979.38632719354, 187500.0, -39520.09701968396, -43089.49179524086, 0.77, -0.65, 0.22, 192.0, 0.0, 0.0, 0.0, 0.0, 0.0, 0.0, 0.0, 0.0, 0.0, 1.663591691342697E9, 0.0, 2022-09-19 17:48:11.342
81.0, -45437.11786712622, -37738.1041929846, -49121.13238824993, -43316.92079507361, -59923.88694571101, 187500.0, -39718.26758602472, -43030.57259685667, 0.77, -0.65, 0.22, 192.0, 0.0, 0.0, 0.0, 0.0, 0.0, 0.0, 0.0, 0.0, 0.0, 1.6635916913476624E9, 0.0, 2022-09-19 17:48:11.347
82.0, -45415.52608198239, -37720.155742186995, -49089.90700124586, -43313.03159153838, -59910.364140315556, 187500.0, -39639.298872864114, -43044.94476854143, 0.77, -0.65, 0.22, 192.0, 0.0, 0.0, 0.0, 0.0, 0.0, 0.0, 0.0, 0.0, 0.0, 1.6635916913516932E9, 0.0, 2022-09-19 17:48:11.351
83.0, -45386.37940721267, -37714.59015781763, -49082.2850563866, -43338.5796354508, -59928.29023936871, 187500.0, -39463.05536783402, -43089.603553963134, 0.77, -0.65, 0.22, 192.0, 0.0, 0.0, 0.0, 0.0, 0.0, 0.0, 0.0, 0.0, 0.0, 1.663591691355677E9, 0.0, 2022-09-19 17:48:11.355
84.0, -45402.1150353092, -37739.78057381875, -49111.00704801167, -43388.334618608314, -59978.805181837706, 187500.0, -39310.75058111556, -43143.717127289434, 0.77, -0.65, 0.22, 192.0, 0.0, 0.0, 0.0, 0.0, 0.0, 0.0, 0.0, 0.0, 0.0, 1.66359169135964E9, 0.0, 2022-09-19 17:48:11.359
85.0, -45432.64751823515, -37761.77469036278, -49149.49675196371, -43369.42504279912, -59975.58653063614, 187500.0, -39520.253481895146, -43089.335333029674, 0.77, -0.65, 0.22, 192.0, 0.0, 0.0, 0.0, 0.0, 0.0, 0.0, 0.0, 0.0, 0.0, 1.6635916913627286E9, 0.0, 2022-09-19 17:48:11.362
86.0, -45415.704895938026, -37740.54053313023, -49121.467664416756, -43317.01020205143, -59917.963733430355, 187500.0, -39697.65927763692, -43027.21983518837, 0.77, -0.65, 0.22, 192.0, 0.0, 0.0, 0.0, 0.0, 0.0, 0.0, 0.0, 0.0, 0.0, 1.6635916913666828E9, 0.0, 2022-09-19 17:48:11.366
87.0, -45394.91777359459, -37721.2509776653, -49088.92352448982, -43316.22789099549, -59906.45258503588, 187500.0, -39625.64195700192, -43042.62018711808, 0.77, -0.65, 0.22, 192.0, 0.0, 0.0, 0.0, 0.0, 0.0, 0.0, 0.0, 0.0, 0.0, 1.6635916913707728E9, 0.0, 2022-09-19 17:48:11.370
88.0, -45396.214174773, -37726.7048033124, -49082.597980808976, -43350.24724605647, -59933.274678382244, 187500.0, -39455.656940419314, -43093.09042609816, 0.77, -0.65, 0.22, 192.0, 0.0, 0.0, 0.0, 0.0, 0.0, 0.0, 0.0, 0.0, 0.0, 1.6635916913747423E9, 0.0, 2022-09-19 17:48:11.374
89.0, -45421.158721585125, -37753.795117592235, -49118.40547542638, -43398.70582803558, -59990.7633651213, 187500.0, -39317.523159685516, -43147.91925524703, 0.764, -0.636, 0.222, 192.0, 23.0, 224.0, 236.0, 32.0, 6.0, 240.0, 0.0, 0.0, 0.0, 1.663591691379729E9, 0.0, 2022-09-19 17:48:11.379
90.0, -45444.73981198548, -37768.457861954914, -49153.94474911031, -43377.359912080756, -59985.153077263014, 187500.0, -39554.853982311965, -43092.397522020045, 0.764, -0.636, 0.222, 192.0, 0.0, 0.0, 0.0, 0.0, 0.0, 0.0, 0.0, 0.0, 0.0, 1.6635916913837214E9, 0.0, 2022-09-19 17:48:11.383
91.0, -45418.58827097277, -37741.14403023053, -49120.64064987191, -43324.83331261078, -59929.921916713945, 187500.0, -39713.81958887811, -43034.55120736971, 0.764, -0.636, 0.222, 192.0, 0.0, 0.0, 0.0, 0.0, 0.0, 0.0, 0.0, 0.0, 0.0, 1.663591691387751E9, 0.0, 2022-09-19 17:48:11.387
92.0, -45392.52613693788, -37715.752448529296, -49091.06929195754, -43316.36200146222, -59921.85293696558, 187500.0, -39619.808151699086, -43041.27908245076, 0.764, -0.636, 0.222, 192.0, 0.0, 0.0, 0.0, 0.0, 0.0, 0.0, 0.0, 0.0, 0.0, 1.6635916913907745E9, 0.0, 2022-09-19 17:48:11.390
93.0, -45392.95082008253, -37716.735925285335, -49088.945876234284, -43342.51354247493, -59950.30670765719, 187500.0, -39440.99419605663, -43091.972838875394, 0.764, -0.636, 0.222, 192.0, 0.0, 0.0, 0.0, 0.0, 0.0, 0.0, 0.0, 0.0, 0.0, 1.6635916913947494E9, 0.0, 2022-09-19 17:48:11.394
94.0, -45418.990602372956, -37749.41417567899, -49122.47349291724, -43390.5921447983, -59998.11708904709, 187500.0, -39318.48428469709, -43146.71226104644, 0.764, -0.636, 0.222, 192.0, 0.0, 0.0, 0.0, 0.0, 0.0, 0.0, 0.0, 0.0, 0.0, 1.6635916913988087E9, 0.0, 2022-09-19 17:48:11.398
95.0, -45444.11396314073, -37770.11189104461, -49153.2518450322, -43372.6883974896, -59987.052975541716, 187500.0, -39569.22615399673, -43094.81151042122, 0.764, -0.636, 0.222, 192.0, 0.0, 0.0, 0.0, 0.0, 0.0, 0.0, 0.0, 0.0, 0.0, 1.663591691402794E9, 0.0, 2022-09-19 17:48:11.402
96.0, -45431.909910668124, -37744.832068065654, -49118.27136495965, -43322.1734550206, -59933.45349233789, 187500.0, -39714.78071388969, -43041.50259989531, 0.764, -0.636, 0.222, 192.0, 0.0, 0.0, 0.0, 0.0, 0.0, 0.0, 0.0, 0.0, 0.0, 1.6635916914077404E9, 0.0, 2022-09-19 17:48:11.407
97.0, -45415.52608198239, -37726.54834110121, -49098.937106005804, -43324.09570504376, -59933.05116093769, 187500.0, -39613.68377371833, -43062.17796351647, 0.764, -0.636, 0.222, 192.0, 0.0, 0.0, 0.0, 0.0, 0.0, 0.0, 0.0, 0.0, 0.0, 1.6635916914117143E9, 0.0, 2022-09-19 17:48:11.411
98.0, -45379.98680829845, -37723.08382071064, -49097.4395391273, -43353.801173424865, -59962.73427757434, 187500.0, -39424.31979469297, -43108.490778027866, 0.764, -0.636, 0.222, 192.0, 0.0, 0.0, 0.0, 0.0, 0.0, 0.0, 0.0, 0.0, 0.0, 1.6635916914157813E9, 0.0, 2022-09-19 17:48:11.415
99.0, -45402.003276586925, -37751.60464663561, -49121.22179522774, -43395.35306636728, -60009.605885697114, 187500.0, -39320.49594169807, -43154.35655765016, 0.766, -0.64, 0.22, 192.0, 23.0, 240.0, 236.0, 0.0, 6.0, 224.0, 0.0, 0.0, 0.0, 1.6635916914187171E9, 0.0, 2022-09-19 17:48:11.418
100.0, -45428.847721677754, -37761.35000721813, -49150.748449653205, -43364.03827238539, -59994.518458189785, 187500.0, -39584.581802437526, -43090.22940280788, 0.766, -0.64, 0.22, 192.0, 0.0, 0.0, 0.0, 0.0, 0.0, 0.0, 0.0, 0.0, 0.0, 1.6635916914228241E9, 0.0, 2022-09-19 17:48:11.422
101.0, -45412.73211392547, -37730.169323702976, -49123.43461792882, -43320.877053842196, -59945.63519306603, 187500.0, -39732.75151643175, -43049.057489521205, 0.766, -0.64, 0.22, 192.0, 0.0, 0.0, 0.0, 0.0, 0.0, 0.0, 0.0, 0.0, 0.0, 1.6635916914268072E9, 0.0, 2022-09-19 17:48:11.426
102.0, -45401.578593442275, -37728.828219035655, -49107.20725145427, -43333.01405108143, -59946.59631807761, 187500.0, -39643.23277988825, -43077.71242591291, 0.766, -0.64, 0.22, 192.0, 0.0, 0.0, 0.0, 0.0, 0.0, 0.0, 0.0, 0.0, 0.0, 1.663591691430764E9, 0.0, 2022-09-19 17:48:11.430
103.0, -45376.81286058579, -37735.42198364997, -49097.394835638384, -43364.03827238539, -59972.77021083477, 187500.0, -39434.04280353103, -43134.910539974044, 0.766, -0.64, 0.22, 192.0, 0.0, 0.0, 0.0, 0.0, 0.0, 0.0, 0.0, 0.0, 0.0, 1.6635916914357789E9, 0.0, 2022-09-19 17:48:11.435
104.0, -45409.24524179044, -37753.8621728256, -49142.075972804545, -43402.30445889288, -60025.766196938304, 187500.0, -39334.24226453809, -43173.0426160148, 0.766, -0.64, 0.22, 192.0, 0.0, 0.0, 0.0, 0.0, 0.0, 0.0, 0.0, 0.0, 0.0, 1.663591691439719E9, 0.0, 2022-09-19 17:48:11.439
105.0, -45434.860340936226, -37758.35487346112, -49177.101156366014, -43368.39686255418, -60012.60101945413, 187500.0, -39597.88109038843, -43102.43345528048, 0.766, -0.64, 0.22, 192.0, 0.0, 0.0, 0.0, 0.0, 0.0, 0.0, 0.0, 0.0, 0.0, 1.6635916914437876E9, 0.0, 2022-09-19 17:48:11.443
106.0, -45409.15583481263, -37730.21402719188, -49120.90887080537, -43324.18511202158, -59967.09286774312, 187500.0, -39715.227748778794, -43056.74648961383, 0.766, -0.64, 0.22, 192.0, 0.0, 0.0, 0.0, 0.0, 0.0, 0.0, 0.0, 0.0, 0.0, 1.6635916914468155E9, 0.0, 2022-09-19 17:48:11.446
107.0, -45398.27053526289, -37724.76020154479, -49107.45312064327, -43337.10442031675, -59972.501989901306, 187500.0, -39622.535064522635, -43085.24496379435, 0.766, -0.64, 0.22, 192.0, 0.0, 0.0, 0.0, 0.0, 0.0, 0.0, 0.0, 0.0, 0.0, 1.663591691450752E9, 0.0, 2022-09-19 17:48:11.450
108.0, -45398.06936956279, -37730.21402719188, -49106.357885164965, -43370.34146432179, -60000.7098914039, 187500.0, -39426.73378309415, -43139.89497898758, 0.766, -0.64, 0.22, 192.0, 0.0, 0.0, 0.0, 0.0, 0.0, 0.0, 0.0, 0.0, 0.0, 1.6635916914548705E9, 0.0, 2022-09-19 17:48:11.454
109.0, -45425.360849542725, -37761.37235896258, -49145.80871412858, -43411.468674119555, -60046.106284392634, 187500.0, -39357.53278226051, -43177.78118583932, 0.768, -0.64, 0.226, 192.0, 24.0, 0.0, 236.0, 0.0, 7.0, 16.0, 0.0, 0.0, 0.0, 1.6635916914588032E9, 0.0, 2022-09-19 17:48:11.458
110.0, -45437.69901248205, -37772.4141207235, -49166.5064294942, -43374.05185390137, -60016.0655398447, 187500.0, -39638.49421006373, -43102.612269236124, 0.768, -0.64, 0.226, 192.0, 0.0, 0.0, 0.0, 0.0, 0.0, 0.0, 0.0, 0.0, 0.0, 1.663591691463842E9, 0.0, 2022-09-19 17:48:11.463
111.0, -45417.314221538814, -37740.04879475222, -49128.48611217572, -43331.00239408045, -59965.371783420065, 187500.0, -39731.83509490909, -43064.234324006364, 0.768, -0.64, 0.226, 192.0, 0.0, 0.0, 0.0, 0.0, 0.0, 0.0, 0.0, 0.0, 0.0, 1.6635916914678636E9, 0.0, 2022-09-19 17:48:11.467
112.0, -45398.94108759655, -37727.82239053516, -49105.15089096438, -43336.99266159447, -59966.53407413174, 187500.0, -39622.535064522635, -43084.306190527226, 0.768, -0.64, 0.226, 192.0, 0.0, 0.0, 0.0, 0.0, 0.0, 0.0, 0.0, 0.0, 0.0, 1.6635916914718573E9, 0.0, 2022-09-19 17:48:11.471
113.0, -45385.55239266782, -37731.37631790356, -49102.62514384093, -43367.94982766507, -59984.75074586282, 187500.0, -39422.39754466982, -43134.999946951866, 0.768, -0.64, 0.226, 192.0, 0.0, 0.0, 0.0, 0.0, 0.0, 0.0, 0.0, 0.0, 0.0, 1.6635916914748192E9, 0.0, 2022-09-19 17:48:11.474
114.0, -45425.87493966519, -37761.35000721813, -49141.09249604851, -43404.09259844931, -60015.573801466686, 187500.0, -39370.49679404459, -43165.174801966525, 0.768, -0.64, 0.226, 192.0, 0.0, 0.0, 0.0, 0.0, 0.0, 0.0, 0.0, 0.0, 0.0, 1.6635916914788384E9, 0.0, 2022-09-19 17:48:11.478
115.0, -45451.40063183315, -37769.15076603303, -49156.09051657802, -43365.20056309707, -59978.00051903731, 187500.0, -39654.38630037145, -43090.27410629679, 0.768, -0.64, 0.226, 192.0, 0.0, 0.0, 0.0, 0.0, 0.0, 0.0, 0.0, 0.0, 0.0, 1.663591691482911E9, 0.0, 2022-09-19 17:48:11.482
116.0, -45403.34438125425, -37735.73490807234, -49112.95164977928, -43321.45819919804, -59928.737274257815, 187500.0, -39736.19368507787, -43051.918512811484, 0.768, -0.64, 0.226, 192.0, 0.0, 0.0, 0.0, 0.0, 0.0, 0.0, 0.0, 0.0, 0.0, 1.6635916914868824E9, 0.0, 2022-09-19 17:48:11.486
117.0, -45379.60682864271, -37722.7038410549, -49090.219925668236, -43325.705030644545, -59933.85582373808, 187500.0, -39616.54479700861, -43070.2692950093, 0.768, -0.64, 0.226, 192.0, 0.0, 0.0, 0.0, 0.0, 0.0, 0.0, 0.0, 0.0, 0.0, 1.6635916914908888E9, 0.0, 2022-09-19 17:48:11.490
118.0, -45373.52715415086, -37725.29664341172, -49084.92256223233, -43355.65636821465, -59964.50006538631, 187500.0, -39401.92334674875, -43120.024278166806, 0.768, -0.64, 0.226, 192.0, 0.0, 0.0, 0.0, 0.0, 0.0, 0.0, 0.0, 0.0, 0.0, 1.663591691495858E9, 0.0, 2022-09-19 17:48:11.495
119.0, -45415.637840704665, -37755.80677459321, -49123.412266184365, -43386.68058951862, -60006.23077228437, 187500.0, -39360.90789567326, -43143.24774065587, 0.77, -0.638, 0.224, 192.0, 24.0, 16.0, 236.0, 16.0, 7.0, 0.0, 0.0, 0.0, 0.0, 1.6635916914999392E9, 0.0, 2022-09-19 17:48:11.499
120.0, -45429.09359086676, -37758.958370561406, -49135.10222853449, -43343.2287982975, -59969.86448405558, 187500.0, -39652.240532903736, -43065.083690295665, 0.77, -0.638, 0.224, 192.0, 0.0, 0.0, 0.0, 0.0, 0.0, 0.0, 0.0, 0.0, 0.0, 1.663591691502906E9, 0.0, 2022-09-19 17:48:11.502
121.0, -45407.81473014531, -37735.243169694324, -49095.651399570874, -43306.34841994625, -59920.80240497618, 187500.0, -39721.75445815974, -43035.06529749218, 0.77, -0.638, 0.224, 192.0, 0.0, 0.0, 0.0, 0.0, 0.0, 0.0, 0.0, 0.0, 0.0, 1.663591691506889E9, 0.0, 2022-09-19 17:48:11.506
122.0, -45389.352189225225, -37725.76603004528, -49078.06057668455, -43316.38435320668, -59919.23778286431, 187500.0, -39604.31839279156, -43061.52976292727, 0.77, -0.638, 0.224, 192.0, 0.0, 0.0, 0.0, 0.0, 0.0, 0.0, 0.0, 0.0, 0.0, 1.6635916915108812E9, 0.0, 2022-09-19 17:48:11.510
123.0, -45389.17337526958, -37734.30439642721, -49085.48135584371, -43358.29387406038, -59950.53022510174, 187500.0, -39398.79410252501, -43121.81241772323, 0.77, -0.638, 0.224, 192.0, 0.0, 0.0, 0.0, 0.0, 0.0, 0.0, 0.0, 0.0, 0.0, 1.6635916915149484E9, 0.0, 2022-09-19 17:48:11.514
124.0, -45417.33657328327, -37757.43845193845, -49130.274251732146, -43390.16746165365, -59986.78475460825, 187500.0, -39383.81843373996, -43137.32452837521, 0.77, -0.638, 0.224, 192.0, 0.0, 0.0, 0.0, 0.0, 0.0, 0.0, 0.0, 0.0, 0.0, 1.6635916915190244E9, 0.0, 2022-09-19 17:48:11.519
125.0, -45428.490093766464, -37761.14884151803, -49142.34419373801, -43348.32499603331, -59947.64685006701, 187500.0, -39675.39694015944, -43062.066204794195, 0.77, -0.638, 0.224, 192.0, 0.0, 0.0, 0.0, 0.0, 0.0, 0.0, 0.0, 0.0, 0.0, 1.6635916915229764E9, 0.0, 2022-09-19 17:48:11.522
126.0, -45399.209308530015, -37733.231512693346, -49105.91085027586, -43308.918870558606, -59911.325265327134, 187500.0, -39718.35699300253, -43034.79707655872, 0.77, -0.638, 0.224, 192.0, 0.0, 0.0, 0.0, 0.0, 0.0, 0.0, 0.0, 0.0, 0.0, 1.6635916915279615E9, 0.0, 2022-09-19 17:48:11.527
127.0, -45385.150061267625, -37721.072163709665, -49091.896306502385, -43322.50873118743, -59923.23874512181, 187500.0, -39590.996753096195, -43069.33052174217, 0.77, -0.638, 0.224, 192.0, 0.0, 0.0, 0.0, 0.0, 0.0, 0.0, 0.0, 0.0, 0.0, 1.6635916915309312E9, 0.0, 2022-09-19 17:48:11.530
128.0, -45388.34636072473, -37728.761163802286, -49093.4385768698, -43363.099499118274, -59959.82855079515, 187500.0, -39379.728064504634, -43127.355650348145, 0.77, -0.638, 0.224, 192.0, 0.0, 0.0, 0.0, 0.0, 0.0, 0.0, 0.0, 0.0, 0.0, 1.6635916915349917E9, 0.0, 2022-09-19 17:48:11.534
129.0, -45429.45121877804, -37763.071091541184, -49139.63963265892, -43390.5921447983, -59993.57968492266, 187500.0, -39388.10996867537, -43144.34297613418, 0.768, -0.632, 0.226, 192.0, 24.0, 0.0, 236.0, 64.0, 7.0, 16.0, 0.0, 0.0, 0.0, 1.663591691538928E9, 0.0, 2022-09-19 17:48:11.538
130.0, -45436.15674211463, -37763.294608985736, -49143.03709781612, -43342.468838986024, -59954.62059433706, 187500.0, -39677.967390771795, -43063.49671643934, 0.768, -0.632, 0.226, 192.0, 0.0, 0.0, 0.0, 0.0, 0.0, 0.0, 0.0, 0.0, 0.0, 1.6635916915430057E9, 0.0, 2022-09-19 17:48:11.543
131.0, -45392.03439855986, -37732.35979465959, -49095.04790247058, -43309.23179498098, -59918.00843691927, 187500.0, -39702.934289328376, -43035.9593672704, 0.768, -0.632, 0.226, 192.0, 0.0, 0.0, 0.0, 0.0, 0.0, 0.0, 0.0, 0.0, 0.0, 1.663591691546954E9, 0.0, 2022-09-19 17:48:11.546
132.0, -45378.19866874202, -37723.12852419955, -49079.513440074144, -43319.15596951914, -59926.59150679011, 187500.0, -39569.87435458593, -43060.590989660144, 0.768, -0.632, 0.226, 192.0, 0.0, 0.0, 0.0, 0.0, 0.0, 0.0, 0.0, 0.0, 0.0, 1.6635916915519335E9, 0.0, 2022-09-19 17:48:11.551
133.0, -45384.32304672278, -37732.873884782064, -49086.39777736638, -43356.05869961485, -59963.91892003047, 187500.0, -39371.3908638228, -43121.85712121214, 0.768, -0.632, 0.226, 192.0, 0.0, 0.0, 0.0, 0.0, 0.0, 0.0, 0.0, 0.0, 0.0, 1.6635916915549302E9, 0.0, 2022-09-19 17:48:11.554
134.0, -45411.65923019162, -37764.50160318633, -49127.882615075425, -43378.16457488115, -59995.03254831226, 187500.0, -39404.203224683195, -43129.6802317715, 0.768, -0.632, 0.226, 192.0, 0.0, 0.0, 0.0, 0.0, 0.0, 0.0, 0.0, 0.0, 0.0, 1.663591691559044E9, 0.0, 2022-09-19 17:48:11.559
135.0, -45415.68254419357, -37765.41802470899, -49129.20136799829, -43327.6272806677, -59946.1492831885, 187500.0, -39684.538803641655, -43049.14689649903, 0.768, -0.632, 0.226, 192.0, 0.0, 0.0, 0.0, 0.0, 0.0, 0.0, 0.0, 0.0, 0.0, 1.6635916915629623E9, 0.0, 2022-09-19 17:48:11.562
136.0, -45402.24914577593, -37734.32674817166, -49096.14313794889, -43300.13463498767, -59911.92876242742, 187500.0, -39698.732161370775, -43031.48901837933, 0.768, -0.632, 0.226, 192.0, 0.0, 0.0, 0.0, 0.0, 0.0, 0.0, 0.0, 0.0, 0.0, 1.6635916915669756E9, 0.0, 2022-09-19 17:48:11.566
137.0, -45388.435767702555, -37720.62512882055, -49092.030416969115, -43316.540815417866, -59924.535146300215, 187500.0, -39580.33497099102, -43063.7649373728, 0.768, -0.632, 0.226, 192.0, 0.0, 0.0, 0.0, 0.0, 0.0, 0.0, 0.0, 0.0, 0.0, 1.6635916915709825E9, 0.0, 2022-09-19 17:48:11.570
138.0, -45375.80703208531, -37726.79421029022, -49099.51825136164, -43356.37162403722, -59961.527283373754, 187500.0, -39372.396692323295, -43122.84059796818, 0.768, -0.632, 0.226, 192.0, 0.0, 0.0, 0.0, 0.0, 0.0, 0.0, 0.0, 0.0, 0.0, 1.663591691575037E9, 0.0, 2022-09-19 17:48:11.575
139.0, -45407.43475048956, -37756.030292037765, -49116.5949841255, -43373.47070854554, -59987.812934853195, 187500.0, -39422.241082458626, -43122.23710086788, 0.766, -0.636, 0.222, 192.0, 23.0, 240.0, 236.0, 32.0, 6.0, 240.0, 0.0, 0.0, 0.0, 1.6635916915789576E9, 0.0, 2022-09-19 17:48:11.578
140.0, -45410.22871854648, -37751.91757105799, -49112.638725356905, -43320.36296371972, -59935.28633538322, 187500.0, -39700.252079993734, -43040.42971616146, 0.766, -0.636, 0.222, 192.0, 0.0, 0.0, 0.0, 0.0, 0.0, 0.0, 0.0, 0.0, 0.0, 1.6635916915830371E9, 0.0, 2022-09-19 17:48:11.583
141.0, -45403.43378823207, -37727.353003901604, -49078.57466680702, -43295.26195469641, -59901.91518091145, 187500.0, -39705.236519007274, -43029.2538439338, 0.766, -0.636, 0.222, 192.0, 0.0, 0.0, 0.0, 0.0, 0.0, 0.0, 0.0, 0.0, 0.0, 1.663591691586008E9, 0.0, 2022-09-19 17:48:11.586
142.0, -45373.974189039975, -37708.37637285905, -49070.505687058656, -43305.87903331268, -59908.75481471477, 187500.0, -39568.846174340986, -43058.55698091471, 0.766, -0.636, 0.222, 192.0, 0.0, 0.0, 0.0, 0.0, 0.0, 0.0, 0.0, 0.0, 0.0, 1.6635916915910363E9, 0.0, 2022-09-19 17:48:11.591
143.0, -45373.14717449513, -37717.87586425256, -49071.62327428142, -43350.40370826766, -59942.88592849803, 187500.0, -39365.08767188641, -43115.7774467203, 0.766, -0.636, 0.222, 192.0, 0.0, 0.0, 0.0, 0.0, 0.0, 0.0, 0.0, 0.0, 0.0, 1.6635916915951009E9, 0.0, 2022-09-19 17:48:11.595
144.0, -45409.37935225718, -37750.26354196829, -49113.80101606858, -43370.25205734397, -59971.11618174508, 187500.0, -39443.765812369085, -43113.6763827415, 0.766, -0.636, 0.222, 192.0, 0.0, 0.0, 0.0, 0.0, 0.0, 0.0, 0.0, 0.0, 0.0, 1.6635916915991335E9, 0.0, 2022-09-19 17:48:11.599
145.0, -45409.11113132371, -37741.63576860855, -49100.904059517874, -43316.02672529539, -59922.724654999336, 187500.0, -39705.32592598509, -43033.8583032916, 0.766, -0.636, 0.222, 192.0, 0.0, 0.0, 0.0, 0.0, 0.0, 0.0, 0.0, 0.0, 0.0, 1.6635916916030717E9, 0.0, 2022-09-19 17:48:11.603
146.0, -45382.847831588726, -37715.193654917915, -49064.336605588986, -43293.742036073454, -59894.15912558546, 187500.0, -39686.43870192036, -43024.247053175815, 0.766, -0.636, 0.222, 192.0, 0.0, 0.0, 0.0, 0.0, 0.0, 0.0, 0.0, 0.0, 0.0, 1.6635916916070724E9, 0.0, 2022-09-19 17:48:11.607
147.0, -45375.20353498501, -37712.153817672, -49058.413393308336, -43312.472797927, -59909.73829147081, 187500.0, -39538.5819123485, -43056.00888204681, 0.766, -0.636, 0.222, 192.0, 0.0, 0.0, 0.0, 0.0, 0.0, 0.0, 0.0, 0.0, 0.0, 1.6635916916110868E9, 0.0, 2022-09-19 17:48:11.611
148.0, -45384.34539846723, -37729.69993706941, -49070.23746612519, -43359.120888605226, -59951.13372220203, 187500.0, -39339.76314541855, -43121.00775492284, 0.766, -0.636, 0.222, 192.0, 0.0, 0.0, 0.0, 0.0, 0.0, 0.0, 0.0, 0.0, 0.0, 1.6635916916141653E9, 0.0, 2022-09-19 17:48:11.614
149.0, -45418.90119539514, -37760.210068250904, -49116.90790854787, -43372.19665911158, -59974.84892306911, 187500.0, -39441.17301001227, -43111.82118795171, 0.768, -0.638, 0.228, 192.0, 24.0, 0.0, 236.0, 16.0, 7.0, 32.0, 0.0, 0.0, 0.0, 1.663591691619064E9, 0.0, 2022-09-19 17:48:11.619
150.0, -45417.6718494501, -37754.95740830391, -49110.9399927783, -43318.284251485384, -59928.75962600227, 187500.0, -39706.95760333033, -43033.388916658034, 0.768, -0.638, 0.228, 192.0, 0.0, 0.0, 0.0, 0.0, 0.0, 0.0, 0.0, 0.0, 0.0, 1.6635916916231298E9, 0.0, 2022-09-19 17:48:11.623
151.0, -45390.17920377007, -37738.99826276282, -49077.92646621782, -43302.12394024419, -59913.82866070612, 187500.0, -39684.02471351918, -43027.57746309966, 0.768, -0.638, 0.228, 192.0, 0.0, 0.0, 0.0, 0.0, 0.0, 0.0, 0.0, 0.0, 0.0, 1.6635916916270933E9, 0.0, 2022-09-19 17:48:11.627
152.0, -45382.17727925507, -37745.14499248803, -49073.97020744922, -43329.16955103511, -59932.157091159475, 187500.0, -39550.69655784328, -43071.90097235453, 0.768, -0.638, 0.228, 192.0, 0.0, 0.0, 0.0, 0.0, 0.0, 0.0, 0.0, 0.0, 0.0, 1.663591691631176E9, 0.0, 2022-09-19 17:48:11.631
153.0, -45403.27732602088, -37757.68432112745, -49094.109129203454, -43377.985760925505, -59972.636100368036, 187500.0, -39357.4880787716, -43137.79391500878, 0.768, -0.638, 0.228, 192.0, 0.0, 0.0, 0.0, 0.0, 0.0, 0.0, 0.0, 0.0, 0.0, 1.6635916916351228E9, 0.0, 2022-09-19 17:48:11.635
154.0, -45437.788419459874, -37780.550155705234, -49141.383068726434, -43375.66117950215, -59984.951911562915, 187500.0, -39474.253591806126, -43108.401371050044, 0.768, -0.638, 0.228, 192.0, 0.0, 0.0, 0.0, 0.0, 0.0, 0.0, 0.0, 0.0, 0.0, 1.6635916916391284E9, 0.0, 2022-09-19 17:48:11.639
155.0, -45427.50661701043, -37764.63571365306, -49114.00218176868, -43314.19388225006, -59927.30676261268, 187500.0, -39722.71558317132, -43025.96813749887, 0.768, -0.638, 0.228, 192.0, 0.0, 0.0, 0.0, 0.0, 0.0, 0.0, 0.0, 0.0, 0.0, 1.6635916916420932E9, 0.0, 2022-09-19 17:48:11.642
156.0, -45392.05675030431, -37734.12558247156, -49070.975073692214, -43295.53017562988, -59900.81994543314, 187500.0, -39682.95182978533, -43019.776704284755, 0.768, -0.638, 0.228, 192.0, 0.0, 0.0, 0.0, 0.0, 0.0, 0.0, 0.0, 0.0, 0.0, 1.6635916916471727E9, 0.0, 2022-09-19 17:48:11.647
157.0, -45382.22198274398, -37735.46668713888, -49063.42018406632, -43313.92566131659, -59918.947210186394, 187500.0, -39530.84820876696, -43056.00888204681, 0.768, -0.638, 0.228, 192.0, 0.0, 0.0, 0.0, 0.0, 0.0, 0.0, 0.0, 0.0, 0.0, 1.6635916916511183E9, 0.0, 2022-09-19 17:48:11.651
158.0, -45400.4163027306, -37747.02253902228, -49087.984751222706, -43365.49113577499, -59971.47380965636, 187500.0, -39331.51535171454, -43125.65691776954, 0.768, -0.638, 0.228, 192.0, 0.0, 0.0, 0.0, 0.0, 0.0, 0.0, 0.0, 0.0, 0.0, 1.6635916916551237E9, 0.0, 2022-09-19 17:48:11.655
159.0, -45422.94686114155, -37764.836879353155, -49131.525949421644, -43372.80015621187, -59992.35033897762, 187500.0, -39463.94943761223, -43103.52869075879, 0.78, -0.64, 0.224, 192.0, 24.0, 96.0, 236.0, 0.0, 7.0, 0.0, 0.0, 0.0, 0.0, 1.6635916916591344E9, 0.0, 2022-09-19 17:48:11.659
160.0, -45408.39587550114, -37746.48609715535, -49109.26361194415, -43316.02672529539, -59937.36504761757, 187500.0, -39703.64954515095, -43027.599814844114, 0.78, -0.64, 0.224, 192.0, 0.0, 0.0, 0.0, 0.0, 0.0, 0.0, 0.0, 0.0, 0.0, 1.663591691663198E9, 0.0, 2022-09-19 17:48:11.663
161.0, -45383.1607560111, -37716.71357354088, -49073.09848941547, -43296.62541110819, -59915.169765373445, 187500.0, -39662.54468709764, -43028.00214624431, 0.78, -0.64, 0.224, 192.0, 0.0, 0.0, 0.0, 0.0, 0.0, 0.0, 0.0, 0.0, 0.0, 1.6635916916661243E9, 0.0, 2022-09-19 17:48:11.666
162.0, -45375.65056987412, -37723.575559088655, -49067.24233236818, -43325.59327192227, -59941.27660289724, 187500.0, -39519.44881909476, -43075.29843751174, 0.78, -0.64, 0.224, 192.0, 0.0, 0.0, 0.0, 0.0, 0.0, 0.0, 0.0, 0.0, 0.0, 1.6635916916701703E9, 0.0, 2022-09-19 17:48:11.670
163.0, -45392.99552357144, -37740.495829641324, -49093.416225125344, -43385.317133106844, -59999.39113848104, 187500.0, -39332.45412498166, -43146.667557557535, 0.78, -0.64, 0.224, 192.0, 0.0, 0.0, 0.0, 0.0, 0.0, 0.0, 0.0, 0.0, 0.0, 1.663591691674136E9, 0.0, 2022-09-19 17:48:11.674
164.0, -45423.46095126402, -37758.109004272104, -49130.2966034766, -43376.21997311353, -59997.75946113581, 187500.0, -39477.49459475215, -43102.16523434702, 0.78, -0.64, 0.224, 192.0, 0.0, 0.0, 0.0, 0.0, 0.0, 0.0, 0.0, 0.0, 0.0, 1.663591691679139E9, 0.0, 2022-09-19 17:48:11.679
165.0, -45403.70200916553, -37744.206219220905, -49109.353018921975, -43320.608832908736, -59936.15805341698, 187500.0, -39712.3220219996, -43027.04102123273, 0.78, -0.64, 0.224, 192.0, 0.0, 0.0, 0.0, 0.0, 0.0, 0.0, 0.0, 0.0, 0.0, 1.663591691683189E9, 0.0, 2022-09-19 17:48:11.683
166.0, -45389.84392760324, -37730.21402719188, -49081.122765674925, -43306.48253041298, -59919.88598345352, 187500.0, -39663.88579176495, -43032.04781199072, 0.78, -0.64, 0.224, 192.0, 0.0, 0.0, 0.0, 0.0, 0.0, 0.0, 0.0, 0.0, 0.0, 1.6635916916871653E9, 0.0, 2022-09-19 17:48:11.687
167.0, -45389.061616547304, -37736.49486738382, -49080.988655208195, -43334.53396970439, -59941.99185871981, 187500.0, -39509.68110676779, -43077.24303927935, 0.78, -0.64, 0.224, 192.0, 0.0, 0.0, 0.0, 0.0, 0.0, 0.0, 0.0, 0.0, 0.0, 1.6635916916913424E9, 0.0, 2022-09-19 17:48:11.691
168.0, -45391.78852937085, -37740.6075883636, -49095.9866757377, -43384.24424937299, -59983.96843480688, 187500.0, -39326.597967934365, -43136.76573476383, 0.78, -0.64, 0.224, 192.0, 0.0, 0.0, 0.0, 0.0, 0.0, 0.0, 0.0, 0.0, 0.0, 1.6635916916952648E9, 0.0, 2022-09-19 17:48:11.695
169.0, -45428.490093766464, -37766.781481120765, -49138.41028671388, -43380.86913596024, -59992.842077355635, 187500.0, -39508.652926522846, -43100.13122560158, 0.774, -0.636, 0.222, 192.0, 24.0, 48.0, 236.0, 32.0, 6.0, 240.0, 0.0, 0.0, 0.0, 1.6635916916981764E9, 0.0, 2022-09-19 17:48:11.698
170.0, -45418.45416050603, -37749.57063789018, -49110.78353056712, -43323.4251527101, -59934.3475621161, 187500.0, -39729.51051348574, -43026.14695145452, 0.774, -0.636, 0.222, 192.0, 0.0, 0.0, 0.0, 0.0, 0.0, 0.0, 0.0, 0.0, 0.0, 1.6635916917022753E9, 0.0, 2022-09-19 17:48:11.702
171.0, -45383.92071532258, -37726.92832075695, -49075.15484990536, -43316.898443329155, -59917.67316075244, 187500.0, -39664.28812316515, -43044.05069876322, 0.774, -0.636, 0.222, 192.0, 0.0, 0.0, 0.0, 0.0, 0.0, 0.0, 0.0, 0.0, 0.0, 1.6635916917072392E9, 0.0, 2022-09-19 17:48:11.707
172.0, -45378.33277920876, -37724.64844282251, -49071.824439981516, -43344.77106866492, -59942.41654186446, 187500.0, -39496.33711532797, -43091.61521096411, 0.774, -0.636, 0.222, 192.0, 0.0, 0.0, 0.0, 0.0, 0.0, 0.0, 0.0, 0.0, 0.0, 1.6635916917112443E9, 0.0, 2022-09-19 17:48:11.711
173.0, -45401.60094518673, -37743.53566688725, -49112.214042212254, -43388.78165349742, -59989.623426154074, 187500.0, -39313.946880572665, -43141.750173777364, 0.774, -0.636, 0.222, 192.0, 0.0, 0.0, 0.0, 0.0, 0.0, 0.0, 0.0, 0.0, 0.0, 1.6635916917152681E9, 0.0, 2022-09-19 17:48:11.715
174.0, -45424.153855342134, -37762.98168456336, -49137.315051235564, -43375.34825507978, -59987.09767903062, 187500.0, -39508.228243378195, -43097.49371975586, 0.774, -0.636, 0.222, 192.0, 0.0, 0.0, 0.0, 0.0, 0.0, 0.0, 0.0, 0.0, 0.0, 1.6635916917192743E9, 0.0, 2022-09-19 17:48:11.719
175.0, -45408.909965623614, -37743.80388782071, -49097.17131819383, -43321.1229230312, -59929.9442684584, 187500.0, -39724.63783319448, -43032.47249513537, 0.774, -0.636, 0.222, 192.0, 0.0, 0.0, 0.0, 0.0, 0.0, 0.0, 0.0, 0.0, 0.0, 1.6635916917222536E9, 0.0, 2022-09-19 17:48:11.722
176.0, -45383.898363578126, -37727.50946611279, -49074.73016676071, -43318.61952765221, -59917.31553284115, 187500.0, -39652.82167825958, -43048.38693718755, 0.774, -0.636, 0.222, 192.0, 0.0, 0.0, 0.0, 0.0, 0.0, 0.0, 0.0, 0.0, 0.0, 1.6635916917263265E9, 0.0, 2022-09-19 17:48:11.726
177.0, -45378.019854786384, -37731.13044871455, -49075.08779467199, -43348.39205126668, -59941.43306510843, 187500.0, -39487.30701056802, -43095.415007521515, 0.774, -0.636, 0.222, 192.0, 0.0, 0.0, 0.0, 0.0, 0.0, 0.0, 0.0, 0.0, 0.0, 1.6635916917303238E9, 0.0, 2022-09-19 17:48:11.730
178.0, -45400.952744597525, -37753.90687631451, -49091.38221637991, -43396.76122626796, -59986.695347630426, 187500.0, -39328.274348768515, -43151.24966517087, 0.774, -0.636, 0.222, 192.0, 0.0, 0.0, 0.0, 0.0, 0.0, 0.0, 0.0, 0.0, 0.0, 1.6635916917353144E9, 0.0, 2022-09-19 17:48:11.735
179.0, -45441.767029972914, -37775.43160622497, -49133.20233025579, -43391.97795295453, -59988.2599697423, 187500.0, -39541.01825249413, -43109.34014431717, 0.764, -0.638, 0.226, 192.0, 23.0, 224.0, 236.0, 16.0, 7.0, 16.0, 0.0, 0.0, 0.0, 1.6635916917392457E9, 0.0, 2022-09-19 17:48:11.739
180.0, -45417.42598026109, -37750.39765243502, -49104.614449097455, -43333.751658648456, -59930.257192880774, 187500.0, -39730.69515594187, -43043.961291785396, 0.764, -0.638, 0.226, 192.0, 0.0, 0.0, 0.0, 0.0, 0.0, 0.0, 0.0, 0.0, 0.0, 1.6635916917433531E9, 0.0, 2022-09-19 17:48:11.743
181.0, -45379.83034608726, -37726.92832075695, -49070.43863182529, -43320.38531546418, -59911.414672304956, 187500.0, -39649.13364042445, -43048.99043428784, 0.764, -0.638, 0.226, 192.0, 0.0, 0.0, 0.0, 0.0, 0.0, 0.0, 0.0, 0.0, 0.0, 1.66359169174732E9, 0.0, 2022-09-19 17:48:11.747
182.0, -45382.624314144174, -37733.74560281582, -49070.25981786964, -43349.68845244509, -59934.28050688273, 187500.0, -39480.80265293153, -43097.49371975586, 0.764, -0.638, 0.226, 192.0, 0.0, 0.0, 0.0, 0.0, 0.0, 0.0, 0.0, 0.0, 0.0, 1.6635916917503011E9, 0.0, 2022-09-19 17:48:11.750
183.0, -45405.51250046641, -37760.992379306845, -49106.76021656516, -43402.93030773763, -59989.24344649833, 187500.0, -39335.002223849566, -43163.721938576935, 0.764, -0.638, 0.226, 192.0, 0.0, 0.0, 0.0, 0.0, 0.0, 0.0, 0.0, 0.0, 0.0, 1.6635916917542875E9, 0.0, 2022-09-19 17:48:11.754
184.0, -45430.524102511896, -37776.23626902536, -49135.661022145876, -43380.17623188213, -59981.44268768343, 187500.0, -39555.59158987899, -43109.78717920628, 0.764, -0.638, 0.226, 192.0, 0.0, 0.0, 0.0, 0.0, 0.0, 0.0, 0.0, 0.0, 0.0, 1.6635916917583313E9, 0.0, 2022-09-19 17:48:11.758
185.0, -45411.860395891716, -37747.38016693356, -49095.874917015426, -43321.41349570912, -59919.930686942425, 187500.0, -39723.833170394086, -43042.284910951246, 0.764, -0.638, 0.226, 192.0, 0.0, 0.0, 0.0, 0.0, 0.0, 0.0, 0.0, 0.0, 0.0, 1.6635916917623444E9, 0.0, 2022-09-19 17:48:11.762
186.0, -45383.3619217112, -37726.41423063448, -49068.404623079856, -43318.12778927419, -59911.682893238416, 187500.0, -39632.258073360696, -43054.62307389058, 0.764, -0.638, 0.226, 192.0, 0.0, 0.0, 0.0, 0.0, 0.0, 0.0, 0.0, 0.0, 0.0, 1.6635916917673092E9, 0.0, 2022-09-19 17:48:11.767
187.0, -45372.498973905924, -37730.61635859208, -49064.73893698918, -43350.11313558974, -59943.51177734278, 187500.0, -39456.03692007505, -43109.898937928556, 0.764, -0.638, 0.226, 192.0, 0.0, 0.0, 0.0, 0.0, 0.0, 0.0, 0.0, 0.0, 0.0, 1.6635916917713501E9, 0.0, 2022-09-19 17:48:11.771
188.0, -45394.47073870549, -37751.13526000205, -49099.60765833946, -43399.041104202406, -59998.787641380746, 187500.0, -39323.89340685528, -43167.432328156516, 0.764, -0.638, 0.226, 192.0, 0.0, 0.0, 0.0, 0.0, 0.0, 0.0, 0.0, 0.0, 0.0, 1.6635916917753508E9, 0.0, 2022-09-19 17:48:11.775
189.0, -45432.066372879315, -37773.151728290526, -49139.39376346991, -43381.09265340479, -59992.082118044156, 187500.0, -39568.22032549624, -43112.111760629625, 0.764, -0.638, 0.226, 192.0, 0.0, 0.0, 0.0, 0.0, 0.0, 0.0, 0.0, 0.0, 0.0, 1.66359169177839E9, 0.0, 2022-09-19 17:48:11.778
190.0, -45411.145140069144, -37746.64255936653, -49101.84283278499, -43323.179283521094, -59932.73823651532, 187500.0, -39725.5766064616, -43050.28683546625, 0.764, -0.638, 0.228, 192.0, 23.0, 224.0, 236.0, 16.0, 7.0, 32.0, 0.0, 0.0, 0.0, 1.6635916917823944E9, 0.0, 2022-09-19 17:48:11.782
191.0, -45374.734148351454, -37720.84864626511, -49065.320082345024, -43314.037420038876, -59921.13768114301, 187500.0, -39629.106477392495, -43063.34025422815, 0.764, -0.638, 0.228, 192.0, 0.0, 0.0, 0.0, 0.0, 0.0, 0.0, 0.0, 0.0, 0.0, 1.6635916917863257E9, 0.0, 2022-09-19 17:48:11.786
192.0, -45367.31336919229, -37721.02746022075, -49065.744765489675, -43347.27446404391, -59946.551614588694, 187500.0, -39450.00194907212, -43114.95043217545, 0.764, -0.638, 0.228, 192.0, 0.0, 0.0, 0.0, 0.0, 0.0, 0.0, 0.0, 0.0, 0.0, 1.663591691790369E9, 0.0, 2022-09-19 17:48:11.790
193.0, -45400.237488774954, -37756.8126030937, -49111.878766045425, -43400.695133292094, -60005.80608913972, 187500.0, -39335.65042443877, -43169.75690957987, 0.764, -0.638, 0.228, 192.0, 0.0, 0.0, 0.0, 0.0, 0.0, 0.0, 0.0, 0.0, 0.0, 1.663591691795438E9, 0.0, 2022-09-19 17:48:11.795
194.0, -45429.71943971151, -37777.59972543713, -49141.58423442653, -43375.92940043562, -59991.63508315505, 187500.0, -39579.060921557066, -43109.250737339346, 0.764, -0.638, 0.228, 192.0, 0.0, 0.0, 0.0, 0.0, 0.0, 0.0, 0.0, 0.0, 0.0, 1.6635916917993915E9, 0.0, 2022-09-19 17:48:11.799
195.0, -45404.08198882127, -37747.69309135593, -49098.98180949471, -43325.16858877762, -59930.972448703345, 187500.0, -39713.93134760039, -43053.50548666781, 0.764, -0.638, 0.228, 192.0, 0.0, 0.0, 0.0, 0.0, 0.0, 0.0, 0.0, 0.0, 0.0, 1.6635916918033965E9, 0.0, 2022-09-19 17:48:11.803
196.0, -45380.612657143196, -37726.54834110121, -49074.35018710497, -43325.23564401098, -59927.64203877951, 187500.0, -39622.669174989365, -43070.5151641983, 0.764, -0.638, 0.228, 192.0, 0.0, 0.0, 0.0, 0.0, 0.0, 0.0, 0.0, 0.0, 0.0, 1.6635916918064148E9, 0.0, 2022-09-19 17:48:11.806
197.0, -45369.39208142663, -37726.436582378934, -49074.976035949716, -43358.04800487137, -59958.86742578357, 187500.0, -39435.42861168726, -43123.377039835104, 0.764, -0.638, 0.228, 192.0, 0.0, 0.0, 0.0, 0.0, 0.0, 0.0, 0.0, 0.0, 0.0, 1.6635916918104043E9, 0.0, 2022-09-19 17:48:11.810
198.0, -45395.007180572415, -37759.651274639524, -49113.979830024226, -43405.50075834999, -60008.711815918905, 187500.0, -39338.89142738479, -43171.1427177361, 0.764, -0.638, 0.228, 192.0, 0.0, 0.0, 0.0, 0.0, 0.0, 0.0, 0.0, 0.0, 0.0, 1.663591691814525E9, 0.0, 2022-09-19 17:48:11.814
199.0, -45413.670887192595, -37771.38594047856, -49139.05848730308, -43377.359912080756, -59987.14238251953, 187500.0, -39605.257166058684, -43106.456769282435, 0.764, -0.638, 0.228, 192.0, 0.0, 0.0, 0.0, 0.0, 0.0, 0.0, 0.0, 0.0, 0.0, 1.6635916918184352E9, 0.0, 2022-09-19 17:48:11.818
200.0, -45385.306523478816, -37738.953559273905, -49090.33168439051, -43323.20163526555, -59929.653695780486, 187500.0, -39723.36378376053, -43055.15951575751, 0.766, -0.64, 0.234, 192.0, 23.0, 240.0, 236.0, 0.0, 7.0, 80.0, 0.0, 0.0, 0.0, 1.6635916918234785E9, 0.0, 2022-09-19 17:48:11.823
201.0, -45367.603941870206, -37725.60956783409, -49066.169448634326, -43320.65353639764, -59928.737274257815, 187500.0, -39613.68377371833, -43073.130318299576, 0.766, -0.64, 0.234, 192.0, 0.0, 0.0, 0.0, 0.0, 0.0, 0.0, 0.0, 0.0, 0.0, 1.6635916918274603E9, 0.0, 2022-09-19 17:48:11.827
202.0, -45373.95183729551, -37734.349099916115, -49067.46584981273, -43353.71176644704, -59958.62155659456, 187500.0, -39413.21097769868, -43124.8299032247, 0.766, -0.64, 0.234, 192.0, 0.0, 0.0, 0.0, 0.0, 0.0, 0.0, 0.0, 0.0, 0.0, 1.6635916918315191E9, 0.0, 2022-09-19 17:48:11.831
203.0, -45405.80307314433, -37767.87671659907, -49116.37146668095, -43403.89143274921, -60013.65155144353, 187500.0, -39330.509523214045, -43172.6402846146, 0.766, -0.64, 0.234, 192.0, 0.0, 0.0, 0.0, 0.0, 0.0, 0.0, 0.0, 0.0, 0.0, 1.66359169183451E9, 0.0, 2022-09-19 17:48:11.834
204.0, -45418.90119539514, -37770.00013232233, -49134.20815875628, -43365.55819100836, -59986.404774952505, 187500.0, -39606.665325959366, -43097.42666452249, 0.766, -0.64, 0.234, 192.0, 0.0, 0.0, 0.0, 0.0, 0.0, 0.0, 0.0, 0.0, 0.0, 1.6635916918385224E9, 0.0, 2022-09-19 17:48:11.838
205.0, -45382.73607286645, -37740.4064226635, -49083.1344226759, -43318.79834160785, -59934.95105921639, 187500.0, -39715.160693545426, -43052.90198956752, 0.766, -0.64, 0.234, 192.0, 0.0, 0.0, 0.0, 0.0, 0.0, 0.0, 0.0, 0.0, 0.0, 1.6635916918424025E9, 0.0, 2022-09-19 17:48:11.842
206.0, -45372.83425007275, -37738.48417264035, -49064.068384655526, -43331.561187691834, -59938.5496900737, 187500.0, -39614.66725047437, -43084.12737657158, 0.766, -0.64, 0.234, 192.0, 0.0, 0.0, 0.0, 0.0, 0.0, 0.0, 0.0, 0.0, 0.0, 1.663591691846454E9, 0.0, 2022-09-19 17:48:11.846
207.0, -45373.348340195225, -37749.168306489984, -49069.54456204708, -43374.141260879194, -59969.77507707776, 187500.0, -39425.28091970455, -43147.62868256911, 0.766, -0.64, 0.234, 192.0, 0.0, 0.0, 0.0, 0.0, 0.0, 0.0, 0.0, 0.0, 0.0, 1.6635916918514845E9, 0.0, 2022-09-19 17:48:11.851
208.0, -45397.868203862694, -37773.88933585755, -49106.648457842886, -43400.24809840299, -59999.56995243669, 187500.0, -39352.70480545817, -43170.02513051333, 0.766, -0.64, 0.234, 192.0, 0.0, 0.0, 0.0, 0.0, 0.0, 0.0, 0.0, 0.0, 0.0, 1.6635916918554895E9, 0.0, 2022-09-19 17:48:11.855
209.0, -45414.14027382616, -37771.251830011824, -49122.89817606189, -43358.562094993846, -59961.035544995735, 187500.0, -39627.921834936365, -43092.66574295351, 0.766, -0.64, 0.234, 192.0, 0.0, 0.0, 0.0, 0.0, 0.0, 0.0, 0.0, 0.0, 0.0, 1.6635916918594985E9, 0.0, 2022-09-19 17:48:11.859
210.0, -45386.491165934945, -37730.72811731436, -49077.14415516188, -43313.56803340531, -59914.879192695524, 187500.0, -39711.69617315485, -43050.66681512199, 0.77, -0.64, 0.228, 192.0, 24.0, 16.0, 236.0, 0.0, 7.0, 32.0, 0.0, 0.0, 0.0, 1.6635916918625708E9, 0.0, 2022-09-19 17:48:11.862
211.0, -45363.80414531281, -37712.332631627636, -49054.36772756192, -43318.708934630034, -59919.90833519797, 187500.0, -39590.706180418274, -43072.45976596591, 0.77, -0.64, 0.228, 192.0, 0.0, 0.0, 0.0, 0.0, 0.0, 0.0, 0.0, 0.0, 0.0, 1.6635916918665168E9, 0.0, 2022-09-19 17:48:11.866
212.0, -45366.26283720289, -37721.340384643125, -49058.70396598625, -43358.62915022721, -59955.17938794845, 187500.0, -39393.161462922275, -43129.456714326945, 0.77, -0.64, 0.228, 192.0, 0.0, 0.0, 0.0, 0.0, 0.0, 0.0, 0.0, 0.0, 0.0, 1.6635916918704991E9, 0.0, 2022-09-19 17:48:11.870
213.0, -45410.94397436905, -37762.75816711881, -49105.77673980913, -43399.957525725076, -59998.67588265847, 187500.0, -39345.86517165484, -43161.57617110922, 0.77, -0.64, 0.228, 192.0, 0.0, 0.0, 0.0, 0.0, 0.0, 0.0, 0.0, 0.0, 0.0, 1.6635916918744717E9, 0.0, 2022-09-19 17:48:11.874
214.0, -45420.80109367384, -37767.78730962126, -49116.52792889213, -43353.89058040269, -59960.38734440653, 187500.0, -39622.75858196719, -43086.20608880593, 0.77, -0.64, 0.228, 192.0, 0.0, 0.0, 0.0, 0.0, 0.0, 0.0, 0.0, 0.0, 0.0, 1.6635916918785293E9, 0.0, 2022-09-19 17:48:11.878
215.0, -45374.376520440164, -37732.96329175989, -49068.874009713414, -43311.914004315615, -59909.358311815064, 187500.0, -39702.10727478353, -43049.57157964368, 0.77, -0.64, 0.228, 192.0, 0.0, 0.0, 0.0, 0.0, 0.0, 0.0, 0.0, 0.0, 0.0, 1.6635916918835442E9, 0.0, 2022-09-19 17:48:11.883
216.0, -45354.952854508505, -37719.529893342245, -49052.177256605304, -43324.43098121059, -59917.963733430355, 187500.0, -39579.91028784637, -43075.85723112312, 0.77, -0.64, 0.228, 192.0, 0.0, 0.0, 0.0, 0.0, 0.0, 0.0, 0.0, 0.0, 0.0, 1.6635916918875413E9, 0.0, 2022-09-19 17:48:11.887
217.0, -45370.7108343495, -37732.56096035969, -49065.54359978958, -43367.10046137577, -59957.66043158298, 187500.0, -39384.913669218266, -43138.50917083135, 0.77, -0.64, 0.228, 192.0, 0.0, 0.0, 0.0, 0.0, 0.0, 0.0, 0.0, 0.0, 0.0, 1.6635916918905635E9, 0.0, 2022-09-19 17:48:11.890
218.0, -45400.192785286046, -37758.73485311685, -49106.849623542985, -43397.36472336826, -59995.90426634601, 187500.0, -39356.951636904676, -43159.63156934161, 0.77, -0.64, 0.228, 192.0, 0.0, 0.0, 0.0, 0.0, 0.0, 0.0, 0.0, 0.0, 0.0, 1.6635916918945756E9, 0.0, 2022-09-19 17:48:11.894
219.0, -45401.04215157535, -37752.00697803581, -49116.14794923639, -43348.57086522232, -59953.279489669745, 187500.0, -39643.635111288444, -43077.71242591291, 0.77, -0.64, 0.228, 192.0, 0.0, 0.0, 0.0, 0.0, 0.0, 0.0, 0.0, 0.0, 0.0, 1.6635916918985977E9, 0.0, 2022-09-19 17:48:11.898
220.0, -45368.6097703707, -37721.832123021144, -49072.27147487062, -43307.19778623555, -59905.51381176875, 187500.0, -39696.698152625344, -43040.049736505716, 0.77, -0.642, 0.228, 192.0, 24.0, 16.0, 235.0, 240.0, 7.0, 32.0, 0.0, 0.0, 0.0, 1.6635916919025917E9, 0.0, 2022-09-19 17:48:11.902
221.0, -45347.64383407162, -37709.78453275973, -49058.10046888596, -43318.15014101865, -59909.76064321526, 187500.0, -39575.01525581065, -43067.028292063274, 0.77, -0.642, 0.228, 192.0, 0.0, 0.0, 0.0, 0.0, 0.0, 0.0, 0.0, 0.0, 0.0, 1.663591691908598E9, 0.0, 2022-09-19 17:48:11.908
222.0, -45358.43972664353, -37722.99441373282, -49067.354091090456, -43361.04313862838, -59945.657544810485, 187500.0, -39374.02836966853, -43127.95914744844, 0.77, -0.642, 0.228, 192.0, 0.0, 0.0, 0.0, 0.0, 0.0, 0.0, 0.0, 0.0, 0.0, 1.663591691911562E9, 0.0, 2022-09-19 17:48:11.911
223.0, -45409.89344237965, -37768.681379399466, -49118.24901321519, -43404.22670891604, -59990.87512384357, 187500.0, -39382.544384306006, -43158.893961774585, 0.77, -0.642, 0.228, 192.0, 0.0, 0.0, 0.0, 0.0, 0.0, 0.0, 0.0, 0.0, 0.0, 1.663591691915682E9, 0.0, 2022-09-19 17:48:11.915
224.0, -45410.42988424658, -37767.31792298769, -49116.99731552569, -43355.32109204782, -59949.52439660125, 187500.0, -39674.70403608132, -43082.36158875962, 0.77, -0.642, 0.228, 192.0, 0.0, 0.0, 0.0, 0.0, 0.0, 0.0, 0.0, 0.0, 0.0, 1.6635916919186788E9, 0.0, 2022-09-19 17:48:11.918
225.0, -45361.97130226747, -37725.36369864508, -49066.772945734614, -43308.71770485851, -59903.569210001144, 187500.0, -39695.89348982495, -43049.03513777675, 0.77, -0.642, 0.228, 192.0, 0.0, 0.0, 0.0, 0.0, 0.0, 0.0, 0.0, 0.0, 0.0, 1.6635916919226449E9, 0.0, 2022-09-19 17:48:11.922
226.0, -45353.32117716327, -37715.528931084744, -49052.445477538764, -43319.826521852796, -59914.92389618444, 187500.0, -39571.61779065344, -43079.545268958245, 0.77, -0.642, 0.228, 192.0, 0.0, 0.0, 0.0, 0.0, 0.0, 0.0, 0.0, 0.0, 0.0, 1.6635916919265838E9, 0.0, 2022-09-19 17:48:11.926
227.0, -45361.233694700444, -37725.72132655637, -49058.9274834308, -43361.31135956185, -59962.39900140751, 187500.0, -39364.03713989701, -43141.92898773301, 0.77, -0.642, 0.228, 192.0, 0.0, 0.0, 0.0, 0.0, 0.0, 0.0, 0.0, 0.0, 0.0, 1.6635916919305975E9, 0.0, 2022-09-19 17:48:11.930
228.0, -45398.89638410764, -37757.72902461637, -49106.849623542985, -43388.78165349742, -60005.291999017245, 187500.0, -39382.253811628085, -43158.9386652635, 0.77, -0.642, 0.228, 192.0, 0.0, 0.0, 0.0, 0.0, 0.0, 0.0, 0.0, 0.0, 0.0, 1.6635916919346976E9, 0.0, 2022-09-19 17:48:11.934
229.0, -45406.16070105561, -37756.164402504495, -49109.39772241089, -43339.76427790693, -59962.06372524068, 187500.0, -39671.93241976886, -43079.65702768052, 0.77, -0.642, 0.228, 192.0, 0.0, 0.0, 0.0, 0.0, 0.0, 0.0, 0.0, 0.0, 0.0, 1.663591691938586E9, 0.0, 2022-09-19 17:48:11.938
230.0, -45376.18701174104, -37725.8554370231, -49065.34243408948, -43303.97913503399, -59920.08714915361, 187500.0, -39696.54169041415, -43046.84466682013, 0.77, -0.644, 0.22, 192.0, 24.0, 16.0, 235.0, 224.0, 6.0, 224.0, 0.0, 0.0, 0.0, 1.6635916919436767E9, 0.0, 2022-09-19 17:48:11.943
231.0, -45358.77500281036, -37715.46187585138, -49051.90903567184, -43311.46696942651, -59924.80336723368, 187500.0, -39565.71693011725, -43070.42575722048, 0.77, -0.644, 0.22, 192.0, 0.0, 0.0, 0.0, 0.0, 0.0, 0.0, 0.0, 0.0, 0.0, 1.663591691946604E9, 0.0, 2022-09-19 17:48:11.946
232.0, -45361.74778482292, -37722.3015096547, -49061.78850672108, -43352.01303386844, -59958.97918450585, 187500.0, -39348.279160056016, -43134.44115334048, 0.77, -0.644, 0.22, 192.0, 0.0, 0.0, 0.0, 0.0, 0.0, 0.0, 0.0, 0.0, 0.0, 1.6635916919506671E9, 0.0, 2022-09-19 17:48:11.950
233.0, -45399.23166027447, -37754.353911203616, -49111.67760034533, -43383.216069128044, -59998.94410359194, 187500.0, -39381.58325929442, -43147.20399942446, 0.77, -0.644, 0.22, 192.0, 0.0, 0.0, 0.0, 0.0, 0.0, 0.0, 0.0, 0.0, 0.0, 1.6635916919546816E9, 0.0, 2022-09-19 17:48:11.954
234.0, -45411.68158193607, -37753.52689665877, -49117.98079228173, -43342.133562819196, -59959.58268160614, 187500.0, -39694.48532992427, -43077.62301893509, 0.77, -0.644, 0.22, 192.0, 0.0, 0.0, 0.0, 0.0, 0.0, 0.0, 0.0, 0.0, 0.0, 1.6635916919586992E9, 0.0, 2022-09-19 17:48:11.958
235.0, -45364.47469764647, -37726.97302424586, -49072.584399292995, -43311.779893848885, -59916.8908496965, 187500.0, -39710.60093767654, -43060.05454779322, 0.77, -0.644, 0.22, 192.0, 0.0, 0.0, 0.0, 0.0, 0.0, 0.0, 0.0, 0.0, 0.0, 1.663591691962694E9, 0.0, 2022-09-19 17:48:11.962
236.0, -45359.847886544216, -37716.534759585236, -49055.3288525735, -43324.855664355244, -59924.80336723368, 187500.0, -39570.030816797116, -43092.621039464604, 0.77, -0.644, 0.22, 192.0, 0.0, 0.0, 0.0, 0.0, 0.0, 0.0, 0.0, 0.0, 0.0, 1.6635916919677007E9, 0.0, 2022-09-19 17:48:11.967
237.0, -45356.83040104275, -37721.94388174342, -49064.02368116661, -43361.356063050756, -59962.644870596516, 187500.0, -39348.43562226721, -43153.8871710166, 0.77, -0.644, 0.22, 192.0, 0.0, 0.0, 0.0, 0.0, 0.0, 0.0, 0.0, 0.0, 0.0, 1.6635916919706287E9, 0.0, 2022-09-19 17:48:11.970
238.0, -45386.7146833795, -37747.82720182266, -49102.62514384093, -43380.80208072688, -59993.44557445593, 187500.0, -39407.33246890694, -43149.72974654791, 0.77, -0.644, 0.22, 192.0, 0.0, 0.0, 0.0, 0.0, 0.0, 0.0, 0.0, 0.0, 0.0, 1.663591691973736E9, 0.0, 2022-09-19 17:48:11.973
239.0, -45391.3638462262, -37745.90495179951, -49101.172280451334, -43331.650594669656, -59948.2503471673, 187500.0, -39688.33860019906, -43069.10700429762, 0.77, -0.644, 0.22, 192.0, 0.0, 0.0, 0.0, 0.0, 0.0, 0.0, 0.0, 0.0, 0.0, 1.6635916919786932E9, 0.0, 2022-09-19 17:48:11.978
240.0, -45364.22882845746, -37718.211140419386, -49064.537771289084, -43303.80032107834, -59911.52643102723, 187500.0, -39684.65056236393, -43054.578370401665, 0.762, -0.642, 0.22, 192.0, 23.0, 208.0, 235.0, 240.0, 6.0, 224.0, 0.0, 0.0, 0.0, 1.663591691982736E9, 0.0, 2022-09-19 17:48:11.982
241.0, -45351.64479632912, -37711.12563742705, -49053.33954731698, -43322.978117820996, -59919.304838097676, 187500.0, -39538.11252571494, -43091.10112084164, 0.762, -0.642, 0.22, 192.0, 0.0, 0.0, 0.0, 0.0, 0.0, 0.0, 0.0, 0.0, 0.0, 1.6635916919866853E9, 0.0, 2022-09-19 17:48:11.986
242.0, -45370.040282015834, -37738.32771042916, -49070.55039054756, -43377.225801614026, -59966.64583285402, 187500.0, -39343.92056988723, -43161.17383970903, 0.762, -0.642, 0.22, 192.0, 0.0, 0.0, 0.0, 0.0, 0.0, 0.0, 0.0, 0.0, 0.0, 1.6635916919907453E9, 0.0, 2022-09-19 17:48:11.990
243.0, -45413.13444532567, -37786.69688543044, -49122.89817606189, -43403.04206645991, -60001.00046408182, 187500.0, -39438.62491114437, -43166.381796167116, 0.762, -0.642, 0.22, 192.0, 0.0, 0.0, 0.0, 0.0, 0.0, 0.0, 0.0, 0.0, 0.0, 1.6635916919947958E9, 0.0, 2022-09-19 17:48:11.994
244.0, -45397.35411374022, -37766.37914972057, -49114.4939201467, -43346.469801243526, -59946.10457969959, 187500.0, -39709.61746092051, -43077.62301893509, 0.762, -0.642, 0.22, 192.0, 0.0, 0.0, 0.0, 0.0, 0.0, 0.0, 0.0, 0.0, 0.0, 1.6635916919987311E9, 0.0, 2022-09-19 17:48:11.998
245.0, -45357.36684290968, -37717.80880901919, -49067.331739346, -43313.18805374957, -59906.162012357956, 187500.0, -39685.61168737551, -43057.77466985878, 0.762, -0.642, 0.22, 192.0, 0.0, 0.0, 0.0, 0.0, 0.0, 0.0, 0.0, 0.0, 0.0, 1.6635916920017035E9, 0.0, 2022-09-19 17:48:12.001
246.0, -45351.71185156248, -37719.30637589769, -49060.201532864754, -43332.23174002549, -59923.90929745547, 187500.0, -39552.52940088861, -43095.973801132895, 0.762, -0.642, 0.22, 192.0, 0.0, 0.0, 0.0, 0.0, 0.0, 0.0, 0.0, 0.0, 0.0, 1.6635916920067089E9, 0.0, 2022-09-19 17:48:12.006
247.0, -45366.39694766962, -37742.239265708835, -49077.211210395246, -43382.187888883105, -59976.88293181455, 187500.0, -39363.90302943028, -43164.99598801089, 0.762, -0.642, 0.22, 192.0, 0.0, 0.0, 0.0, 0.0, 0.0, 0.0, 0.0, 0.0, 0.0, 1.6635916920107174E9, 0.0, 2022-09-19 17:48:12.010
248.0, -45398.98579108546, -37754.219800736886, -49116.37146668095, -43389.58631629781, -60002.85565887162, 187500.0, -39455.656940419314, -43148.09806920267, 0.762, -0.642, 0.22, 192.0, 0.0, 0.0, 0.0, 0.0, 0.0, 0.0, 0.0, 0.0, 0.0, 1.6635916920147176E9, 0.0, 2022-09-19 17:48:12.014
249.0, -45392.4143782156, -37742.3063209422, -49101.57461185153, -43336.83619938329, -59957.3028036717, 187500.0, -39713.5737196891, -43073.44324272194, 0.762, -0.642, 0.22, 192.0, 0.0, 0.0, 0.0, 0.0, 0.0, 0.0, 0.0, 0.0, 0.0, 1.6635916920187483E9, 0.0, 2022-09-19 17:48:12.018
250.0, -45365.39111916914, -37726.39187889003, -49070.30452135856, -43327.314356245326, -59939.711980785374, 187500.0, -39689.32207695509, -43076.21485903441, 0.76, -0.646, 0.218, 192.0, 23.0, 192.0, 235.0, 208.0, 6.0, 208.0, 0.0, 0.0, 0.0, 1.66359169202279E9, 0.0, 2022-09-19 17:48:12.022
251.0, -45363.58062786825, -37733.455030137906, -49069.455155069256, -43355.20933332555, -59965.68470784244, 187500.0, -39553.78109857811, -43118.839635710676, 0.76, -0.646, 0.218, 192.0, 0.0, 0.0, 0.0, 0.0, 0.0, 0.0, 0.0, 0.0, 0.0, 1.663591692026755E9, 0.0, 2022-09-19 17:48:12.026
252.0, -45384.43480544505, -37744.67560585446, -49084.542582576585, -43403.26558390446, -60001.44749897093, 187500.0, -39356.728119460124, -43180.46339517396, 0.76, -0.646, 0.218, 192.0, 0.0, 0.0, 0.0, 0.0, 0.0, 0.0, 0.0, 0.0, 0.0, 1.6635916920297337E9, 0.0, 2022-09-19 17:48:12.029
253.0, -45411.994506358446, -37775.23044052487, -49116.66203935886, -43401.67861004813, -60003.39210073854, 187500.0, -39462.42951898927, -43149.39447038108, 0.76, -0.646, 0.218, 192.0, 0.0, 0.0, 0.0, 0.0, 0.0, 0.0, 0.0, 0.0, 0.0, 1.6635916920347602E9, 0.0, 2022-09-19 17:48:12.034
254.0, -45396.03536081736, -37762.46759444089, -49098.82534728353, -43335.04805982686, -59936.895660984, 187500.0, -39713.30549875564, -43060.16630651549, 0.76, -0.646, 0.218, 192.0, 0.0, 0.0, 0.0, 0.0, 0.0, 0.0, 0.0, 0.0, 0.0, 1.6635916920387683E9, 0.0, 2022-09-19 17:48:12.038
255.0, -45366.978093025464, -37736.159591216994, -49064.1801433778, -43315.26676598391, -59906.67610248043, 187500.0, -39667.28325692216, -43056.45591693591, 0.76, -0.646, 0.218, 192.0, 0.0, 0.0, 0.0, 0.0, 0.0, 0.0, 0.0, 0.0, 0.0, 1.6635916920427592E9, 0.0, 2022-09-19 17:48:12.042
0.0, -45353.902322519105, -37717.45118110791, -49055.44061129577, -43338.3784697507, -59920.0424456647, 187500.0, -39525.59554881997, -43096.733760444375, 0.76, -0.646, 0.218, 192.0, 0.0, 0.0, 0.0, 0.0, 0.0, 0.0, 0.0, 0.0, 0.0, 1.6635916920467544E9, 0.0, 2022-09-19 17:48:12.046
1.0, -45361.27839818936, -37731.21985569237, -49068.71754750223, -43386.12179590724, -59966.66818459847, 187500.0, -39334.35402326036, -43162.246723442884, 0.76, -0.646, 0.218, 192.0, 0.0, 0.0, 0.0, 0.0, 0.0, 0.0, 0.0, 0.0, 0.0, 1.6635916920507867E9, 0.0, 2022-09-19 17:48:12.050
2.0, -45399.902212608125, -37760.12066127308, -49114.538623635606, -43391.486214576515, -59985.7565743633, 187500.0, -39478.321609296996, -43141.19138016598, 0.76, -0.646, 0.218, 192.0, 0.0, 0.0, 0.0, 0.0, 0.0, 0.0, 0.0, 0.0, 0.0, 1.663591692054859E9, 0.0, 2022-09-19 17:48:12.054
3.0, -45397.398817229136, -37747.08959425564, -49101.14992870688, -43337.14912380566, -59935.8451289946, 187500.0, -39708.36576323101, -43066.08951879615, 0.76, -0.646, 0.218, 192.0, 0.0, 0.0, 0.0, 0.0, 0.0, 0.0, 0.0, 0.0, 0.0, 1.6635916920577867E9, 0.0, 2022-09-19 17:48:12.057
4.0, -45365.234656957946, -37723.70966955539, -49061.252064854154, -43318.351306718745, -59912.26403859426, 187500.0, -39650.47474509177, -43060.09925128213, 0.772, -0.64, 0.22, 192.0, 24.0, 32.0, 236.0, 0.0, 6.0, 224.0, 0.0, 0.0, 0.0, 1.6635916920618083E9, 0.0, 2022-09-19 17:48:12.061
5.0, -45361.05488074481, -37731.46572488138, -49045.47173326871, -43336.322109260815, -59927.15030040149, 187500.0, -39513.70442076975, -43091.61521096411, 0.772, -0.64, 0.22, 192.0, 0.0, 0.0, 0.0, 0.0, 0.0, 0.0, 0.0, 0.0, 0.0, 1.6635916920669317E9, 0.0, 2022-09-19 17:48:12.066
6.0, -45364.8546773022, -37753.34808270312, -49068.91871320233, -43384.66893251764, -59975.94415854743, 187500.0, -39340.388994263296, -43156.14469720658, 0.772, -0.64, 0.22, 192.0, 0.0, 0.0, 0.0, 0.0, 0.0, 0.0, 0.0, 0.0, 0.0, 1.6635916920708082E9, 0.0, 2022-09-19 17:48:12.070
7.0, -45393.42020671609, -37764.211030508406, -49116.10324574748, -43387.23938313, -59992.81972561118, 187500.0, -39503.400266575845, -43133.43532483999, 0.772, -0.64, 0.22, 192.0, 0.0, 0.0, 0.0, 0.0, 0.0, 0.0, 0.0, 0.0, 0.0, 1.663591692074808E9, 0.0, 2022-09-19 17:48:12.074
8.0, -45380.947933310024, -37735.891370283534, -49094.51146060365, -43334.82454238231, -59938.795559262704, 187500.0, -39718.53580695818, -43066.49185019635, 0.772, -0.64, 0.22, 192.0, 0.0, 0.0, 0.0, 0.0, 0.0, 0.0, 0.0, 0.0, 0.0, 1.6635916920788352E9, 0.0, 2022-09-19 17:48:12.078
9.0, -45355.82457254226, -37722.65913756599, -49059.75449797565, -43320.83235035329, -59918.947210186394, 187500.0, -39662.96937024229, -43063.407309461516, 0.772, -0.64, 0.22, 192.0, 0.0, 0.0, 0.0, 0.0, 0.0, 0.0, 0.0, 0.0, 0.0, 1.663591692082842E9, 0.0, 2022-09-19 17:48:12.082
10.0, -45353.96937775247, -37721.6533090655, -49054.412431050834, -43345.37456576521, -59937.83443425113, 187500.0, -39526.1766941758, -43103.75220820335, 0.772, -0.64, 0.22, 192.0, 0.0, 0.0, 0.0, 0.0, 0.0, 0.0, 0.0, 0.0, 0.0, 1.6635916920858388E9, 0.0, 2022-09-19 17:48:12.085
11.0, -45390.670942148085, -37738.059489495696, -49076.80887899505, -43393.229650644025, -59981.84501908362, 187500.0, -39352.28012231352, -43166.78412756731, 0.772, -0.64, 0.22, 192.0, 0.0, 0.0, 0.0, 0.0, 0.0, 0.0, 0.0, 0.0, 0.0, 1.663591692089909E9, 0.0, 2022-09-19 17:48:12.089
12.0, -45412.32978252528, -37770.13424278906, -49123.07699001754, -43387.082920918816, -59985.19778075192, 187500.0, -39528.434220365794, -43129.34495560467, 0.772, -0.64, 0.22, 192.0, 0.0, 0.0, 0.0, 0.0, 0.0, 0.0, 0.0, 0.0, 0.0, 1.6635916920949287E9, 0.0, 2022-09-19 17:48:12.094
13.0, -45366.32989243625, -37765.82035610919, -49093.52798384762, -43328.65546091264, -59925.786843989714, 187500.0, -39730.136362330486, -43055.29362622424, 0.772, -0.64, 0.22, 192.0, 0.0, 0.0, 0.0, 0.0, 0.0, 0.0, 0.0, 0.0, 0.0, 1.663591692098932E9, 0.0, 2022-09-19 17:48:12.098
14.0, -45349.34256665022, -37733.030346993255, -49063.353128832954, -43318.32895497429, -59904.21741059035, 187500.0, -39655.57094282758, -43059.36164371511, 0.774, -0.636, 0.22, 192.0, 24.0, 48.0, 236.0, 32.0, 6.0, 224.0, 0.0, 0.0, 0.0, 1.6635916921029277E9, 0.0, 2022-09-19 17:48:12.102
15.0, -45338.658432800585, -37702.676678022945, -49051.88668392738, -43342.96057736404, -59921.0929776541, 187500.0, -39515.96194695973, -43106.21090009343, 0.774, -0.636, 0.22, 192.0, 0.0, 0.0, 0.0, 0.0, 0.0, 0.0, 0.0, 0.0, 0.0, 1.6635916921069376E9, 0.0, 2022-09-19 17:48:12.106
16.0, -45368.74388083743, -37740.227608707864, -49080.631027296906, -43398.68347629112, -59976.21237948089, 187500.0, -39363.83597419691, -43173.26613345935, 0.774, -0.636, 0.22, 192.0, 0.0, 0.0, 0.0, 0.0, 0.0, 0.0, 0.0, 0.0, 0.0, 1.6635916921099305E9, 0.0, 2022-09-19 17:48:12.109
17.0, -45410.094608079744, -37775.83393762517, -49120.283021960626, -43389.69807502009, -59981.91207431699, 187500.0, -39556.64212186839, -43131.91540621703, 0.774, -0.636, 0.22, 192.0, 0.0, 0.0, 0.0, 0.0, 0.0, 0.0, 0.0, 0.0, 0.0, 1.6635916921139312E9, 0.0, 2022-09-19 17:48:12.113
18.0, -45406.27245977789, -37757.550210660724, -49092.85743151396, -43336.00918483844, -59923.73048349983, 187500.0, -39746.766060205235, -43063.3626059726, 0.774, -0.636, 0.22, 192.0, 0.0, 0.0, 0.0, 0.0, 0.0, 0.0, 0.0, 0.0, 0.0, 1.6635916921179452E9, 0.0, 2022-09-19 17:48:12.117
19.0, -45378.109261764206, -37728.09061146863, -49052.89251242787, -43322.59813816525, -59906.94432341389, 187500.0, -39658.677835306866, -43066.80477461872, 0.774, -0.636, 0.22, 192.0, 0.0, 0.0, 0.0, 0.0, 0.0, 0.0, 0.0, 0.0, 0.0, 1.663591692122927E9, 0.0, 2022-09-19 17:48:12.122
20.0, -45385.59709615673, -37798.56566173621, -49048.399811792355, -43350.33665303429, -59926.502099812285, 187500.0, -39485.27300182259, -43112.15646411854, 0.774, -0.636, 0.22, 192.0, 0.0, 0.0, 0.0, 0.0, 0.0, 0.0, 0.0, 0.0, 0.0, 1.663591692126933E9, 0.0, 2022-09-19 17:48:12.126
21.0, -45409.17818655708, -37867.36433116965, -49087.87299250043, -43408.38413338472, -59981.84501908362, 187500.0, -39313.321031727915, -43180.30693296277, 0.774, -0.636, 0.22, 192.0, 0.0, 0.0, 0.0, 0.0, 0.0, 0.0, 0.0, 0.0, 0.0, 1.6635916921309288E9, 0.0, 2022-09-19 17:48:12.130
22.0, -45420.6222797182, -37826.39358358307, -49127.39087669741, -43393.83314774432, -59987.29884473072, 187500.0, -39534.26802566863, -43133.97176670692, 0.774, -0.636, 0.22, 192.0, 0.0, 0.0, 0.0, 0.0, 0.0, 0.0, 0.0, 0.0, 0.0, 1.6635916921349325E9, 0.0, 2022-09-19 17:48:12.134
23.0, -45373.01306402839, -37735.824315050166, -49083.1344226759, -43331.225911525005, -59931.21831789235, 187500.0, -39733.9808623768, -43060.76980361579, 0.774, -0.636, 0.22, 192.0, 0.0, 0.0, 0.0, 0.0, 0.0, 0.0, 0.0, 0.0, 0.0, 1.6635916921379473E9, 0.0, 2022-09-19 17:48:12.137
24.0, -45343.50876134739, -37656.00623560027, -49052.80310545005, -43319.2230247525, -59925.47391956734, 187500.0, -39647.054928190104, -43065.68718739595, 0.776, -0.636, 0.216, 192.0, 24.0, 64.0, 236.0, 32.0, 6.0, 192.0, 0.0, 0.0, 0.0, 1.663591692141925E9, 0.0, 2022-09-19 17:48:12.141
25.0, -45371.448441916524, -37686.71753248185, -49064.694233500275, -43357.04217637088, -59962.04137349622, 187500.0, -39486.904679167834, -43123.019411923815, 0.776, -0.636, 0.216, 192.0, 0.0, 0.0, 0.0, 0.0, 0.0, 0.0, 0.0, 0.0, 0.0, 1.6635916921459565E9, 0.0, 2022-09-19 17:48:12.145
26.0, -45371.04611051633, -37703.7495617568, -49083.67086454283, -43403.243232160006, -60010.70112117543, 187500.0, -39346.49102049959, -43175.56836313824, 0.776, -0.636, 0.216, 192.0, 0.0, 0.0, 0.0, 0.0, 0.0, 0.0, 0.0, 0.0, 0.0, 1.6635916921499944E9, 0.0, 2022-09-19 17:48:12.149
27.0, -45384.524212422875, -37719.84281776462, -49101.97694325173, -43376.91287719165, -59996.44070821294, 187500.0, -39559.190220736295, -43112.759961218835, 0.776, -0.636, 0.216, 192.0, 0.0, 0.0, 0.0, 0.0, 0.0, 0.0, 0.0, 0.0, 0.0, 1.663591692154969E9, 0.0, 2022-09-19 17:48:12.154
28.0, -45372.78954658384, -37705.13536991303, -49068.3822713354, -43324.25216725495, -59940.0472569522, 187500.0, -39715.719487156806, -43046.73290809785, 0.776, -0.636, 0.216, 192.0, 0.0, 0.0, 0.0, 0.0, 0.0, 0.0, 0.0, 0.0, 0.0, 1.663591692158981E9, 0.0, 2022-09-19 17:48:12.158
29.0, -45351.51068586239, -37698.36279134307, -49041.47077101121, -43325.66032715563, -59928.40199809099, 187500.0, -39648.0607566906, -43061.99914956083, 0.776, -0.636, 0.216, 192.0, 0.0, 0.0, 0.0, 0.0, 0.0, 0.0, 0.0, 0.0, 0.0, 1.663591692163E9, 0.0, 2022-09-19 17:48:12.163
30.0, -45353.58939809673, -37711.81854150516, -49047.86336992543, -43364.26178982995, -59952.74304780282, 187500.0, -39483.90954541082, -43118.75022873285, 0.776, -0.636, 0.216, 192.0, 0.0, 0.0, 0.0, 0.0, 0.0, 0.0, 0.0, 0.0, 0.0, 1.663591692167117E9, 0.0, 2022-09-19 17:48:12.167
31.0, -45386.893497335135, -37751.336425702146, -49085.92839073281, -43416.34135441081, -60001.089871059645, 187500.0, -39353.64357872529, -43171.7909183253, 0.776, -0.636, 0.216, 192.0, 0.0, 0.0, 0.0, 0.0, 0.0, 0.0, 0.0, 0.0, 0.0, 1.6635916921699872E9, 0.0, 2022-09-19 17:48:12.169
32.0, -45423.41624777511, -37770.46951895589, -49117.91373704836, -43395.26365938946, -59988.0588040422, 187500.0, -39602.12792183494, -43117.76675197682, 0.776, -0.636, 0.216, 192.0, 0.0, 0.0, 0.0, 0.0, 0.0, 0.0, 0.0, 0.0, 0.0, 1.6635916921740167E9, 0.0, 2022-09-19 17:48:12.174
33.0, -45404.64078243265, -37738.08184124015, -49081.27922788611, -43340.25601628495, -59923.46226256636, 187500.0, -39750.029414895704, -43057.037062291754, 0.776, -0.636, 0.216, 192.0, 0.0, 0.0, 0.0, 0.0, 0.0, 0.0, 0.0, 0.0, 0.0, 1.663591692179005E9, 0.0, 2022-09-19 17:48:12.179
34.0, -45369.50384014891, -37714.59015781763, -49051.93138741629, -43331.89646385866, -59911.884058938514, 187500.0, -39645.02091944467, -43067.05064380773, 0.776, -0.636, 0.216, 192.0, 0.0, 0.0, 0.0, 0.0, 0.0, 0.0, 0.0, 0.0, 0.0, 1.6635916921830792E9, 0.0, 2022-09-19 17:48:12.183
35.0, -45346.25802591539, -37711.617375805065, -49042.90128265635, -43354.5834844808, -59934.77224526075, 187500.0, -39450.94072233924, -43107.41789429401, 0.782, -0.642, 0.218, 192.0, 24.0, 112.0, 235.0, 240.0, 6.0, 208.0, 0.0, 0.0, 0.0, 1.6635916921870184E9, 0.0, 2022-09-19 17:48:12.187
36.0, -45372.297808205825, -37739.98173951885, -49077.18885865079, -43400.40456061418, -59986.270664485775, 187500.0, -39324.58631093339, -43154.02128148333, 0.782, -0.642, 0.218, 192.0, 0.0, 0.0, 0.0, 0.0, 0.0, 0.0, 0.0, 0.0, 0.0, 1.6635916921910317E9, 0.0, 2022-09-19 17:48:12.191
37.0, -45399.3657707412, -37761.417062451495, -49110.64942010039, -43379.8409557153, -59979.855713827106, 187500.0, -39581.60902042497, -43098.16427208952, 0.782, -0.642, 0.218, 192.0, 0.0, 0.0, 0.0, 0.0, 0.0, 0.0, 0.0, 0.0, 0.0, 1.663591692194028E9, 0.0, 2022-09-19 17:48:12.194
38.0, -45385.53004092337, -37745.681434354956, -49074.394890593874, -43329.08014405729, -59927.01618993476, 187500.0, -39723.43083899389, -43047.51521915379, 0.782, -0.642, 0.218, 192.0, 0.0, 0.0, 0.0, 0.0, 0.0, 0.0, 0.0, 0.0, 0.0, 1.6635916921980262E9, 0.0, 2022-09-19 17:48:12.198
39.0, -45371.40373842761, -37723.866131766576, -49046.94694840276, -43323.6263184102, -59920.78005323173, 187500.0, -39631.16283788238, -43055.83006809116, 0.782, -0.642, 0.218, 192.0, 0.0, 0.0, 0.0, 0.0, 0.0, 0.0, 0.0, 0.0, 0.0, 1.6635916922020664E9, 0.0, 2022-09-19 17:48:12.202
40.0, -45343.21818866947, -37707.45995133638, -49040.06261111052, -43352.63888271319, -59950.82079777966, 187500.0, -39439.67544313377, -43106.255603582336, 0.782, -0.642, 0.218, 192.0, 0.0, 0.0, 0.0, 0.0, 0.0, 0.0, 0.0, 0.0, 0.0, 1.6635916922061288E9, 0.0, 2022-09-19 17:48:12.206
41.0, -45357.43389814304, -37731.86805628158, -49079.11110867395, -43392.13441516572, -59992.03741455525, 187500.0, -39326.530912701004, -43142.7336505334, 0.782, -0.642, 0.218, 192.0, 0.0, 0.0, 0.0, 0.0, 0.0, 0.0, 0.0, 0.0, 0.0, 1.6635916922110507E9, 0.0, 2022-09-19 17:48:12.211
42.0, -45377.93044780856, -37746.7096145999, -49098.467719372245, -43363.81475494084, -59967.13757123204, 187500.0, -39598.17166306635, -43081.55692595922, 0.782, -0.642, 0.218, 192.0, 0.0, 0.0, 0.0, 0.0, 0.0, 0.0, 0.0, 0.0, 0.0, 1.6635916922150583E9, 0.0, 2022-09-19 17:48:12.215
43.0, -45377.662226875094, -37736.24899819482, -49067.91288470184, -43323.4251527101, -59916.39911131849, 187500.0, -39738.942949645876, -43040.09443999463, 0.782, -0.642, 0.218, 192.0, 0.0, 0.0, 0.0, 0.0, 0.0, 0.0, 0.0, 0.0, 0.0, 1.6635916922190855E9, 0.0, 2022-09-19 17:48:12.219
44.0, -45387.02760780187, -37724.84960852261, -49046.54461700256, -43333.595196437265, -59914.834489206616, 187500.0, -39636.39314608493, -43066.76007112981, 0.782, -0.642, 0.218, 192.0, 0.0, 0.0, 0.0, 0.0, 0.0, 0.0, 0.0, 0.0, 0.0, 1.6635916922220948E9, 0.0, 2022-09-19 17:48:12.222
45.0, -45360.965473766984, -37718.99345147532, -49033.737067429676, -43365.5358392639, -59936.51568132826, 187500.0, -39440.413050700794, -43120.91834794502, 0.78, -0.65, 0.222, 192.0, 24.0, 96.0, 235.0, 176.0, 6.0, 240.0, 0.0, 0.0, 0.0, 1.6635916922260773E9, 0.0, 2022-09-19 17:48:12.226
46.0, -45365.34641568022, -37740.4064226635, -49073.74669000467, -43404.09259844931, -59979.833362082645, 187500.0, -39358.538610761, -43156.12234546213, 0.78, -0.65, 0.222, 192.0, 0.0, 0.0, 0.0, 0.0, 0.0, 0.0, 0.0, 0.0, 0.0, 1.6635916922300656E9, 0.0, 2022-09-19 17:48:12.230
47.0, -45389.776872369875, -37743.13333548705, -49098.15479494987, -43365.20056309707, -59947.87036751156, 187500.0, -39618.93643366533, -43083.590934704655, 0.78, -0.65, 0.222, 192.0, 0.0, 0.0, 0.0, 0.0, 0.0, 0.0, 0.0, 0.0, 0.0, 1.6635916922340882E9, 0.0, 2022-09-19 17:48:12.234
48.0, -45368.162735481594, -37711.215044404875, -49063.084907899494, -43324.2745189994, -59892.25922730676, 187500.0, -39714.37838248949, -43043.13427724055, 0.78, -0.65, 0.222, 192.0, 0.0, 0.0, 0.0, 0.0, 0.0, 0.0, 0.0, 0.0, 0.0, 1.663591692239111E9, 0.0, 2022-09-19 17:48:12.239
49.0, -45352.225941684956, -37698.631012276535, -49038.85561690994, -43327.49317020097, -59887.3865470155, 187500.0, -39615.71778246377, -43060.881562338065, 0.78, -0.65, 0.222, 192.0, 0.0, 0.0, 0.0, 0.0, 0.0, 0.0, 0.0, 0.0, 0.0, 1.6635916922430973E9, 0.0, 2022-09-19 17:48:12.243
50.0, -45337.92082523356, -37726.77185854576, -49040.017907621615, -43362.63011248471, -59913.67219849494, 187500.0, -39415.96024226669, -43114.59280426417, 0.78, -0.65, 0.222, 192.0, 0.0, 0.0, 0.0, 0.0, 0.0, 0.0, 0.0, 0.0, 0.0, 1.6635916922471085E9, 0.0, 2022-09-19 17:48:12.247
51.0, -45372.38721518365, -37760.74651011783, -49104.681504330816, -43407.914746751165, -59957.593376349614, 187500.0, -39341.439526252696, -43158.24576118538, 0.78, -0.65, 0.222, 192.0, 0.0, 0.0, 0.0, 0.0, 0.0, 0.0, 0.0, 0.0, 0.0, 1.6635916922501504E9, 0.0, 2022-09-19 17:48:12.250
52.0, -45395.47656720598, -37735.15376271651, -49117.86903355945, -43370.02853989942, -59929.96662020286, 187500.0, -39621.03749764413, -43083.63563819357, 0.78, -0.65, 0.222, 192.0, 0.0, 0.0, 0.0, 0.0, 0.0, 0.0, 0.0, 0.0, 0.0, 1.663591692254127E9, 0.0, 2022-09-19 17:48:12.254
53.0, -45348.090868960724, -37698.25103262079, -49043.39302103437, -43325.99560332246, -59878.57995970011, 187500.0, -39726.11304832853, -43045.503562152815, 0.78, -0.65, 0.222, 192.0, 0.0, 0.0, 0.0, 0.0, 0.0, 0.0, 0.0, 0.0, 0.0, 1.6635916922581513E9, 0.0, 2022-09-19 17:48:12.258
54.0, -45324.57683379374, -37680.7943202012, -49022.382381246374, -43329.817751624316, -59877.95411085536, 187500.0, -39612.92381440685, -43068.145879286036, 0.78, -0.65, 0.222, 192.0, 0.0, 0.0, 0.0, 0.0, 0.0, 0.0, 0.0, 0.0, 0.0, 1.663591692262146E9, 0.0, 2022-09-19 17:48:12.262
55.0, -45326.90141521709, -37693.15483488498, -49029.06555283851, -43364.775879952416, -59906.18436410241, 187500.0, -39405.76784679507, -43122.68413575699, 0.772, -0.63, 0.23, 192.0, 24.0, 32.0, 236.0, 80.0, 7.0, 48.0, 0.0, 0.0, 0.0, 1.6635916922671475E9, 0.0, 2022-09-19 17:48:12.267
56.0, -45357.79152605433, -37734.03617549374, -49069.164582391335, -43404.65139206069, -59943.15414943149, 187500.0, -39358.22568633863, -43156.12234546213, 0.772, -0.63, 0.23, 192.0, 0.0, 0.0, 0.0, 0.0, 0.0, 0.0, 0.0, 0.0, 0.0, 1.6635916922711442E9, 0.0, 2022-09-19 17:48:12.271
57.0, -45386.1111862792, -37758.19841124993, -49091.181050679814, -43362.76422295144, -59910.74411997129, 187500.0, -39651.50292533671, -43079.411158491515, 0.772, -0.63, 0.23, 192.0, 0.0, 0.0, 0.0, 0.0, 0.0, 0.0, 0.0, 0.0, 0.0, 1.6635916922751439E9, 0.0, 2022-09-19 17:48:12.275
58.0, -45342.65939505809, -37718.45700960839, -49045.49408501317, -43314.5738619058, -59863.648994403964, 187500.0, -39724.34726051656, -43037.21106495989, 0.772, -0.63, 0.23, 192.0, 0.0, 0.0, 0.0, 0.0, 0.0, 0.0, 0.0, 0.0, 0.0, 1.6635916922781715E9, 0.0, 2022-09-19 17:48:12.278
59.0, -45332.087019930725, -37687.96923017135, -49027.23270979318, -43319.267728241415, -59864.878340349, 187500.0, -39610.12984634994, -43057.037062291754, 0.772, -0.63, 0.23, 192.0, 0.0, 0.0, 0.0, 0.0, 0.0, 0.0, 0.0, 0.0, 0.0, 1.6635916922822013E9, 0.0, 2022-09-19 17:48:12.282
60.0, -45327.86254022867, -37691.076122650644, -49027.925613871295, -43358.070356615826, -59902.60808498956, 187500.0, -39416.11670447787, -43114.570452519714, 0.772, -0.63, 0.23, 192.0, 0.0, 0.0, 0.0, 0.0, 0.0, 0.0, 0.0, 0.0, 0.0, 1.6635916922861843E9, 0.0, 2022-09-19 17:48:12.286
61.0, -45350.43780212853, -37721.74271604332, -49076.630065039404, -43397.632944301724, -59954.039448981224, 187500.0, -39387.30530587499, -43147.18164768001, 0.772, -0.63, 0.23, 192.0, 0.0, 0.0, 0.0, 0.0, 0.0, 0.0, 0.0, 0.0, 0.0, 1.6635916922901833E9, 0.0, 2022-09-19 17:48:12.290
62.0, -45361.658377845095, -37724.76020154479, -49089.95170473477, -43351.409536768144, -59916.6896839964, 187500.0, -39667.52912611117, -43066.08951879615, 0.772, -0.63, 0.23, 192.0, 0.0, 0.0, 0.0, 0.0, 0.0, 0.0, 0.0, 0.0, 0.0, 1.663591692294202E9, 0.0, 2022-09-19 17:48:12.294
63.0, -45346.92857824905, -37703.861320479074, -49065.09656490047, -43319.334783474784, -59874.86957012053, 187500.0, -39726.001289606254, -43039.66975684998, 0.772, -0.63, 0.23, 192.0, 0.0, 0.0, 0.0, 0.0, 0.0, 0.0, 0.0, 0.0, 0.0, 1.663591692299199E9, 0.0, 2022-09-19 17:48:12.299
64.0, -45356.271607431365, -37707.19173040292, -49068.96341669124, -43339.78662965139, -59889.53231448321, 187500.0, -39614.421381285356, -43077.26539102381, 0.772, -0.63, 0.23, 192.0, 0.0, 0.0, 0.0, 0.0, 0.0, 0.0, 0.0, 0.0, 0.0, 1.6635916923032155E9, 0.0, 2022-09-19 17:48:12.303
65.0, -45317.759551734875, -37702.07318092265, -49034.16175057433, -43376.42113881363, -59922.09880615459, 187500.0, -39388.15467216429, -43138.95620572045, 0.774, -0.626, 0.232, 192.0, 24.0, 48.0, 236.0, 112.0, 7.0, 64.0, 0.0, 0.0, 0.0, 1.6635916923062308E9, 0.0, 2022-09-19 17:48:12.306
66.0, -45346.772116037864, -37732.22568419286, -49076.71947201723, -43404.4949298495, -59955.31349841518, 187500.0, -39387.215898897164, -43153.4848396164, 0.774, -0.626, 0.232, 192.0, 0.0, 0.0, 0.0, 0.0, 0.0, 0.0, 0.0, 0.0, 0.0, 1.6635916923102248E9, 0.0, 2022-09-19 17:48:12.310
67.0, -45350.057822472794, -37722.905006755, -49085.883687243906, -43348.52616173341, -59905.51381176875, 187500.0, -39680.47078615079, -43063.58612341715, 0.774, -0.626, 0.232, 192.0, 0.0, 0.0, 0.0, 0.0, 0.0, 0.0, 0.0, 0.0, 0.0, 1.6635916923142276E9, 0.0, 2022-09-19 17:48:12.314
68.0, -45318.810083724275, -37686.739884226314, -49042.96833788972, -43306.884861813174, -59861.57028216962, 187500.0, -39721.26271978173, -43033.76889631378, 0.774, -0.626, 0.232, 192.0, 0.0, 0.0, 0.0, 0.0, 0.0, 0.0, 0.0, 0.0, 0.0, 1.6635916923182347E9, 0.0, 2022-09-19 17:48:12.318
69.0, -45325.806179738785, -37688.57272727165, -49031.81481740651, -43319.67005964161, -59872.76850614173, 187500.0, -39589.00744783967, -43064.234324006364, 0.774, -0.626, 0.232, 192.0, 0.0, 0.0, 0.0, 0.0, 0.0, 0.0, 0.0, 0.0, 0.0, 1.663591692322251E9, 0.0, 2022-09-19 17:48:12.322
70.0, -45319.97237443595, -37707.728172269846, -49033.98293661868, -43362.3842432957, -59910.52060252674, 187500.0, -39368.55219227698, -43125.120475902615, 0.774, -0.626, 0.232, 192.0, 0.0, 0.0, 0.0, 0.0, 0.0, 0.0, 0.0, 0.0, 0.0, 1.663591692327243E9, 0.0, 2022-09-19 17:48:12.327
71.0, -45354.12583996366, -37742.5074866423, -49077.36767260643, -43393.520223321946, -59948.317402400666, 187500.0, -39390.45690184318, -43141.124324932614, 0.774, -0.626, 0.232, 192.0, 0.0, 0.0, 0.0, 0.0, 0.0, 0.0, 0.0, 0.0, 0.0, 1.663591692331266E9, 0.0, 2022-09-19 17:48:12.331
72.0, -45368.252142459416, -37735.84666679462, -49079.155812162855, -43351.364833279236, -59909.87240193754, 187500.0, -39694.93236481337, -43065.910704840506, 0.774, -0.626, 0.232, 192.0, 0.0, 0.0, 0.0, 0.0, 0.0, 0.0, 0.0, 0.0, 0.0, 1.663591692334288E9, 0.0, 2022-09-19 17:48:12.334
73.0, -45325.82853148324, -37688.55037552719, -49028.99849760515, -43313.5233299164, -59860.028011802206, 187500.0, -39716.94883310185, -43037.747506826825, 0.774, -0.626, 0.232, 192.0, 0.0, 0.0, 0.0, 0.0, 0.0, 0.0, 0.0, 0.0, 0.0, 1.6635916923382804E9, 0.0, 2022-09-19 17:48:12.338
74.0, -45313.06568539926, -37681.26370683476, -49022.44943647974, -43327.49317020097, -59874.824866631614, 187500.0, -39588.87333737294, -43068.74937638633, 0.774, -0.626, 0.232, 192.0, 0.0, 0.0, 0.0, 0.0, 0.0, 0.0, 0.0, 0.0, 0.0, 1.6635916923423915E9, 0.0, 2022-09-19 17:48:12.342
75.0, -45323.32513610424, -37693.89244245201, -49034.51937848561, -43365.49113577499, -59911.48172753832, 187500.0, -39379.61630578236, -43124.65108926906, 0.772, -0.628, 0.23, 192.0, 24.0, 32.0, 236.0, 96.0, 7.0, 48.0, 0.0, 0.0, 0.0, 1.66359169234632E9, 0.0, 2022-09-19 17:48:12.346
76.0, -45352.67297657406, -37740.24996045232, -49073.344358604474, -43387.909935463664, -59939.89079474101, 187500.0, -39412.96510850968, -43126.05924916974, 0.772, -0.628, 0.23, 192.0, 0.0, 0.0, 0.0, 0.0, 0.0, 0.0, 0.0, 0.0, 0.0, 1.6635916923503141E9, 0.0, 2022-09-19 17:48:12.350
77.0, -45354.43876438603, -37735.48903888334, -49071.44446032578, -43329.66128941313, -59885.397241758976, 187500.0, -39694.03829503516, -43037.97102427138, 0.772, -0.628, 0.23, 192.0, 0.0, 0.0, 0.0, 0.0, 0.0, 0.0, 0.0, 0.0, 0.0, 1.6635916923553028E9, 0.0, 2022-09-19 17:48:12.355
78.0, -45327.10258091719, -37681.219003345854, -49038.207416320736, -43299.59819312074, -59846.661668617926, 187500.0, -39706.979955074785, -43028.49388462232, 0.772, -0.628, 0.23, 192.0, 0.0, 0.0, 0.0, 0.0, 0.0, 0.0, 0.0, 0.0, 0.0, 1.663591692359312E9, 0.0, 2022-09-19 17:48:12.359
79.0, -45314.36208657767, -37673.105320108574, -49030.2725470391, -43315.46793168401, -59856.83171234509, 187500.0, -39583.50891870367, -43063.250847250325, 0.772, -0.628, 0.23, 192.0, 0.0, 0.0, 0.0, 0.0, 0.0, 0.0, 0.0, 0.0, 0.0, 1.663591692362311E9, 0.0, 2022-09-19 17:48:12.362
80.0, -45324.24155762691, -37683.29771558019, -49012.86053810842, -43349.50963848944, -59888.83941040509, 187500.0, -39378.45401507068, -43115.419818809016, 0.772, -0.628, 0.23, 192.0, 0.0, 0.0, 0.0, 0.0, 0.0, 0.0, 0.0, 0.0, 0.0, 1.663591692366404E9, 0.0, 2022-09-19 17:48:12.366
81.0, -45373.43774717304, -37720.312204398186, -49067.37644283491, -43368.08393813181, -59918.81309971966, 187500.0, -39430.89120756283, -43115.35276357565, 0.772, -0.628, 0.23, 192.0, 0.0, 0.0, 0.0, 0.0, 0.0, 0.0, 0.0, 0.0, 0.0, 1.6635916923703327E9, 0.0, 2022-09-19 17:48:12.370
82.0, -45363.64768310162, -37717.585291574636, -49062.90609394385, -43323.20163526555, -59880.30104402317, 187500.0, -39712.54553944415, -43044.520085396776, 0.772, -0.628, 0.23, 192.0, 0.0, 0.0, 0.0, 0.0, 0.0, 0.0, 0.0, 0.0, 0.0, 1.663591692374329E9, 0.0, 2022-09-19 17:48:12.374
83.0, -45314.02681041084, -37688.30450633818, -49011.60884041892, -43292.4679866395, -59841.23019471529, 187500.0, -39715.98770809027, -43026.72809681036, 0.772, -0.628, 0.23, 192.0, 0.0, 0.0, 0.0, 0.0, 0.0, 0.0, 0.0, 0.0, 0.0, 1.6635916923783321E9, 0.0, 2022-09-19 17:48:12.378
84.0, -45297.419464280545, -37671.65245671898, -48994.73327335516, -43300.15698673212, -59849.79091284167, 187500.0, -39582.748959392185, -43053.50548666781, 0.772, -0.628, 0.23, 192.0, 0.0, 0.0, 0.0, 0.0, 0.0, 0.0, 0.0, 0.0, 0.0, 1.6635916923833718E9, 0.0, 2022-09-19 17:48:12.383
85.0, -45322.67693551504, -37688.1927476159, -49016.68268641028, -43352.57182747982, -59905.178535601925, 187500.0, -39381.91853546126, -43128.07090617072, 0.774, -0.638, 0.228, 192.0, 24.0, 48.0, 236.0, 16.0, 7.0, 32.0, 0.0, 0.0, 0.0, 1.6635916923874793E9, 0.0, 2022-09-19 17:48:12.387
86.0, -45372.23075297246, -37718.72523054186, -49057.40756480784, -43363.926513663115, -59927.28441086822, 187500.0, -39465.73757716866, -43110.59184200667, 0.774, -0.638, 0.228, 192.0, 0.0, 0.0, 0.0, 0.0, 0.0, 0.0, 0.0, 0.0, 0.0, 1.6635916923904135E9, 0.0, 2022-09-19 17:48:12.390
87.0, -45372.25310471691, -37714.67956479544, -49045.6281954799, -43308.18126299158, -59873.21554103083, 187500.0, -39737.42303102291, -43030.77376255677, 0.774, -0.638, 0.228, 192.0, 0.0, 0.0, 0.0, 0.0, 0.0, 0.0, 0.0, 0.0, 0.0, 1.663591692394375E9, 0.0, 2022-09-19 17:48:12.394
88.0, -45297.57592649173, -37678.87207017804, -48998.93540131276, -43282.767329545895, -59840.425531914894, 187500.0, -39709.505702198236, -43020.71547755188, 0.774, -0.638, 0.228, 192.0, 0.0, 0.0, 0.0, 0.0, 0.0, 0.0, 0.0, 0.0, 0.0, 1.6635916923984773E9, 0.0, 2022-09-19 17:48:12.398
89.0, -45284.835432152206, -37673.954686397876, -48990.39703493083, -43299.397027420644, -59859.22334900181, 187500.0, -39558.989055036196, -43053.41607968999, 0.774, -0.638, 0.228, 192.0, 0.0, 0.0, 0.0, 0.0, 0.0, 0.0, 0.0, 0.0, 0.0, 1.6635916924024174E9, 0.0, 2022-09-19 17:48:12.402
90.0, -45316.46315055647, -37700.5979657886, -49021.37655274589, -43353.868228658226, -59914.1415851285, 187500.0, -39355.94580840419, -43125.43340032499, 0.774, -0.638, 0.228, 192.0, 0.0, 0.0, 0.0, 0.0, 0.0, 0.0, 0.0, 0.0, 0.0, 1.6635916924064157E9, 0.0, 2022-09-19 17:48:12.406
91.0, -45351.39892714011, -37714.076067695154, -49057.8769514414, -43361.17724909511, -59932.55942255967, 187500.0, -39448.21380951569, -43110.68124898449, 0.774, -0.638, 0.228, 192.0, 0.0, 0.0, 0.0, 0.0, 0.0, 0.0, 0.0, 0.0, 0.0, 1.6635916924104297E9, 0.0, 2022-09-19 17:48:12.410
92.0, -45331.63998504162, -37701.290869866716, -49036.240462808666, -43305.81197807932, -59882.312701024144, 187500.0, -39699.022734048696, -43033.27715793576, 0.774, -0.638, 0.228, 192.0, 0.0, 0.0, 0.0, 0.0, 0.0, 0.0, 0.0, 0.0, 0.0, 1.663591692415481E9, 0.0, 2022-09-19 17:48:12.415
93.0, -45308.64003999711, -37679.02853238923, -49017.66616316631, -43292.60209710623, -59863.80545661515, 187500.0, -39694.35121945754, -43033.0089370023, 0.774, -0.638, 0.228, 192.0, 0.0, 0.0, 0.0, 0.0, 0.0, 0.0, 0.0, 0.0, 0.0, 1.6635916924184468E9, 0.0, 2022-09-19 17:48:12.418
94.0, -45300.3922462931, -37672.88180266402, -49012.72642764168, -43311.98105954898, -59878.31173876664, 187500.0, -39547.70142408627, -43071.25277176533, 0.774, -0.638, 0.228, 192.0, 0.0, 0.0, 0.0, 0.0, 0.0, 0.0, 0.0, 0.0, 0.0, 1.6635916924225063E9, 0.0, 2022-09-19 17:48:12.422
95.0, -45321.604051781185, -37690.517329039256, -49006.02090430509, -43357.62332172672, -59922.88111721053, 187500.0, -39342.57946521991, -43134.86583648513, 0.768, -0.636, 0.234, 192.0, 24.0, 0.0, 236.0, 32.0, 7.0, 80.0, 0.0, 0.0, 0.0, 1.6635916924264688E9, 0.0, 2022-09-19 17:48:12.426
96.0, -45366.911037792095, -37727.487114368334, -49061.16265787633, -43372.80015621187, -59951.55840534668, 187500.0, -39477.62870521888, -43124.494627057866, 0.768, -0.636, 0.234, 192.0, 0.0, 0.0, 0.0, 0.0, 0.0, 0.0, 0.0, 0.0, 0.0, 1.6635916924304707E9, 0.0, 2022-09-19 17:48:12.430
97.0, -45362.17246796757, -37711.46091359388, -49047.46103852523, -43316.31729797331, -59901.80342218917, 187500.0, -39739.546446746164, -43047.20229473142, 0.768, -0.636, 0.234, 192.0, 0.0, 0.0, 0.0, 0.0, 0.0, 0.0, 0.0, 0.0, 0.0, 1.6635916924345005E9, 0.0, 2022-09-19 17:48:12.434
98.0, -45292.83735666721, -37678.916773666955, -49006.78086361657, -43294.25612619593, -59883.09501208008, 187500.0, -39684.78467283066, -43040.47441965037, 0.768, -0.636, 0.234, 192.0, 0.0, 0.0, 0.0, 0.0, 0.0, 0.0, 0.0, 0.0, 0.0, 1.6635916924384575E9, 0.0, 2022-09-19 17:48:12.438
99.0, -45303.61089749466, -37685.86816619255, -49007.920802583794, -43326.599100422754, -59915.8403177071, 187500.0, -39539.69949957127, -43087.323676028696, 0.768, -0.636, 0.234, 192.0, 0.0, 0.0, 0.0, 0.0, 0.0, 0.0, 0.0, 0.0, 0.0, 1.6635916924425218E9, 0.0, 2022-09-19 17:48:12.442
100.0, -45322.654583770585, -37702.833140234135, -49022.605898690934, -43368.37451080972, -59958.934481016935, 187500.0, -39347.83212516691, -43146.645205813074, 0.768, -0.636, 0.234, 192.0, 0.0, 0.0, 0.0, 0.0, 0.0, 0.0, 0.0, 0.0, 0.0, 1.663591692445512E9, 0.0, 2022-09-19 17:48:12.445
101.0, -45354.08113647475, -37719.239320664325, -49060.5815125205, -43359.590275238785, -59964.187140963935, 187500.0, -39484.40128378884, -43109.58601350618, 0.768, -0.636, 0.234, 192.0, 0.0, 0.0, 0.0, 0.0, 0.0, 0.0, 0.0, 0.0, 0.0, 1.6635916924495068E9, 0.0, 2022-09-19 17:48:12.449
102.0, -45349.990767239426, -37704.353058857094, -49045.98582339118, -43308.29302171386, -59916.55557352967, 187500.0, -39733.73499318779, -43039.200370216415, 0.768, -0.636, 0.234, 192.0, 0.0, 0.0, 0.0, 0.0, 0.0, 0.0, 0.0, 0.0, 0.0, 1.6635916924544835E9, 0.0, 2022-09-19 17:48:12.454
103.0, -45328.89072047362, -37691.925488939945, -49010.290087496054, -43302.32510594429, -59904.53033501272, 187500.0, -39694.48532992427, -43049.2586552213, 0.768, -0.636, 0.234, 192.0, 0.0, 0.0, 0.0, 0.0, 0.0, 0.0, 0.0, 0.0, 0.0, 1.6635916924584863E9, 0.0, 2022-09-19 17:48:12.458
104.0, -45306.18134810703, -37681.39781730149, -48996.05202627803, -43318.284251485384, -59917.24847760779, 187500.0, -39549.17663922031, -43084.015617849305, 0.768, -0.636, 0.234, 192.0, 0.0, 0.0, 0.0, 0.0, 0.0, 0.0, 0.0, 0.0, 0.0, 1.6635916924624927E9, 0.0, 2022-09-19 17:48:12.462
105.0, -45324.35331634919, -37700.106227410586, -49013.732256142175, -43362.92068516263, -59962.73427757434, 187500.0, -39359.09740437238, -43145.59467382368, 0.762, -0.632, 0.234, 192.0, 23.0, 208.0, 236.0, 64.0, 7.0, 80.0, 0.0, 0.0, 0.0, 1.6635916924665496E9, 0.0, 2022-09-19 17:48:12.466
106.0, -45360.80901155579, -37730.72811731436, -49062.14613463237, -43364.150031107674, -59977.799353337214, 187500.0, -39520.58875806198, -43114.212824608425, 0.762, -0.632, 0.234, 192.0, 0.0, 0.0, 0.0, 0.0, 0.0, 0.0, 0.0, 0.0, 0.0, 1.6635916924705896E9, 0.0, 2022-09-19 17:48:12.470
107.0, -45344.24636891441, -37718.65817530849, -49038.408582020835, -43310.7740653484, -59921.02592242073, 187500.0, -39742.228656080806, -43042.73194584036, 0.762, -0.632, 0.234, 192.0, 0.0, 0.0, 0.0, 0.0, 0.0, 0.0, 0.0, 0.0, 0.0, 1.6635916924736085E9, 0.0, 2022-09-19 17:48:12.473
108.0, -45316.284336600824, -37695.88174770853, -49007.54082292805, -43298.83823380926, -59905.446756535384, 187500.0, -39686.05872226461, -43053.37137620108, 0.762, -0.632, 0.234, 192.0, 0.0, 0.0, 0.0, 0.0, 0.0, 0.0, 0.0, 0.0, 0.0, 1.6635916924786055E9, 0.0, 2022-09-19 17:48:12.478
109.0, -45308.64003999711, -37687.05280864869, -48998.913049568306, -43318.61952765221, -59926.367989345556, 187500.0, -39522.62276680741, -43095.92909764399, 0.762, -0.632, 0.234, 192.0, 0.0, 0.0, 0.0, 0.0, 0.0, 0.0, 0.0, 0.0, 0.0, 1.663591692482566E9, 0.0, 2022-09-19 17:48:12.482
110.0, -45324.42037158256, -37714.143122928515, -49025.75749465913, -43364.977045652515, -59976.145324247525, 187500.0, -39339.74079367409, -43156.56938035123, 0.762, -0.632, 0.234, 192.0, 0.0, 0.0, 0.0, 0.0, 0.0, 0.0, 0.0, 0.0, 0.0, 1.6635916924866354E9, 0.0, 2022-09-19 17:48:12.486
111.0, -45353.2541219299, -37760.411233951, -49064.135439888894, -43352.23655131299, -59975.519475402776, 187500.0, -39520.946385973264, -43106.81439719372, 0.762, -0.632, 0.234, 192.0, 0.0, 0.0, 0.0, 0.0, 0.0, 0.0, 0.0, 0.0, 0.0, 1.6635916924905636E9, 0.0, 2022-09-19 17:48:12.490
112.0, -45341.385345624134, -37751.068204768686, -49053.80893395054, -43297.18420471957, -59917.85197470808, 187500.0, -39741.46869676933, -43034.08182073615, 0.762, -0.632, 0.234, 192.0, 0.0, 0.0, 0.0, 0.0, 0.0, 0.0, 0.0, 0.0, 0.0, 1.663591692494562E9, 0.0, 2022-09-19 17:48:12.494
113.0, -45312.14926387659, -37664.11991883754, -49000.03063679107, -43281.85090802323, -59894.36029128556, 187500.0, -39673.80996630311, -43039.44623940543, 0.762, -0.632, 0.234, 192.0, 0.0, 0.0, 0.0, 0.0, 0.0, 0.0, 0.0, 0.0, 0.0, 1.663591692498544E9, 0.0, 2022-09-19 17:48:12.498
114.0, -45300.50400501538, -37649.25600877476, -48985.904334295315, -43304.448521667546, -59912.08522463861, 187500.0, -39508.42940907829, -43083.14389981555, 0.762, -0.632, 0.234, 192.0, 0.0, 0.0, 0.0, 0.0, 0.0, 0.0, 0.0, 0.0, 0.0, 1.6635916925015912E9, 0.0, 2022-09-19 17:48:12.501
115.0, -45319.72650524694, -37687.47749179334, -49017.35323874393, -43357.80213568237, -59963.44953339691, 187500.0, -39340.4336977522, -43146.15346743506, 0.776, -0.636, 0.23, 192.0, 24.0, 64.0, 236.0, 32.0, 7.0, 48.0, 0.0, 0.0, 0.0, 1.6635916925056334E9, 0.0, 2022-09-19 17:48:12.505
116.0, -45362.79831681232, -37722.23445442134, -49065.61065502294, -43355.18698158109, -59971.69732710092, 187500.0, -39543.40988915085, -43110.34597281766, 0.776, -0.636, 0.23, 192.0, 0.0, 0.0, 0.0, 0.0, 0.0, 0.0, 0.0, 0.0, 0.0, 1.6635916925106E9, 0.0, 2022-09-19 17:48:12.510
117.0, -45345.520418348366, -37697.82634947614, -49039.41441052132, -43304.56028038982, -59918.589582275104, 187500.0, -39732.75151643175, -43043.98364352985, 0.776, -0.636, 0.23, 192.0, 0.0, 0.0, 0.0, 0.0, 0.0, 0.0, 0.0, 0.0, 0.0, 1.663591692514587E9, 0.0, 2022-09-19 17:48:12.514
118.0, -45309.33294407522, -37675.631067232025, -49009.820700862496, -43294.61375410721, -59906.25141933578, 187500.0, -39661.38239638596, -43047.1575912425, 0.776, -0.636, 0.23, 192.0, 0.0, 0.0, 0.0, 0.0, 0.0, 0.0, 0.0, 0.0, 0.0, 1.6635916925186388E9, 0.0, 2022-09-19 17:48:12.518
119.0, -45305.42138879554, -37682.13542486852, -49004.97037231569, -43324.31922248832, -59933.65465803798, 187500.0, -39499.75693222963, -43091.794024919756, 0.776, -0.636, 0.23, 192.0, 0.0, 0.0, 0.0, 0.0, 0.0, 0.0, 0.0, 0.0, 0.0, 1.6635916925226505E9, 0.0, 2022-09-19 17:48:12.522
120.0, -45321.760513992376, -37710.56684381567, -49030.83134065048, -43376.510545791454, -59984.08019352915, 187500.0, -39338.51144772905, -43152.47901111592, 0.776, -0.636, 0.23, 192.0, 0.0, 0.0, 0.0, 0.0, 0.0, 0.0, 0.0, 0.0, 0.0, 1.6635916925265815E9, 0.0, 2022-09-19 17:48:12.526
121.0, -45341.653566557594, -37727.7553353018, -49068.5834370355, -43357.89154266018, -59974.33483294664, 187500.0, -39529.887083755384, -43101.360571546626, 0.776, -0.636, 0.23, 192.0, 0.0, 0.0, 0.0, 0.0, 0.0, 0.0, 0.0, 0.0, 0.0, 1.6635916925297616E9, 0.0, 2022-09-19 17:48:12.529
122.0, -45321.894624459106, -37707.59406180311, -49038.87796865439, -43303.733265844974, -59913.82866070612, 187500.0, -39709.975088831794, -43037.36752717108, 0.776, -0.636, 0.23, 192.0, 0.0, 0.0, 0.0, 0.0, 0.0, 0.0, 0.0, 0.0, 0.0, 1.663591692533642E9, 0.0, 2022-09-19 17:48:12.533
123.0, -45303.52149051685, -37682.64951499099, -49007.7643403726, -43298.502957642435, -59898.405957031966, 187500.0, -39637.778954241156, -43046.531742397754, 0.776, -0.636, 0.23, 192.0, 0.0, 0.0, 0.0, 0.0, 0.0, 0.0, 0.0, 0.0, 0.0, 1.663591692538636E9, 0.0, 2022-09-19 17:48:12.538
124.0, -45289.77516767683, -37679.43086378943, -49003.42810194827, -43327.29200450087, -59919.46130030887, 187500.0, -39469.13504232586, -43094.18566157647, 0.776, -0.636, 0.23, 192.0, 0.0, 0.0, 0.0, 0.0, 0.0, 0.0, 0.0, 0.0, 0.0, 1.663591692542731E9, 0.0, 2022-09-19 17:48:12.542
125.0, -45322.07343841475, -37725.29664341172, -49029.33377377198, -43380.153880137674, -59969.149228233015, 187500.0, -39341.12660183032, -43150.80263028177, 0.782, -0.632, 0.23, 192.0, 24.0, 112.0, 236.0, 64.0, 7.0, 48.0, 0.0, 0.0, 0.0, 1.663591692546664E9, 0.0, 2022-09-19 17:48:12.546
126.0, -45362.5077441344, -37745.681434354956, -49064.336605588986, -43362.67481597362, -59959.985013006335, 187500.0, -39574.92584883283, -43102.29934481375, 0.782, -0.632, 0.23, 192.0, 0.0, 0.0, 0.0, 0.0, 0.0, 0.0, 0.0, 0.0, 0.0, 1.6635916925507076E9, 0.0, 2022-09-19 17:48:12.550
127.0, -45322.654583770585, -37745.97200703288, -49039.436762265774, -43312.15987350463, -59901.892829166994, 187500.0, -39729.01877510772, -43046.93407379795, 0.782, -0.632, 0.23, 192.0, 0.0, 0.0, 0.0, 0.0, 0.0, 0.0, 0.0, 0.0, 0.0, 1.6635916925537148E9, 0.0, 2022-09-19 17:48:12.553
128.0, -45294.17846133452, -37650.664168675445, -49031.479541239685, -43311.019934537406, -59895.09789885258, 187500.0, -39643.54570431062, -43060.881562338065, 0.782, -0.632, 0.23, 192.0, 0.0, 0.0, 0.0, 0.0, 0.0, 0.0, 0.0, 0.0, 0.0, 1.6635916925576956E9, 0.0, 2022-09-19 17:48:12.557
129.0, -45291.94328688899, -37634.369746967524, -48986.91016279581, -43332.745830147964, -59914.32039908414, 187500.0, -39460.52962071057, -43104.86979542611, 0.782, -0.632, 0.23, 192.0, 0.0, 0.0, 0.0, 0.0, 0.0, 0.0, 0.0, 0.0, 0.0, 1.6635916925616744E9, 0.0, 2022-09-19 17:48:12.561
130.0, -45336.75853452188, -37686.71753248185, -49024.88577662537, -43383.439586572604, -59964.611824108586, 187500.0, -39331.02361333652, -43162.89492403209, 0.782, -0.632, 0.23, 192.0, 0.0, 0.0, 0.0, 0.0, 0.0, 0.0, 0.0, 0.0, 0.0, 1.663591692566698E9, 0.0, 2022-09-19 17:48:12.566
131.0, -45361.07723248926, -37716.22183516286, -49063.10725964395, -43361.80309793986, -59950.39611463501, 187500.0, -39568.421491196335, -43105.6744582265, 0.782, -0.632, 0.23, 192.0, 0.0, 0.0, 0.0, 0.0, 0.0, 0.0, 0.0, 0.0, 0.0, 1.663591692570726E9, 0.0, 2022-09-19 17:48:12.570
132.0, -45328.13076116214, -37688.81859646065, -49030.920747628305, -43304.76144608992, -59891.1863435729, 187500.0, -39721.19566454836, -43040.00503301681, 0.782, -0.632, 0.23, 192.0, 0.0, 0.0, 0.0, 0.0, 0.0, 0.0, 0.0, 0.0, 0.0, 1.663591692574695E9, 0.0, 2022-09-19 17:48:12.574
133.0, -45297.19594683599, -37670.19959332938, -49002.198756003236, -43299.28526869837, -59887.27478829322, 187500.0, -39631.87809370495, -43048.655158121015, 0.782, -0.632, 0.23, 192.0, 0.0, 0.0, 0.0, 0.0, 0.0, 0.0, 0.0, 0.0, 0.0, 1.6635916925787125E9, 0.0, 2022-09-19 17:48:12.578
134.0, -45283.56138271825, -37667.852660161574, -48991.82754657597, -43320.877053842196, -59909.917105426444, 187500.0, -39445.84452460343, -43090.184699318976, 0.782, -0.632, 0.23, 192.0, 0.0, 0.0, 0.0, 0.0, 0.0, 0.0, 0.0, 0.0, 0.0, 1.6635916925818424E9, 0.0, 2022-09-19 17:48:12.581
135.0, -45314.71971448895, -37697.60283203159, -49027.635041193374, -43367.234571842506, -59962.68957408543, 187500.0, -39319.66892715322, -43141.86193249964, 0.788, -0.632, 0.23800000000000002, 192.0, 24.0, 160.0, 236.0, 64.0, 7.0, 112.0, 0.0, 0.0, 0.0, 1.663591692585677E9, 0.0, 2022-09-19 17:48:12.585
136.0, -45351.041299228826, -37722.61443407708, -49069.723376002716, -43344.54755122036, -59954.06180072568, 187500.0, -39577.60805816747, -43086.83193765068, 0.788, -0.632, 0.23800000000000002, 192.0, 0.0, 0.0, 0.0, 0.0, 0.0, 0.0, 0.0, 0.0, 0.0, 1.663591692589856E9, 0.0, 2022-09-19 17:48:12.589
137.0, -45331.97526120845, -37699.86035822157, -49022.98587834667, -43296.44659715254, -59901.4904977668, 187500.0, -39713.50666445574, -43036.00407075931, 0.788, -0.632, 0.23800000000000002, 192.0, 0.0, 0.0, 0.0, 0.0, 0.0, 0.0, 0.0, 0.0, 0.0, 1.6635916925991535E9, 0.0, 2022-09-19 17:48:12.599
138.0, -45308.90826093057, -37683.27536383574, -48993.36981694339, -43296.133672730175, -59892.728613940315, 187500.0, -39623.585596512035, -43049.079841265666, 0.788, -0.632, 0.23800000000000002, 192.0, 0.0, 0.0, 0.0, 0.0, 0.0, 0.0, 0.0, 0.0, 0.0, 1.663591692599182E9, 0.0, 2022-09-19 17:48:12.599
139.0, -45325.13562740513, -37697.021686675755, -48993.95096229923, -43334.981004593494, -59924.57984978913, 187500.0, -39448.54908568253, -43107.75317046084, 0.788, -0.632, 0.23800000000000002, 192.0, 0.0, 0.0, 0.0, 0.0, 0.0, 0.0, 0.0, 0.0, 0.0, 1.6635916926028187E9, 0.0, 2022-09-19 17:48:12.602
140.0, -45354.84109578623, -37725.408402133995, -49037.31334654252, -43383.10431040577, -59975.094792258125, 187500.0, -39348.39091877829, -43159.653921086065, 0.788, -0.632, 0.23800000000000002, 192.0, 0.0, 0.0, 0.0, 0.0, 0.0, 0.0, 0.0, 0.0, 0.0, 1.6635916926067934E9, 0.0, 2022-09-19 17:48:12.606
141.0, -45359.80318305531, -37730.83987603663, -49060.31329158703, -43344.368737264725, -59946.43985586642, 187500.0, -39604.31839279156, -43086.20608880593, 0.788, -0.632, 0.23800000000000002, 192.0, 0.0, 0.0, 0.0, 0.0, 0.0, 0.0, 0.0, 0.0, 0.0, 1.6635916926098523E9, 0.0, 2022-09-19 17:48:12.609
142.0, -45303.38738005011, -37693.445407562904, -49013.59814567544, -43284.08608246876, -59886.939512126395, 187500.0, -39714.2219202783, -43026.638689832536, 0.788, -0.632, 0.23800000000000002, 192.0, 0.0, 0.0, 0.0, 0.0, 0.0, 0.0, 0.0, 0.0, 0.0, 1.6635916926137955E9, 0.0, 2022-09-19 17:48:12.613
143.0, -45297.128891602624, -37666.84683166109, -48995.068549521995, -43291.12688197218, -59892.37098602903, 187500.0, -39615.38250629693, -43053.61724539009, 0.788, -0.632, 0.23800000000000002, 192.0, 0.0, 0.0, 0.0, 0.0, 0.0, 0.0, 0.0, 0.0, 0.0, 1.663591692617848E9, 0.0, 2022-09-19 17:48:12.617
144.0, -45294.73725494591, -37658.66609319045, -49004.769206615594, -43322.32991723179, -59928.42434983544, 187500.0, -39422.33048943645, -43104.53451925928, 0.788, -0.632, 0.23800000000000002, 192.0, 0.0, 0.0, 0.0, 0.0, 0.0, 0.0, 0.0, 0.0, 0.0, 1.6635916926218212E9, 0.0, 2022-09-19 17:48:12.621
145.0, -45318.474807557446, -37682.71657022436, -49020.21426203421, -43352.90710364665, -59970.42327766697, 187500.0, -39345.55224723247, -43134.46350508493, 0.788, -0.632, 0.23800000000000002, 192.0, 0.0, 0.0, 0.0, 0.0, 0.0, 0.0, 0.0, 0.0, 0.0, 1.663591692626825E9, 0.0, 2022-09-19 17:48:12.626
146.0, -45329.00247919589, -37696.21702387536, -49039.92850064379, -43318.843045096764, -59943.71294304287, 187500.0, -39618.042363887114, -43065.88835309605, 0.786, -0.622, 0.234, 192.0, 24.0, 144.0, 236.0, 144.0, 7.0, 80.0, 0.0, 0.0, 0.0, 1.663591692630813E9, 0.0, 2022-09-19 17:48:12.630
147.0, -45307.12012137415, -37671.02660787423, -48999.78476760206, -43272.776099774375, -59895.09789885258, 187500.0, -39708.49987369774, -43022.61537583058, 0.786, -0.622, 0.234, 192.0, 0.0, 0.0, 0.0, 0.0, 0.0, 0.0, 0.0, 0.0, 0.0, 1.6635916926348224E9, 0.0, 2022-09-19 17:48:12.634
148.0, -45291.04921711078, -37659.58251471311, -48988.072453507484, -43284.89074526915, -59902.49632626728, 187500.0, -39610.50982600568, -43048.856323821106, 0.786, -0.622, 0.234, 192.0, 0.0, 0.0, 0.0, 0.0, 0.0, 0.0, 0.0, 0.0, 0.0, 1.663591692637934E9, 0.0, 2022-09-19 17:48:12.637
149.0, -45300.3922462931, -37673.06061661967, -48984.74204358364, -43323.71572538802, -59932.53707081522, 187500.0, -39411.266375931074, -43103.68515296998, 0.786, -0.622, 0.234, 192.0, 0.0, 0.0, 0.0, 0.0, 0.0, 0.0, 0.0, 0.0, 0.0, 1.6635916926420424E9, 0.0, 2022-09-19 17:48:12.642
150.0, -45341.63121481314, -37709.56101531518, -49024.148169058346, -43367.10046137577, -59981.040356283236, 187500.0, -39349.91083740126, -43139.85027549866, 0.786, -0.622, 0.234, 192.0, 0.0, 0.0, 0.0, 0.0, 0.0, 0.0, 0.0, 0.0, 0.0, 1.6635916926459775E9, 0.0, 2022-09-19 17:48:12.645
151.0, -45357.00921499839, -37725.07312596716, -49044.75647744614, -43328.968385335014, -59956.38638214903, 187500.0, -39623.54089302312, -43066.04481530724, 0.786, -0.622, 0.234, 192.0, 0.0, 0.0, 0.0, 0.0, 0.0, 0.0, 0.0, 0.0, 0.0, 1.6635916926498077E9, 0.0, 2022-09-19 17:48:12.649
152.0, -45319.7488569914, -37692.73015174033, -49012.65937240832, -43288.2658586819, -59915.929724684924, 187500.0, -39701.101446283035, -43028.918567766974, 0.786, -0.622, 0.234, 192.0, 0.0, 0.0, 0.0, 0.0, 0.0, 0.0, 0.0, 0.0, 0.0, 1.6635916926538508E9, 0.0, 2022-09-19 17:48:12.653
153.0, -45293.10557760067, -37655.87212513353, -48989.57002038599, -43286.99180924795, -59915.639152007, 187500.0, -39589.65564842888, -43038.775687071764, 0.786, -0.622, 0.234, 192.0, 0.0, 0.0, 0.0, 0.0, 0.0, 0.0, 0.0, 0.0, 0.0, 1.6635916926588755E9, 0.0, 2022-09-19 17:48:12.658
154.0, -45292.56913573374, -37666.042168860695, -48983.22212496068, -43327.783742878884, -59955.44760888191, 187500.0, -39398.10119844689, -43101.71819945791, 0.786, -0.622, 0.234, 192.0, 0.0, 0.0, 0.0, 0.0, 0.0, 0.0, 0.0, 0.0, 0.0, 1.6635916926628163E9, 0.0, 2022-09-19 17:48:12.662
155.0, -45338.792543267315, -37706.92350946945, -49030.4737127392, -43364.73117646351, -60000.28520825925, 187500.0, -39358.292741572, -43134.03882194028, 0.786, -0.622, 0.234, 192.0, 0.0, 0.0, 0.0, 0.0, 0.0, 0.0, 0.0, 0.0, 0.0, 1.663591692665953E9, 0.0, 2022-09-19 17:48:12.665
156.0, -45330.2988803743, -37693.35600058508, -49034.38526801888, -43313.97036480551, -59955.29114667072, 187500.0, -39652.93343698185, -43053.95252155692, 0.776, -0.626, 0.234, 192.0, 24.0, 64.0, 236.0, 112.0, 7.0, 80.0, 0.0, 0.0, 0.0, 1.66359169266994E9, 0.0, 2022-09-19 17:48:12.669
157.0, -45291.63036246662, -37655.06746233314, -48992.94513379874, -43275.03362596436, -59910.207678104365, 187500.0, -39723.31908027161, -43023.44239037543, 0.776, -0.626, 0.234, 192.0, 0.0, 0.0, 0.0, 0.0, 0.0, 0.0, 0.0, 0.0, 0.0, 1.6635916926738288E9, 0.0, 2022-09-19 17:48:12.673
158.0, -45289.797519421285, -37656.743843167285, -48980.517563881585, -43287.32708541478, -59915.68385549592, 187500.0, -39598.26107004417, -43050.15272499952, 0.776, -0.626, 0.234, 192.0, 0.0, 0.0, 0.0, 0.0, 0.0, 0.0, 0.0, 0.0, 0.0, 1.6635916926778905E9, 0.0, 2022-09-19 17:48:12.677
159.0, -45301.398074793586, -37680.391988801006, -48997.281372223064, -43332.969347592516, -59957.92865251645, 187500.0, -39396.290707146014, -43116.91738568752, 0.776, -0.626, 0.234, 192.0, 0.0, 0.0, 0.0, 0.0, 0.0, 0.0, 0.0, 0.0, 0.0, 1.6635916926819177E9, 0.0, 2022-09-19 17:48:12.681
160.0, -45334.16573216507, -37707.862282736576, -49020.03544807857, -43366.00522589746, -60002.34156874914, 187500.0, -39372.21787836765, -43137.436287097495, 0.776, -0.626, 0.234, 192.0, 0.0, 0.0, 0.0, 0.0, 0.0, 0.0, 0.0, 0.0, 0.0, 1.6635916926869526E9, 0.0, 2022-09-19 17:48:12.686
161.0, -45328.1978163955, -37694.40653257448, -49036.35222153094, -43317.300774729345, -59963.31542293017, 187500.0, -39644.953864211304, -43051.292663966735, 0.776, -0.626, 0.234, 192.0, 0.0, 0.0, 0.0, 0.0, 0.0, 0.0, 0.0, 0.0, 0.0, 1.6635916926910024E9, 0.0, 2022-09-19 17:48:12.691
162.0, -45302.649772483084, -37663.06938684814, -48999.91887806879, -43284.64487608014, -59923.708131755375, 187500.0, -39689.076207766084, -43029.72323056737, 0.776, -0.626, 0.234, 192.0, 0.0, 0.0, 0.0, 0.0, 0.0, 0.0, 0.0, 0.0, 0.0, 1.6635916926939943E9, 0.0, 2022-09-19 17:48:12.693
163.0, -45287.71880718694, -37653.12286056553, -48978.014168502596, -43295.910155285615, -59929.988971947314, 187500.0, -39583.77713963713, -43064.99428331784, 0.776, -0.626, 0.234, 192.0, 0.0, 0.0, 0.0, 0.0, 0.0, 0.0, 0.0, 0.0, 0.0, 1.6635916926979365E9, 0.0, 2022-09-19 17:48:12.697
164.0, -45292.70324620047, -37663.00233161478, -48981.54574412653, -43334.981004593494, -59965.61765260907, 187500.0, -39392.17798616624, -43122.97470843491, 0.776, -0.626, 0.234, 192.0, 0.0, 0.0, 0.0, 0.0, 0.0, 0.0, 0.0, 0.0, 0.0, 1.6635916927020082E9, 0.0, 2022-09-19 17:48:12.702
