%OpenBCI Raw EEG Data
%Number of channels = 8
%Sample Rate = 250 Hz
%Board = OpenBCI_GUI$BoardCytonSerial
Sample Index, EXG Channel 0, EXG Channel 1, EXG Channel 2, EXG Channel 3, EXG Channel 4, EXG Channel 5, EXG Channel 6, EXG Channel 7, Accel Channel 0, Accel Channel 1, Accel Channel 2, Other, Other, Other, Other, Other, Other, Other, Analog Channel 0, Analog Channel 1, Analog Channel 2, Timestamp, Other, Timestamp (Formatted)
142.0, 15885.273025664454, -85252.43672757587, -14232.741502850236, -5965.881760821553, -56.90754138321178, 5321.10098851931, -8875.006005168678, -39838.78819212773, 0.0, 0.0, 0.0, 192.0, 0.0, 0.0, 0.0, 0.0, 0.0, 0.0, 0.0, 0.0, 0.0, 1.6635859790799108E9, 0.0, 2022-09-19 16:12:59.079
143.0, 15826.666751702638, -85591.46798747397, -14253.372162982485, -5995.721339669388, -197.72353145164627, 5341.284613762452, -9092.600237441093, -39815.02828777174, 0.0, 0.0, 0.0, 192.0, 0.0, 0.0, 0.0, 0.0, 0.0, 0.0, 0.0, 0.0, 0.0, 1.6635859790799475E9, 0.0, 2022-09-19 16:12:59.079
144.0, 15758.806855536326, -86012.79837045651, -14266.872616633489, -6031.886462198075, -367.66384454534585, 5391.151355642242, -9322.599687886202, -39786.596868824585, 0.0, 0.0, 0.0, 192.0, 0.0, 0.0, 0.0, 0.0, 0.0, 0.0, 0.0, 0.0, 0.0, 1.66358597907997E9, 0.0, 2022-09-19 16:12:59.079
0.0, 0.0, 0.0, 0.0, 0.0, 0.0, 0.0, 0.0, 0.0, 0.0, 0.0, 0.0, 192.0, 0.0, 0.0, 0.0, 0.0, 0.0, 0.0, 0.0, 0.0, 0.0, 1.6635859791848807E9, 0.0, 2022-09-19 16:12:59.184
2.0, 14719.33897964227, -71787.07531536523, -15001.194477223693, -6274.715813960531, 5277.157458920176, -69189.64614744738, 2969.853934032194, -37884.46341567796, 0.0, 0.0, 0.0, 192.0, 0.0, 0.0, 0.0, 0.0, 0.0, 0.0, 0.0, 0.0, 0.0, 1.6635859791969116E9, 0.0, 2022-09-19 16:12:59.196
3.0, 14738.852052551754, -71767.51753896684, -14986.062346227449, -6268.278511557402, 5279.414985110162, -69268.61486060797, 2994.7537773554063, -37878.093168508196, 0.0, 0.0, 0.0, 192.0, 0.0, 0.0, 0.0, 0.0, 0.0, 0.0, 0.0, 0.0, 0.0, 1.6635859792008781E9, 0.0, 2022-09-19 16:12:59.200
4.0, 14736.348657172759, -71747.35626546816, -14978.775677535019, -6264.590473722276, 5283.326540389841, -69342.06269288811, 3022.402885246621, -37879.09899700868, 0.0, 0.0, 0.0, 192.0, 0.0, 0.0, 0.0, 0.0, 0.0, 0.0, 0.0, 0.0, 0.0, 1.6635859792058697E9, 0.0, 2022-09-19 16:12:59.205
5.0, 14718.243744163961, -71744.67405613352, -14994.935988776208, -6262.042374854372, 5265.869827970246, -69472.37336306255, 2987.444756918521, -37877.802595830275, 0.0, 0.0, 0.0, 192.0, 0.0, 0.0, 0.0, 0.0, 0.0, 0.0, 0.0, 0.0, 0.0, 1.6635859792099376E9, 0.0, 2022-09-19 16:12:59.209
6.0, 14699.803554988332, -71743.75763461085, -15003.183782480215, -6260.947139376061, 5243.451028281574, -69618.35260610016, 2940.930776707027, -37870.06889224874, 0.0, 0.0, 0.0, 192.0, 0.0, 0.0, 0.0, 0.0, 0.0, 0.0, 0.0, 0.0, 0.0, 1.6635859792139373E9, 0.0, 2022-09-19 16:12:59.213
7.0, 14708.543087070357, -71735.21926822893, -14992.25377944157, -6252.85580788324, 5232.185749076099, -69735.8110232128, 2929.441980056999, -37865.77735731332, 0.0, 0.0, 0.0, 192.0, 0.0, 0.0, 0.0, 0.0, 0.0, 0.0, 0.0, 0.0, 0.0, 1.6635859792170155E9, 0.0, 2022-09-19 16:12:59.217
8.0, 14716.813232518822, -71715.95206450846, -14983.693061315187, -6258.600206208254, 5231.448141509073, -69820.14415504267, 2952.1960559125014, -37882.83173833272, 0.6, -0.674, 0.48, 192.0, 18.0, 192.0, 234.0, 240.0, 15.0, 0.0, 0.0, 0.0, 0.0, 1.6635859792209935E9, 0.0, 2022-09-19 16:12:59.220
9.0, 14729.352561158248, -71688.30295661723, -14975.82524726692, -6259.337813775279, 5242.1099236142545, -69885.90298723019, 2988.383530185644, -37874.78511032881, 0.6, -0.674, 0.48, 192.0, 0.0, 0.0, 0.0, 0.0, 0.0, 0.0, 0.0, 0.0, 0.0, 1.6635859792249665E9, 0.0, 2022-09-19 16:12:59.224
10.0, 14726.022151234407, -71689.80052349574, -14993.170200964238, -6256.0074038514385, 5224.295583283375, -70014.09024168138, 2952.620739057152, -37844.90082799207, 0.6, -0.674, 0.48, 192.0, 0.0, 0.0, 0.0, 0.0, 0.0, 0.0, 0.0, 0.0, 0.0, 1.6635859792290072E9, 0.0, 2022-09-19 16:12:59.229
11.0, 14718.19904067505, -71693.84618924215, -14994.82423005393, -6253.995746850461, 5205.006027818445, -70162.72934230916, 2901.1670233210357, -37846.0854704482, 0.6, -0.674, 0.48, 192.0, 0.0, 0.0, 0.0, 0.0, 0.0, 0.0, 0.0, 0.0, 0.0, 1.6635859792329888E9, 0.0, 2022-09-19 16:12:59.232
12.0, 14713.304008639338, -71688.48177057288, -14982.39666013678, -6254.129857317193, 5196.490013180973, -70286.334489147, 2884.559677190742, -37851.13696469509, 0.6, -0.674, 0.48, 192.0, 0.0, 0.0, 0.0, 0.0, 0.0, 0.0, 0.0, 0.0, 0.0, 1.6635859792379873E9, 0.0, 2022-09-19 16:12:59.237
13.0, 14720.970656987509, -71673.14847387654, -14965.76696226203, -6251.76057240493, 5199.395739960163, -70375.58500475706, 2903.8939361445828, -37854.40031938557, 0.6, -0.674, 0.48, 192.0, 0.0, 0.0, 0.0, 0.0, 0.0, 0.0, 0.0, 0.0, 0.0, 1.6635859792419376E9, 0.0, 2022-09-19 16:12:59.241
14.0, 14725.86568902322, -71652.51781374429, -14952.24415686657, -6247.893720614162, 5208.6493621646605, -70448.07171202562, 2937.287442360812, -37857.23899093139, 0.6, -0.674, 0.48, 192.0, 0.0, 0.0, 0.0, 0.0, 0.0, 0.0, 0.0, 0.0, 0.0, 1.6635859792449963E9, 0.0, 2022-09-19 16:12:59.244
15.0, 14719.24957266445, -71649.00858986481, -14963.084752927394, -6248.47486597, 5199.462795193529, -70570.89454780752, 2910.24183156989, -37855.45085137497, 0.6, -0.674, 0.48, 192.0, 0.0, 0.0, 0.0, 0.0, 0.0, 0.0, 0.0, 0.0, 0.0, 1.6635859792489896E9, 0.0, 2022-09-19 16:12:59.248
16.0, 14713.885153995176, -71648.00276136432, -14969.432648352702, -6247.334927002779, 5186.275265964898, -70718.28195074582, 2861.2691594683124, -37860.90467702207, 0.6, -0.674, 0.48, 192.0, 0.0, 0.0, 0.0, 0.0, 0.0, 0.0, 0.0, 0.0, 0.0, 1.6635859792529616E9, 0.0, 2022-09-19 16:12:59.252
17.0, 14709.7724330154, -71641.45370023891, -14972.897168743273, -6252.542883460866, 5178.429803661085, -70844.1669755181, 2841.7784383032845, -37877.06498826325, 0.6, -0.674, 0.48, 192.0, 0.0, 0.0, 0.0, 0.0, 0.0, 0.0, 0.0, 0.0, 0.0, 1.6635859792570145E9, 0.0, 2022-09-19 16:12:59.257
18.0, 14713.281656894882, -71631.01543557829, -14970.930215231207, -6250.6653369266205, 5174.585303614772, -70944.92863952264, 2849.5344936292763, -37868.48191839241, 0.606, -0.666, 0.47800000000000004, 192.0, 18.0, 240.0, 235.0, 48.0, 14.0, 240.0, 0.0, 0.0, 0.0, 1.6635859792609963E9, 0.0, 2022-09-19 16:12:59.260
19.0, 14721.708264554532, -71613.6034266476, -14967.041011695983, -6246.574967691299, 5175.1217454817, -71028.34534982983, 2874.8143166082286, -37870.02418875983, 0.606, -0.666, 0.47800000000000004, 192.0, 0.0, 0.0, 0.0, 0.0, 0.0, 0.0, 0.0, 0.0, 0.0, 1.6635859792660315E9, 0.0, 2022-09-19 16:12:59.266
20.0, 14718.981351730985, -71609.84833357911, -14970.81845650893, -6245.747953146452, 5160.59311158575, -71161.27117410555, 2843.119542970603, -37861.53052586681, 0.606, -0.666, 0.47800000000000004, 192.0, 0.0, 0.0, 0.0, 0.0, 0.0, 0.0, 0.0, 0.0, 0.0, 1.6635859792690973E9, 0.0, 2022-09-19 16:12:59.269
21.0, 14708.967770215007, -71617.98436856084, -14978.663918812743, -6243.602185678743, 5137.794332241337, -71326.27175167463, 2781.1828590849473, -37846.5325053373, 0.606, -0.666, 0.47800000000000004, 192.0, 0.0, 0.0, 0.0, 0.0, 0.0, 0.0, 0.0, 0.0, 0.0, 1.6635859792730603E9, 0.0, 2022-09-19 16:12:59.273
22.0, 14701.703453267033, -71614.20692374789, -14975.646433311276, -6235.354391974734, 5131.133512393655, -71462.79620680764, 2754.4278209719446, -37829.701641762455, 0.606, -0.666, 0.47800000000000004, 192.0, 0.0, 0.0, 0.0, 0.0, 0.0, 0.0, 0.0, 0.0, 0.0, 1.6635859792769828E9, 0.0, 2022-09-19 16:12:59.276
23.0, 14703.6704067791, -71603.18751373142, -14971.734878031599, -6238.193063520559, 5132.92165195008, -71570.50926333776, 2759.456963474389, -37843.000929713366, 0.606, -0.666, 0.47800000000000004, 192.0, 0.0, 0.0, 0.0, 0.0, 0.0, 0.0, 0.0, 0.0, 0.0, 1.6635859792810647E9, 0.0, 2022-09-19 16:12:59.281
24.0, 14709.504212081936, -71583.94266175541, -14964.850540739364, -6244.7421246459635, 5141.884701476658, -71654.48476725636, 2786.3908155430336, -37868.03488350331, 0.606, -0.666, 0.47800000000000004, 192.0, 0.0, 0.0, 0.0, 0.0, 0.0, 0.0, 0.0, 0.0, 0.0, 1.6635859792850173E9, 0.0, 2022-09-19 16:12:59.285
25.0, 14713.7733952729, -71588.86004553558, -14979.245064168581, -6252.878159627696, 5126.573756524773, -71794.27257707984, 2747.476428446344, -37866.85024104718, 0.606, -0.666, 0.47800000000000004, 192.0, 0.0, 0.0, 0.0, 0.0, 0.0, 0.0, 0.0, 0.0, 0.0, 1.6635859792891552E9, 0.0, 2022-09-19 16:12:59.289
26.0, 14711.6723312941, -71596.37023167255, -14979.62504382432, -6247.223168280503, 5108.692360960527, -71961.75419828347, 2684.6903782713866, -37844.811421014245, 0.606, -0.666, 0.47800000000000004, 192.0, 0.0, 0.0, 0.0, 0.0, 0.0, 0.0, 0.0, 0.0, 0.0, 1.663585979294103E9, 0.0, 2022-09-19 16:12:59.294
27.0, 14709.615970804212, -71593.55391187119, -14973.29950014347, -6236.829607108785, 5101.785671923837, -72101.34084240686, 2658.583540747588, -37826.706508005445, 0.606, -0.666, 0.47800000000000004, 192.0, 0.0, 0.0, 0.0, 0.0, 0.0, 0.0, 0.0, 0.0, 0.0, 1.6635859792970912E9, 0.0, 2022-09-19 16:12:59.297
28.0, 14703.91627596811, -71582.57920534363, -14970.371421619824, -6236.248461752947, 5100.623381212161, -72211.13261117133, 2664.9090844284397, -37838.35176686666, 0.606, -0.666, 0.48, 192.0, 18.0, 240.0, 235.0, 48.0, 15.0, 0.0, 0.0, 0.0, 0.0, 1.6635859793011365E9, 0.0, 2022-09-19 16:12:59.301
29.0, 14708.990121959463, -71565.12249292404, -14971.44430535368, -6243.602185678743, 5104.266715558376, -72300.38312678137, 2689.518355073733, -37853.550953096266, 0.606, -0.666, 0.48, 192.0, 0.0, 0.0, 0.0, 0.0, 0.0, 0.0, 0.0, 0.0, 0.0, 1.6635859793051133E9, 0.0, 2022-09-19 16:12:59.305
30.0, 14706.732595769477, -71564.67545803494, -14982.061383969949, -6246.552615946844, 5091.526221218851, -72434.2477243242, 2658.9858721477835, -37859.54122061029, 0.606, -0.666, 0.48, 192.0, 0.0, 0.0, 0.0, 0.0, 0.0, 0.0, 0.0, 0.0, 0.0, 1.6635859793091176E9, 0.0, 2022-09-19 16:12:59.309
31.0, 14691.868685706699, -71575.62781281803, -15000.3898144233, -6259.337813775279, 5066.7157848734605, -72603.27161589522, 2592.444728904334, -37874.62864811762, 0.606, -0.666, 0.48, 192.0, 0.0, 0.0, 0.0, 0.0, 0.0, 0.0, 0.0, 0.0, 0.0, 1.6635859793131187E9, 0.0, 2022-09-19 16:12:59.313
32.0, 14693.768583985398, -71570.71042903786, -14996.277093443525, -6259.986014364483, 5059.183246992022, -72740.667789062, 2566.337891380536, -37873.823985317234, 0.606, -0.666, 0.48, 192.0, 0.0, 0.0, 0.0, 0.0, 0.0, 0.0, 0.0, 0.0, 0.0, 1.663585979317119E9, 0.0, 2022-09-19 16:12:59.317
33.0, 14701.904618967132, -71556.9864579423, -14979.490933357589, -6248.407810736634, 5063.743002860904, -72847.44207232501, 2575.166830440382, -37854.042691474286, 0.606, -0.666, 0.48, 192.0, 0.0, 0.0, 0.0, 0.0, 0.0, 0.0, 0.0, 0.0, 0.0, 1.6635859793223174E9, 0.0, 2022-09-19 16:12:59.322
34.0, 14697.791897987354, -71547.15169038197, -14970.036145452994, -6247.625499680698, 5066.559322662273, -72939.37479726969, 2598.3455894405356, -37845.45962160345, 0.606, -0.666, 0.48, 192.0, 0.0, 0.0, 0.0, 0.0, 0.0, 0.0, 0.0, 0.0, 0.0, 1.6635859793253334E9, 0.0, 2022-09-19 16:12:59.325
35.0, 14693.589770029757, -71550.50445205027, -14977.881607756808, -6255.38155500669, 5057.059831268768, -73071.56301397838, 2569.4447838598235, -37856.68019732001, 0.606, -0.666, 0.48, 192.0, 0.0, 0.0, 0.0, 0.0, 0.0, 0.0, 0.0, 0.0, 0.0, 1.6635859793281183E9, 0.0, 2022-09-19 16:12:59.328
36.0, 14697.881304965176, -71554.97480094133, -14985.861180527352, -6255.493313728966, 5044.073467740234, -73233.12142290133, 2509.8326813975195, -37860.2341246884, 0.606, -0.666, 0.48, 192.0, 0.0, 0.0, 0.0, 0.0, 0.0, 0.0, 0.0, 0.0, 0.0, 1.6635859793331804E9, 0.0, 2022-09-19 16:12:59.333
37.0, 14703.782165501378, -71548.06811190463, -14985.794125293985, -6249.346584003757, 5040.296022927288, -73370.04820943454, 2483.2564572401593, -37852.16514494004, 0.606, -0.666, 0.48, 192.0, 0.0, 0.0, 0.0, 0.0, 0.0, 0.0, 0.0, 0.0, 0.0, 1.663585979337166E9, 0.0, 2022-09-19 16:12:59.337
38.0, 14705.927932969087, -71538.07688213311, -14981.279072914014, -6240.383534477179, 5042.799418306282, -73480.28701308812, 2487.592695664489, -37847.15835418205, 0.608, -0.67, 0.482, 192.0, 19.0, 0.0, 235.0, 16.0, 15.0, 16.0, 0.0, 0.0, 0.0, 1.6635859793411608E9, 0.0, 2022-09-19 16:12:59.341
39.0, 14711.448813849547, -71525.5822569826, -14977.926311245717, -6245.6808979130865, 5049.683755598517, -73565.53656644066, 2515.264155300159, -37866.49261313589, 0.608, -0.67, 0.482, 192.0, 0.0, 0.0, 0.0, 0.0, 0.0, 0.0, 0.0, 0.0, 0.0, 1.6635859793472252E9, 0.0, 2022-09-19 16:12:59.347
40.0, 14710.308874882327, -71521.7824604252, -14982.843695025886, -6250.978261348994, 5047.42622940853, -73685.56543416565, 2497.1815940358156, -37865.82206080223, 0.608, -0.67, 0.482, 192.0, 0.0, 0.0, 0.0, 0.0, 0.0, 0.0, 0.0, 0.0, 0.0, 1.6635859793501947E9, 0.0, 2022-09-19 16:12:59.350
41.0, 14699.311816610316, -71536.62401874352, -15003.20613422467, -6266.177447578603, 5024.8062640197595, -73854.70108445897, 2428.8299594914865, -37881.82590983223, 0.608, -0.67, 0.482, 192.0, 0.0, 0.0, 0.0, 0.0, 0.0, 0.0, 0.0, 0.0, 0.0, 1.663585979353197E9, 0.0, 2022-09-19 16:12:59.353
42.0, 14699.602389288235, -71534.50060302026, -14997.260570199558, -6265.350433033756, 5017.787816260793, -73992.85721693722, 2399.5491742550344, -37869.59950561518, 0.608, -0.67, 0.482, 192.0, 0.0, 0.0, 0.0, 0.0, 0.0, 0.0, 0.0, 0.0, 0.0, 1.6635859793561647E9, 0.0, 2022-09-19 16:12:59.356
43.0, 14712.365235372215, -71523.43648951489, -14969.007965208051, -6239.288298998868, 5027.108493698656, -74094.82587514233, 2412.6696482503, -37835.62485404311, 0.608, -0.67, 0.482, 192.0, 0.0, 0.0, 0.0, 0.0, 0.0, 0.0, 0.0, 0.0, 0.0, 1.6635859793612635E9, 0.0, 2022-09-19 16:12:59.361
44.0, 14719.987180231474, -71509.64546318597, -14954.948717945663, -6238.528339687388, 5038.9549182599685, -74173.99575400303, 2445.504360855146, -37853.327435651714, 0.608, -0.67, 0.482, 192.0, 0.0, 0.0, 0.0, 0.0, 0.0, 0.0, 0.0, 0.0, 0.0, 1.6635859793651624E9, 0.0, 2022-09-19 16:12:59.365
45.0, 14712.231124905484, -71504.884541617, -14961.520130815523, -6245.56913919081, 5036.540929858796, -74288.6825548032, 2432.7191630267102, -37848.90179024956, 0.608, -0.67, 0.482, 192.0, 0.0, 0.0, 0.0, 0.0, 0.0, 0.0, 0.0, 0.0, 0.0, 1.663585979369197E9, 0.0, 2022-09-19 16:12:59.369
46.0, 14708.274866136893, -71513.64642544347, -14977.032241467507, -6244.8538833682405, 5021.56526107374, -74447.82697532499, 2373.889371620342, -37848.030072215806, 0.608, -0.67, 0.482, 192.0, 0.0, 0.0, 0.0, 0.0, 0.0, 0.0, 0.0, 0.0, 0.0, 1.6635859793731954E9, 0.0, 2022-09-19 16:12:59.373
47.0, 14706.062043435819, -71513.04292834317, -14983.938930504195, -6249.57010144831, 5016.692580782483, -74586.0054595477, 2343.625109627856, -37857.93189500951, 0.608, -0.67, 0.482, 192.0, 0.0, 0.0, 0.0, 0.0, 0.0, 0.0, 0.0, 0.0, 0.0, 1.6635859793772156E9, 0.0, 2022-09-19 16:12:59.377
48.0, 14708.632494048179, -71500.03421307019, -14977.993366479084, -6254.5992439507545, 5023.599269819173, -74689.06935323111, 2351.7387928651324, -37859.25064793237, 0.614, -0.668, 0.47800000000000004, 192.0, 19.0, 48.0, 235.0, 32.0, 14.0, 240.0, 0.0, 0.0, 0.0, 1.6635859793812053E9, 0.0, 2022-09-19 16:12:59.381
49.0, 14712.76756677241, -71479.11298026002, -14966.951604718162, -6251.71586891602, 5036.026839736323, -74764.5511942567, 2387.4121770158026, -37855.428499630514, 0.614, -0.668, 0.47800000000000004, 192.0, 0.0, 0.0, 0.0, 0.0, 0.0, 0.0, 0.0, 0.0, 0.0, 1.6635859793842034E9, 0.0, 2022-09-19 16:12:59.384
50.0, 14714.846279006753, -71475.38023893598, -14973.29950014347, -6255.850941640251, 5032.808188534759, -74875.21468105492, 2377.2868367775486, -37854.042691474286, 0.614, -0.668, 0.47800000000000004, 192.0, 0.0, 0.0, 0.0, 0.0, 0.0, 0.0, 0.0, 0.0, 0.0, 1.663585979389297E9, 0.0, 2022-09-19 16:12:59.389
51.0, 14709.86183999322, -71485.08089602958, -14981.033203725006, -6254.040450339371, 5018.927755228014, -75028.92762767406, 2321.3180686614596, -37847.314816393235, 0.614, -0.668, 0.47800000000000004, 192.0, 0.0, 0.0, 0.0, 0.0, 0.0, 0.0, 0.0, 0.0, 0.0, 1.663585979393231E9, 0.0, 2022-09-19 16:12:59.393
52.0, 14706.464374836014, -71487.45018094184, -14982.039032225495, -6259.963662620028, 5012.333990613698, -75164.5356612844, 2290.0256264240297, -37861.53052586681, 0.614, -0.668, 0.47800000000000004, 192.0, 0.0, 0.0, 0.0, 0.0, 0.0, 0.0, 0.0, 0.0, 0.0, 1.6635859793972495E9, 0.0, 2022-09-19 16:12:59.397
53.0, 14712.76756677241, -71475.04496276916, -14973.366555376835, -6258.242578296969, 5022.28051689631, -75261.81045315391, 2296.9323154607196, -37853.93093275201, 0.614, -0.668, 0.47800000000000004, 192.0, 0.0, 0.0, 0.0, 0.0, 0.0, 0.0, 0.0, 0.0, 0.0, 1.6635859794012673E9, 0.0, 2022-09-19 16:12:59.401
54.0, 14716.701473796544, -71462.55033761864, -14965.588148306388, -6252.81110439433, 5035.468046124941, -75335.63826508979, 2326.391914652814, -37845.61608381463, 0.614, -0.668, 0.47800000000000004, 192.0, 0.0, 0.0, 0.0, 0.0, 0.0, 0.0, 0.0, 0.0, 0.0, 1.6635859794052012E9, 0.0, 2022-09-19 16:12:59.405
55.0, 14713.14754642815, -71459.48814862825, -14967.48804658509, -6253.682822428086, 5034.797493791281, -75439.28330412904, 2318.6805628157335, -37847.06894720423, 0.614, -0.668, 0.47800000000000004, 192.0, 0.0, 0.0, 0.0, 0.0, 0.0, 0.0, 0.0, 0.0, 0.0, 1.6635859794092555E9, 0.0, 2022-09-19 16:12:59.409
56.0, 14708.073700436797, -71472.76508483471, -14975.668785055732, -6257.5273224744, 5015.0609034372455, -75593.01860249265, 2258.1743905752173, -37845.213752414435, 0.614, -0.668, 0.47800000000000004, 192.0, 0.0, 0.0, 0.0, 0.0, 0.0, 0.0, 0.0, 0.0, 0.0, 1.663585979412272E9, 0.0, 2022-09-19 16:12:59.412
57.0, 14695.333206097272, -71480.85641632753, -14975.244101911081, -6257.5273224744, 5004.287362609788, -75732.76170882722, 2221.897509324254, -37842.86681924663, 0.614, -0.668, 0.47800000000000004, 192.0, 0.0, 0.0, 0.0, 0.0, 0.0, 0.0, 0.0, 0.0, 0.0, 1.6635859794172676E9, 0.0, 2022-09-19 16:12:59.417
58.0, 14701.256418377927, -71479.04592502666, -14970.259662897548, -6255.917996873617, 5006.790757988782, -75838.37370137856, 2224.445608192159, -37847.7842030268, 0.618, -0.668, 0.482, 192.0, 19.0, 80.0, 235.0, 32.0, 15.0, 16.0, 0.0, 0.0, 0.0, 1.6635859794212067E9, 0.0, 2022-09-19 16:12:59.421
59.0, 14712.00760746093, -71464.2714219417, -14961.453075582156, -6256.0074038514385, 5022.4593308519525, -75909.40754525752, 2260.700137698667, -37852.61217982914, 0.618, -0.668, 0.482, 192.0, 0.0, 0.0, 0.0, 0.0, 0.0, 0.0, 0.0, 0.0, 0.0, 1.663585979425285E9, 0.0, 2022-09-19 16:12:59.425
60.0, 14702.86574397871, -71465.07608474209, -14970.77375302002, -6262.869389399218, 5020.291211639787, -76011.62207265163, 2252.6311579503013, -37860.56940085523, 0.618, -0.668, 0.482, 192.0, 0.0, 0.0, 0.0, 0.0, 0.0, 0.0, 0.0, 0.0, 0.0, 1.66358597942934E9, 0.0, 2022-09-19 16:12:59.429
61.0, 14703.737462012466, -71475.06731451361, -14981.189665936194, -6265.037508611383, 5009.316505112231, -76156.5731354443, 2198.1376049682626, -37868.59367711469, 0.618, -0.668, 0.482, 192.0, 0.0, 0.0, 0.0, 0.0, 0.0, 0.0, 0.0, 0.0, 0.0, 1.6635859794323182E9, 0.0, 2022-09-19 16:12:59.432
62.0, 14701.077604422284, -71481.68343087238, -14987.336395661403, -6273.553523248855, 5003.817975976226, -76289.49895972002, 2164.3641190962935, -37879.21075573096, 0.618, -0.668, 0.482, 192.0, 0.0, 0.0, 0.0, 0.0, 0.0, 0.0, 0.0, 0.0, 0.0, 1.6635859794363172E9, 0.0, 2022-09-19 16:12:59.436
63.0, 14698.015415431908, -71481.03523028317, -14976.384040878302, -6265.015156866927, 5006.857813222148, -76391.28880396948, 2164.2970638629276, -37850.71228155044, 0.618, -0.668, 0.482, 192.0, 0.0, 0.0, 0.0, 0.0, 0.0, 0.0, 0.0, 0.0, 0.0, 1.663585979440308E9, 0.0, 2022-09-19 16:12:59.440
64.0, 14709.14658417065, -71478.48713141527, -14967.711564029643, -6261.90826438764, 5015.306772626254, -76462.79203448202, 2190.605067086824, -37839.067022689225, 0.618, -0.668, 0.482, 192.0, 0.0, 0.0, 0.0, 0.0, 0.0, 0.0, 0.0, 0.0, 0.0, 1.6635859794443645E9, 0.0, 2022-09-19 16:12:59.444
65.0, 14703.6704067791, -71487.0702012861, -14969.34324137488, -6266.780944678896, 5010.99288594638, -76556.28938153856, 2187.0064362295197, -37843.403261113555, 0.618, -0.668, 0.482, 192.0, 0.0, 0.0, 0.0, 0.0, 0.0, 0.0, 0.0, 0.0, 0.0, 1.6635859794493048E9, 0.0, 2022-09-19 16:12:59.449
66.0, 14696.450793320037, -71505.26452127272, -14982.351956647868, -6274.29113081588, 4998.051225906757, -76694.57962448355, 2132.669345458668, -37860.77056655533, 0.618, -0.668, 0.482, 192.0, 0.0, 0.0, 0.0, 0.0, 0.0, 0.0, 0.0, 0.0, 0.0, 1.6635859794533265E9, 0.0, 2022-09-19 16:12:59.453
67.0, 14686.839543204254, -71519.36847202403, -14989.415107895746, -6278.537962262388, 4990.406929303042, -76825.3373295471, 2093.1067577727745, -37864.54801136828, 0.618, -0.668, 0.482, 192.0, 0.0, 0.0, 0.0, 0.0, 0.0, 0.0, 0.0, 0.0, 0.0, 1.6635859794573443E9, 0.0, 2022-09-19 16:12:59.457
68.0, 14699.021243932397, -71526.38691978299, -14980.362651391346, -6269.463154013533, 4992.731510726394, -76923.03680456124, 2089.6869408711127, -37852.32160715123, 0.618, -0.668, 0.482, 192.0, 0.0, 0.0, 0.0, 0.0, 0.0, 0.0, 0.0, 0.0, 0.0, 1.6635859794603422E9, 0.0, 2022-09-19 16:12:59.460
69.0, 14708.297217881349, -71527.83978317259, -14964.694078528177, -6260.902435887151, 5004.197955631967, -76990.40496234954, 2117.4701592290594, -37839.60346455616, 0.606, -0.668, 0.47800000000000004, 192.0, 18.0, 240.0, 235.0, 32.0, 14.0, 240.0, 0.0, 0.0, 0.0, 1.6635859794642963E9, 0.0, 2022-09-19 16:12:59.464
70.0, 14699.512982310413, -71542.97191416883, -14974.01475596604, -6270.133706347193, 4999.772310229816, -77086.07042861824, 2108.5965166803026, -37845.683139048, 0.606, -0.668, 0.47800000000000004, 192.0, 0.0, 0.0, 0.0, 0.0, 0.0, 0.0, 0.0, 0.0, 0.0, 1.6635859794684272E9, 0.0, 2022-09-19 16:12:59.468
71.0, 14688.784144971865, -71572.20799591637, -14985.078869471416, -6279.297921573869, 4979.476926264397, -77232.49670654496, 2045.9892804609872, -37843.85029600267, 0.606, -0.668, 0.47800000000000004, 192.0, 0.0, 0.0, 0.0, 0.0, 0.0, 0.0, 0.0, 0.0, 0.0, 1.6635859794724896E9, 0.0, 2022-09-19 16:12:59.472
72.0, 14682.056269890818, -71593.26333919328, -14980.228540924614, -6280.080232629804, 4969.642158704061, -77362.24858310803, 2005.353809041239, -37846.57720882621, 0.606, -0.668, 0.47800000000000004, 192.0, 0.0, 0.0, 0.0, 0.0, 0.0, 0.0, 0.0, 0.0, 0.0, 1.6635859794773908E9, 0.0, 2022-09-19 16:12:59.477
73.0, 14685.543142025846, -71606.652034122, -14966.593976806877, -6278.426203540112, 4971.407946516031, -77454.76245340853, 2003.453910762538, -37848.92414199402, 0.606, -0.668, 0.47800000000000004, 192.0, 0.0, 0.0, 0.0, 0.0, 0.0, 0.0, 0.0, 0.0, 0.0, 1.6635859794813576E9, 0.0, 2022-09-19 16:12:59.481
74.0, 14685.029051903375, -71624.98046457535, -14961.34131685988, -6278.761479706941, 4971.095022093657, -77527.09269846592, 2021.4917685379708, -37844.29733089177, 0.606, -0.668, 0.47800000000000004, 192.0, 0.0, 0.0, 0.0, 0.0, 0.0, 0.0, 0.0, 0.0, 0.0, 1.663585979485426E9, 0.0, 2022-09-19 16:12:59.485
75.0, 14680.513999523402, -71645.6111247076, -14964.96229946164, -6283.567104764832, 4967.854019147637, -77609.79415295055, 2019.5248150259038, -37843.42561285802, 0.606, -0.668, 0.47800000000000004, 192.0, 0.0, 0.0, 0.0, 0.0, 0.0, 0.0, 0.0, 0.0, 0.0, 1.663585979488386E9, 0.0, 2022-09-19 16:12:59.488
76.0, 14668.958147640009, -71682.42444782548, -14980.5861688359, -6285.310540832346, 4946.016364814802, -77747.88323019544, 1956.0905642617422, -37837.16712441053, 0.606, -0.668, 0.47800000000000004, 192.0, 0.0, 0.0, 0.0, 0.0, 0.0, 0.0, 0.0, 0.0, 0.0, 1.6635859794924169E9, 0.0, 2022-09-19 16:12:59.492
77.0, 14664.778371426866, -71713.426317385, -14986.487029372101, -6285.0646716433375, 4933.45468443092, -77877.18807186939, 1907.296706115807, -37837.748269766365, 0.606, -0.668, 0.47800000000000004, 192.0, 0.0, 0.0, 0.0, 0.0, 0.0, 0.0, 0.0, 0.0, 0.0, 1.6635859794964232E9, 0.0, 2022-09-19 16:12:59.496
78.0, 14666.56651098329, -71738.2367537304, -14986.10704971636, -6291.077290901815, 4931.7112483634055, -77974.52991897224, 1896.4337583105278, -37853.66271181854, 0.606, -0.668, 0.47800000000000004, 192.0, 0.0, 0.0, 0.0, 0.0, 0.0, 0.0, 0.0, 0.0, 0.0, 1.663585979500429E9, 0.0, 2022-09-19 16:12:59.500
79.0, 14664.04076385984, -71754.77704462732, -14975.042936210983, -6294.430052570111, 4938.707344377916, -78037.42772786948, 1919.0760754437538, -37868.12429048113, 0.602, -0.67, 0.47600000000000003, 192.0, 18.0, 208.0, 235.0, 16.0, 14.0, 224.0, 0.0, 0.0, 0.0, 1.663585979506395E9, 0.0, 2022-09-19 16:12:59.506
80.0, 14659.726877179966, -71773.70897218096, -14977.814552523441, -6297.402834582667, 4941.434257201464, -78109.15447582657, 1923.3452586347175, -37862.35754041166, 0.602, -0.67, 0.47600000000000003, 192.0, 0.0, 0.0, 0.0, 0.0, 0.0, 0.0, 0.0, 0.0, 0.0, 1.6635859795094168E9, 0.0, 2022-09-19 16:12:59.509
81.0, 14658.89986263512, -71806.00724291889, -14982.150790947771, -6291.792546724385, 4930.526605907275, -78234.32424477629, 1869.3881475196063, -37836.72008952142, 0.602, -0.67, 0.47600000000000003, 192.0, 0.0, 0.0, 0.0, 0.0, 0.0, 0.0, 0.0, 0.0, 0.0, 1.6635859795134137E9, 0.0, 2022-09-19 16:12:59.513
82.0, 14661.492664991936, -71831.91291474258, -14974.685308299699, -6279.744956462974, 4925.631573871562, -78353.97313284554, 1825.8916528095785, -37827.891150461575, 0.602, -0.67, 0.47600000000000003, 192.0, 0.0, 0.0, 0.0, 0.0, 0.0, 0.0, 0.0, 0.0, 0.0, 1.6635859795164368E9, 0.0, 2022-09-19 16:12:59.516
83.0, 14659.637470202146, -71858.53384238886, -14969.119723930327, -6279.879066929707, 4921.921184291981, -78448.45395665812, 1813.5758416147044, -37822.90671144804, 0.602, -0.67, 0.47600000000000003, 192.0, 0.0, 0.0, 0.0, 0.0, 0.0, 0.0, 0.0, 0.0, 0.0, 1.6635859795204296E9, 0.0, 2022-09-19 16:12:59.520
84.0, 14661.537368480847, -71876.88462458666, -14965.632851795299, -6274.29113081588, 4925.318649449187, -78510.0777161214, 1830.8090365897463, -37822.28086260329, 0.602, -0.67, 0.47600000000000003, 192.0, 0.0, 0.0, 0.0, 0.0, 0.0, 0.0, 0.0, 0.0, 0.0, 1.6635859795244277E9, 0.0, 2022-09-19 16:12:59.524
85.0, 14656.217653300484, -71897.64939518564, -14966.4822180846, -6275.364014549735, 4927.710286105906, -78578.18348147672, 1838.073353537721, -37827.06413591673, 0.602, -0.67, 0.47600000000000003, 192.0, 0.0, 0.0, 0.0, 0.0, 0.0, 0.0, 0.0, 0.0, 0.0, 1.6635859795284352E9, 0.0, 2022-09-19 16:12:59.528
86.0, 14651.322621264771, -71934.14979388115, -14976.808724022952, -6279.76730820743, 4915.8638615445925, -78700.00048875815, 1785.814975001213, -37830.79687724076, 0.602, -0.67, 0.47600000000000003, 192.0, 0.0, 0.0, 0.0, 0.0, 0.0, 0.0, 0.0, 0.0, 0.0, 1.6635859795334527E9, 0.0, 2022-09-19 16:12:59.533
87.0, 14641.577260682257, -71967.85622451977, -14985.190628193694, -6279.029700640404, 4906.16320445099, -78821.83984778402, 1738.1163523335879, -37833.92612146451, 0.602, -0.67, 0.47600000000000003, 192.0, 0.0, 0.0, 0.0, 0.0, 0.0, 0.0, 0.0, 0.0, 0.0, 1.6635859795374775E9, 0.0, 2022-09-19 16:12:59.537
88.0, 14650.741475908933, -71989.64917536368, -14979.066250212938, -6275.743994205474, 4908.487785874341, -78910.5762732716, 1728.5051022178059, -37842.30802563525, 0.602, -0.67, 0.47600000000000003, 192.0, 0.0, 0.0, 0.0, 0.0, 0.0, 0.0, 0.0, 0.0, 0.0, 1.663585979540458E9, 0.0, 2022-09-19 16:12:59.540
89.0, 14660.173912069073, -72002.38966970322, -14968.940909974684, -6283.991787909483, 4922.010591269803, -78964.60043962007, 1753.3378903076518, -37865.82206080223, 0.608, -0.672, 0.47400000000000003, 192.0, 19.0, 0.0, 235.0, 0.0, 14.0, 208.0, 0.0, 0.0, 0.0, 1.6635859795444443E9, 0.0, 2022-09-19 16:12:59.544
90.0, 14663.124342337172, -72016.2030477766, -14964.649375039266, -6290.607904268254, 4934.684030375962, -79019.71984144686, 1771.7110242499143, -37854.10974670765, 0.608, -0.672, 0.47400000000000003, 192.0, 0.0, 0.0, 0.0, 0.0, 0.0, 0.0, 0.0, 0.0, 0.0, 1.6635859795485203E9, 0.0, 2022-09-19 16:12:59.548
91.0, 14665.024240615874, -72049.59655399281, -14969.902034986262, -6284.617636754231, 4926.123312249579, -79135.14424981407, 1722.850110870613, -37825.32069984922, 0.608, -0.672, 0.47400000000000003, 192.0, 0.0, 0.0, 0.0, 0.0, 0.0, 0.0, 0.0, 0.0, 0.0, 1.6635859795526226E9, 0.0, 2022-09-19 16:12:59.552
92.0, 14656.932909123054, -72085.3146416324, -14974.417087366235, -6281.868372186229, 4915.126253977568, -79257.63180942915, 1671.1281742010326, -37828.025260928305, 0.608, -0.672, 0.47400000000000003, 192.0, 0.0, 0.0, 0.0, 0.0, 0.0, 0.0, 0.0, 0.0, 0.0, 1.6635859795565207E9, 0.0, 2022-09-19 16:12:59.556
93.0, 14652.551967209813, -72107.97931051008, -14968.493875085578, -6279.9014186741615, 4917.249669700822, -79342.4790313815, 1659.1029356840772, -37835.82601974321, 0.608, -0.672, 0.47400000000000003, 192.0, 0.0, 0.0, 0.0, 0.0, 0.0, 0.0, 0.0, 0.0, 0.0, 1.663585979561514E9, 0.0, 2022-09-19 16:12:59.561
94.0, 14659.838635902242, -72119.26694146001, -14960.603709292855, -6275.229904083002, 4932.78413209726, -79388.68008717062, 1685.0086075077782, -37823.66667075952, 0.608, -0.672, 0.47400000000000003, 192.0, 0.0, 0.0, 0.0, 0.0, 0.0, 0.0, 0.0, 0.0, 0.0, 1.663585979565515E9, 0.0, 2022-09-19 16:12:59.565
95.0, 14667.795856928333, -72134.66729338972, -14951.283031854991, -6275.0287383829045, 4945.2117020144115, -79436.13284064924, 1701.5041949157949, -37821.185627124985, 0.608, -0.672, 0.47400000000000003, 192.0, 0.0, 0.0, 0.0, 0.0, 0.0, 0.0, 0.0, 0.0, 0.0, 1.663585979568474E9, 0.0, 2022-09-19 16:12:59.568
96.0, 14656.821150400776, -72167.32319203892, -14957.116837157828, -6278.180334351103, 4938.372068211087, -79541.2307430781, 1654.2973106261863, -37831.40037434106, 0.608, -0.672, 0.47400000000000003, 192.0, 0.0, 0.0, 0.0, 0.0, 0.0, 0.0, 0.0, 0.0, 0.0, 1.6635859795725136E9, 0.0, 2022-09-19 16:12:59.572
97.0, 14655.435342244547, -72197.94508194269, -14964.62702329481, -6282.33775881979, 4932.694725119439, -79650.53077346453, 1607.3809990144969, -37828.96403419543, 0.608, -0.672, 0.47400000000000003, 192.0, 0.0, 0.0, 0.0, 0.0, 0.0, 0.0, 0.0, 0.0, 0.0, 1.6635859795775354E9, 0.0, 2022-09-19 16:12:59.577
98.0, 14655.457693989003, -72221.66028280977, -14962.727125016108, -6277.420375039623, 4936.807446099216, -79729.83476279197, 1596.6745134204048, -37813.63073749909, 0.608, -0.672, 0.47400000000000003, 192.0, 0.0, 0.0, 0.0, 0.0, 0.0, 0.0, 0.0, 0.0, 0.0, 1.6635859795815365E9, 0.0, 2022-09-19 16:12:59.581
99.0, 14668.868740662187, -72236.12186147236, -14947.773807975509, -6268.434973768589, 4952.45366721793, -79776.70637091475, 1619.1380165979883, -37810.16621710852, 0.612, -0.668, 0.47600000000000003, 192.0, 19.0, 32.0, 235.0, 32.0, 14.0, 224.0, 0.0, 0.0, 0.0, 1.6635859795845227E9, 0.0, 2022-09-19 16:12:59.584
100.0, 14669.405182529115, -72256.59605939341, -14951.014810921528, -6275.743994205474, 4959.561521954718, -79826.70722326127, 1631.923214426424, -37820.35861258014, 0.612, -0.668, 0.47600000000000003, 192.0, 0.0, 0.0, 0.0, 0.0, 0.0, 0.0, 0.0, 0.0, 0.0, 1.6635859795885096E9, 0.0, 2022-09-19 16:12:59.588
101.0, 14649.936813108543, -72291.2636150436, -14964.20234015016, -6283.030662897905, 4947.268062504299, -79931.93923615686, 1580.9165335794132, -37823.33139459269, 0.612, -0.668, 0.47600000000000003, 192.0, 0.0, 0.0, 0.0, 0.0, 0.0, 0.0, 0.0, 0.0, 0.0, 1.6635859795925612E9, 0.0, 2022-09-19 16:12:59.592
102.0, 14647.23225202945, -72316.63284500038, -14960.335488359391, -6278.873238429218, 4947.379821226576, -80033.39380423949, 1537.3529836360199, -37823.01847017032, 0.612, -0.668, 0.47600000000000003, 192.0, 0.0, 0.0, 0.0, 0.0, 0.0, 0.0, 0.0, 0.0, 0.0, 1.663585979596554E9, 0.0, 2022-09-19 16:12:59.596
103.0, 14654.161292810595, -72343.79021451357, -14959.82139823692, -6279.186162851592, 4948.475056704886, -80115.67057557948, 1521.6173555394837, -37829.25460687335, 0.612, -0.668, 0.47600000000000003, 192.0, 0.0, 0.0, 0.0, 0.0, 0.0, 0.0, 0.0, 0.0, 0.0, 1.66358597960057E9, 0.0, 2022-09-19 16:12:59.600
104.0, 14661.649127203123, -72362.27510717811, -14953.920537700718, -6277.57683725081, 4958.198065542944, -80164.68795116997, 1541.6445185714388, -37831.802705741255, 0.612, -0.668, 0.47600000000000003, 192.0, 0.0, 0.0, 0.0, 0.0, 0.0, 0.0, 0.0, 0.0, 0.0, 1.6635859796055715E9, 0.0, 2022-09-19 16:12:59.605
105.0, 14662.498493492425, -72380.51413065364, -14945.784502718987, -6271.38540403669, 4970.759745926827, -80203.17765512201, 1564.1974287268436, -37818.86104570163, 0.612, -0.668, 0.47600000000000003, 192.0, 0.0, 0.0, 0.0, 0.0, 0.0, 0.0, 0.0, 0.0, 0.0, 1.6635859796085863E9, 0.0, 2022-09-19 16:12:59.608
106.0, 14653.535443965846, -72414.51113397017, -14956.043953423972, -6271.586569736787, 4965.842362146659, -80296.36207775619, 1523.6066607960058, -37811.35085956465, 0.612, -0.668, 0.47600000000000003, 192.0, 0.0, 0.0, 0.0, 0.0, 0.0, 0.0, 0.0, 0.0, 0.0, 1.6635859796115398E9, 0.0, 2022-09-19 16:12:59.611
107.0, 14646.785217140345, -72438.76277670417, -14959.441418581178, -6274.425241282612, 4965.7529551688385, -80394.21801498151, 1481.4512707532967, -37822.61613877012, 0.612, -0.668, 0.47600000000000003, 192.0, 0.0, 0.0, 0.0, 0.0, 0.0, 0.0, 0.0, 0.0, 0.0, 1.6635859796166067E9, 0.0, 2022-09-19 16:12:59.616
108.0, 14648.908632863599, -72465.74133226172, -14959.307308114447, -6274.961683149539, 4963.003690600835, -80473.1420246532, 1465.8050496345818, -37814.36834506611, 0.612, -0.668, 0.47600000000000003, 192.0, 0.0, 0.0, 0.0, 0.0, 0.0, 0.0, 0.0, 0.0, 0.0, 1.6635859796206048E9, 0.0, 2022-09-19 16:12:59.620
109.0, 14658.653993446113, -72486.39434413843, -14944.801025962954, -6269.932540647094, 4972.011443616324, -80518.29254845293, 1483.5523347320957, -37811.82024619821, 0.604, -0.668, 0.47800000000000004, 192.0, 18.0, 224.0, 235.0, 32.0, 14.0, 240.0, 0.0, 0.0, 0.0, 1.663585979624668E9, 0.0, 2022-09-19 16:12:59.624
110.0, 14649.355667752705, -72506.98030078177, -14937.71552297062, -6275.9675116500275, 4982.405004788042, -80555.30703727092, 1502.7748349636597, -37820.85035095816, 0.604, -0.668, 0.47800000000000004, 192.0, 0.0, 0.0, 0.0, 0.0, 0.0, 0.0, 0.0, 0.0, 0.0, 1.663585979628749E9, 0.0, 2022-09-19 16:12:59.628
111.0, 14635.765807123877, -72538.2727430192, -14948.377305075803, -6284.90820943215, 4977.264103563321, -80641.45066040166, 1465.7603461456713, -37829.567531295725, 0.604, -0.668, 0.47800000000000004, 192.0, 0.0, 0.0, 0.0, 0.0, 0.0, 0.0, 0.0, 0.0, 0.0, 1.6635859796326845E9, 0.0, 2022-09-19 16:12:59.632
112.0, 14644.952374095008, -72572.13563586898, -14952.132398144293, -6288.797412967374, 4972.100850594145, -80741.31825462799, 1419.1793107008114, -37834.70843252044, 0.604, -0.668, 0.47800000000000004, 192.0, 0.0, 0.0, 0.0, 0.0, 0.0, 0.0, 0.0, 0.0, 0.0, 1.6635859796366909E9, 0.0, 2022-09-19 16:12:59.636
113.0, 14649.020391585875, -72590.66523202244, -14941.403560805746, -6284.997616409972, 4984.103737366645, -80802.04794431305, 1416.7206188107275, -37836.22835114341, 0.604, -0.668, 0.47800000000000004, 192.0, 0.0, 0.0, 0.0, 0.0, 0.0, 0.0, 0.0, 0.0, 0.0, 1.6635859796396575E9, 0.0, 2022-09-19 16:12:59.639
114.0, 14651.635545687146, -72610.91591249895, -14935.636810736278, -6280.326101818812, 4993.804394460249, -80839.5765232535, 1436.926595798325, -37820.60448176914, 0.604, -0.668, 0.47800000000000004, 192.0, 0.0, 0.0, 0.0, 0.0, 0.0, 0.0, 0.0, 0.0, 0.0, 1.6635859796447744E9, 0.0, 2022-09-19 16:12:59.644
115.0, 14654.317755021782, -72627.65736909598, -14931.233517078581, -6275.945159905572, 5005.337894599187, -80864.67753227682, 1466.6320641794282, -37817.475237545405, 0.604, -0.668, 0.47800000000000004, 192.0, 0.0, 0.0, 0.0, 0.0, 0.0, 0.0, 0.0, 0.0, 0.0, 1.6635859796486804E9, 0.0, 2022-09-19 16:12:59.648
116.0, 14649.936813108543, -72657.67576189945, -14945.918613185719, -6282.047186141871, 5001.403987575053, -80942.01456809219, 1435.0714010085346, -37822.81730447022, 0.604, -0.668, 0.47800000000000004, 192.0, 0.0, 0.0, 0.0, 0.0, 0.0, 0.0, 0.0, 0.0, 0.0, 1.6635859796527414E9, 0.0, 2022-09-19 16:12:59.652
117.0, 14638.872699603166, -72694.17616059496, -14964.604671550354, -6293.29011360289, 4991.099833381157, -81041.77040359622, 1383.2377056166777, -37838.91056047804, 0.604, -0.668, 0.47800000000000004, 192.0, 0.0, 0.0, 0.0, 0.0, 0.0, 0.0, 0.0, 0.0, 0.0, 1.6635859796566615E9, 0.0, 2022-09-19 16:12:59.656
118.0, 14636.548118179813, -72721.44528883044, -14960.603709292855, -6291.7031397465635, 4994.899629938559, -81109.42913406243, 1371.927722922292, -37842.419784357524, 0.604, -0.668, 0.47800000000000004, 192.0, 0.0, 0.0, 0.0, 0.0, 0.0, 0.0, 0.0, 0.0, 0.0, 1.6635859796606889E9, 0.0, 2022-09-19 16:12:59.660
119.0, 14650.115627064184, -72738.49966984984, -14947.259717853036, -6294.273590358925, 5009.763540001338, -81140.6992245554, 1394.3465226109652, -37855.51790660834, 0.604, -0.672, 0.47200000000000003, 192.0, 18.0, 224.0, 235.0, 0.0, 14.0, 192.0, 0.0, 0.0, 0.0, 1.6635859796646883E9, 0.0, 2022-09-19 16:12:59.664
120.0, 14669.695755207034, -72743.43940537446, -14932.306400812437, -6289.9373519345945, 5037.099723470178, -81147.15887870299, 1436.703078353772, -37840.2293134009, 0.604, -0.672, 0.47200000000000003, 192.0, 0.0, 0.0, 0.0, 0.0, 0.0, 0.0, 0.0, 0.0, 0.0, 1.663585979667734E9, 0.0, 2022-09-19 16:12:59.667
121.0, 14662.744362681433, -72774.21775748942, -14940.844767194363, -6283.500049531466, 5037.479703125919, -81215.75638243633, 1412.2726216641215, -37815.932967177985, 0.604, -0.672, 0.47200000000000003, 192.0, 0.0, 0.0, 0.0, 0.0, 0.0, 0.0, 0.0, 0.0, 0.0, 1.6635859796728456E9, 0.0, 2022-09-19 16:12:59.672
122.0, 14656.105894578206, -72811.50046724087, -14946.633869008288, -6277.62154073972, 5030.66242106705, -81308.60552890367, 1365.93745540827, -37804.108894361125, 0.604, -0.672, 0.47200000000000003, 192.0, 0.0, 0.0, 0.0, 0.0, 0.0, 0.0, 0.0, 0.0, 0.0, 1.6635859796767142E9, 0.0, 2022-09-19 16:12:59.676
123.0, 14650.227385786462, -72840.55773503277, -14942.677610239698, -6275.475773272011, 5034.66338332455, -81371.27982035636, 1353.867513402404, -37816.26824334481, 0.604, -0.672, 0.47200000000000003, 192.0, 0.0, 0.0, 0.0, 0.0, 0.0, 0.0, 0.0, 0.0, 0.0, 1.6635859796807563E9, 0.0, 2022-09-19 16:12:59.680
124.0, 14644.862967117188, -72860.02610445334, -14944.801025962954, -6291.881953702206, 5047.8732642976365, -81397.20784392451, 1376.4427753022642, -37843.24679890237, 0.604, -0.672, 0.47200000000000003, 192.0, 0.0, 0.0, 0.0, 0.0, 0.0, 0.0, 0.0, 0.0, 0.0, 1.6635859796847527E9, 0.0, 2022-09-19 16:12:59.684
125.0, 14650.495606719925, -72864.45174985549, -14940.375380560803, -6296.128785148715, 5071.923741331547, -81394.92796599006, 1422.0403339910906, -37847.113650693136, 0.604, -0.672, 0.47200000000000003, 192.0, 0.0, 0.0, 0.0, 0.0, 0.0, 0.0, 0.0, 0.0, 0.0, 1.6635859796887393E9, 0.0, 2022-09-19 16:12:59.688
126.0, 14659.928042880065, -72879.09214247372, -14937.648467737255, -6292.910133947151, 5084.261904270877, -81432.25537923042, 1417.771150800127, -37835.42368834301, 0.604, -0.672, 0.47200000000000003, 192.0, 0.0, 0.0, 0.0, 0.0, 0.0, 0.0, 0.0, 0.0, 0.0, 1.6635859796927168E9, 0.0, 2022-09-19 16:12:59.692
127.0, 14654.116589321684, -72905.64601488663, -14940.084807882884, -6290.317331590335, 5084.418366482064, -81496.62840326171, 1383.41651957232, -37837.50240057736, 0.604, -0.672, 0.47200000000000003, 192.0, 0.0, 0.0, 0.0, 0.0, 0.0, 0.0, 0.0, 0.0, 0.0, 1.6635859796957836E9, 0.0, 2022-09-19 16:12:59.695
128.0, 14649.735647408444, -72928.44479423104, -14943.437569551179, -6285.779927465907, 5089.045177584312, -81536.21334269206, 1377.1356793803786, -37853.81917402973, 0.604, -0.672, 0.47200000000000003, 192.0, 0.0, 0.0, 0.0, 0.0, 0.0, 0.0, 0.0, 0.0, 0.0, 1.6635859797007043E9, 0.0, 2022-09-19 16:12:59.700
129.0, 14652.32844976526, -72940.58179147026, -14939.280145082492, -6273.307654059846, 5108.670009216072, -81537.1968194481, 1411.7138280527388, -37853.41684262954, 0.61, -0.67, 0.47000000000000003, 192.0, 19.0, 16.0, 235.0, 16.0, 14.0, 176.0, 0.0, 0.0, 0.0, 1.6635859797047029E9, 0.0, 2022-09-19 16:12:59.704
130.0, 14665.225406315973, -72947.71199795151, -14930.09357811136, -6266.535075489888, 5133.882776961658, -81515.20270290408, 1464.1510205448892, -37856.94841825347, 0.61, -0.67, 0.47000000000000003, 192.0, 0.0, 0.0, 0.0, 0.0, 0.0, 0.0, 0.0, 0.0, 0.0, 1.6635859797087824E9, 0.0, 2022-09-19 16:12:59.708
131.0, 14673.450848275525, -72967.49329179445, -14932.842842679363, -6257.057935840838, 5144.477503833474, -81537.10741247027, 1461.312348999065, -37847.82890651571, 0.61, -0.67, 0.47000000000000003, 192.0, 0.0, 0.0, 0.0, 0.0, 0.0, 0.0, 0.0, 0.0, 0.0, 1.6635859797127724E9, 0.0, 2022-09-19 16:12:59.712
132.0, 14661.649127203123, -72997.42227762012, -14943.996363162561, -6252.498179971955, 5147.785562012859, -81588.44936948412, 1428.8576160499592, -37831.467429574426, 0.61, -0.67, 0.47000000000000003, 192.0, 0.0, 0.0, 0.0, 0.0, 0.0, 0.0, 0.0, 0.0, 0.0, 1.663585979716758E9, 0.0, 2022-09-19 16:12:59.716
133.0, 14654.295403277327, -73023.26089421046, -14944.5775085184, -6249.123066559204, 5157.195646428543, -81614.55620700792, 1426.2648136931437, -37823.95724343744, 0.61, -0.67, 0.47000000000000003, 192.0, 0.0, 0.0, 0.0, 0.0, 0.0, 0.0, 0.0, 0.0, 0.0, 1.6635859797208295E9, 0.0, 2022-09-19 16:12:59.720
134.0, 14658.13990332364, -73041.45521419706, -14936.597935747855, -6248.7877903923745, 5173.244198947454, -81607.58246273786, 1457.0208140636462, -37823.30904284824, 0.61, -0.67, 0.47000000000000003, 192.0, 0.0, 0.0, 0.0, 0.0, 0.0, 0.0, 0.0, 0.0, 0.0, 1.6635859797237978E9, 0.0, 2022-09-19 16:12:59.723
135.0, 14674.456676776013, -73049.70300790107, -14931.725255456598, -6249.793618892863, 5199.999237060456, -81570.43386345315, 1510.8885182009362, -37830.66276677403, 0.61, -0.67, 0.47000000000000003, 192.0, 0.0, 0.0, 0.0, 0.0, 0.0, 0.0, 0.0, 0.0, 0.0, 1.6635859797277932E9, 0.0, 2022-09-19 16:12:59.727
136.0, 14667.52763599487, -73079.02849662644, -14946.85738645284, -6259.583682964288, 5204.558992929339, -81581.83325312534, 1506.44052105433, -37839.62581630061, 0.61, -0.67, 0.47000000000000003, 192.0, 0.0, 0.0, 0.0, 0.0, 0.0, 0.0, 0.0, 0.0, 0.0, 1.663585979732806E9, 0.0, 2022-09-19 16:12:59.732
137.0, 14655.144769566628, -73111.23736038654, -14945.024543407506, -6256.320328273813, 5207.2412022639755, -81618.31130007641, 1475.505706728185, -37830.59571154066, 0.61, -0.67, 0.47000000000000003, 192.0, 0.0, 0.0, 0.0, 0.0, 0.0, 0.0, 0.0, 0.0, 0.0, 1.6635859797368424E9, 0.0, 2022-09-19 16:12:59.736
138.0, 14656.843502145231, -73136.27131417648, -14931.09940661185, -6254.442781739567, 5220.60754544825, -81626.3132245914, 1476.3774247619422, -37834.12728716461, 0.61, -0.67, 0.47000000000000003, 192.0, 0.0, 0.0, 0.0, 0.0, 0.0, 0.0, 0.0, 0.0, 0.0, 1.6635859797408755E9, 0.0, 2022-09-19 16:12:59.740
139.0, 14662.163217325595, -73155.80673883042, -14923.790386174964, -6266.222151067514, 5236.745504944981, -81603.46974175809, 1508.1616053773887, -37855.92023800853, 0.61, -0.668, 0.47200000000000003, 192.0, 19.0, 16.0, 235.0, 32.0, 14.0, 192.0, 0.0, 0.0, 0.0, 1.6635859797448235E9, 0.0, 2022-09-19 16:12:59.744
140.0, 14661.47031324748, -73179.00784957503, -14921.152880329239, -6277.040395383882, 5250.871807440735, -81565.04709303941, 1552.1721902098884, -37863.542182867786, 0.61, -0.668, 0.47200000000000003, 192.0, 0.0, 0.0, 0.0, 0.0, 0.0, 0.0, 0.0, 0.0, 0.0, 1.6635859797488468E9, 0.0, 2022-09-19 16:12:59.748
141.0, 14655.390638755636, -73216.96111166014, -14928.998342633051, -6282.315407075335, 5255.006880164967, -81561.89549707121, 1547.7018413188268, -37844.58790356969, 0.61, -0.668, 0.47200000000000003, 192.0, 0.0, 0.0, 0.0, 0.0, 0.0, 0.0, 0.0, 0.0, 0.0, 1.663585979751927E9, 0.0, 2022-09-19 16:12:59.751
142.0, 14645.175891539562, -73267.90073727378, -14936.307363069936, -6275.229904083002, 5252.838760952802, -81587.33178226135, 1509.6144687669837, -37816.26824334481, 0.61, -0.668, 0.47200000000000003, 192.0, 0.0, 0.0, 0.0, 0.0, 0.0, 0.0, 0.0, 0.0, 0.0, 1.6635859797558267E9, 0.0, 2022-09-19 16:12:59.755
143.0, 14631.764844866377, -73323.26600828957, -14938.497834026557, -6269.485505757989, 5253.196388864087, -81590.61748869628, 1496.024608138157, -37809.11568511912, 0.61, -0.668, 0.47200000000000003, 192.0, 0.0, 0.0, 0.0, 0.0, 0.0, 0.0, 0.0, 0.0, 0.0, 1.6635859797608428E9, 0.0, 2022-09-19 16:12:59.760
144.0, 14631.22840299945, -73372.43984609126, -14931.233517078581, -6272.279473814902, 5262.338252346308, -81557.06752026887, 1514.6212595249724, -37826.706508005445, 0.61, -0.668, 0.47200000000000003, 192.0, 0.0, 0.0, 0.0, 0.0, 0.0, 0.0, 0.0, 0.0, 0.0, 1.6635859797648747E9, 0.0, 2022-09-19 16:12:59.764
145.0, 14635.519937934869, -73410.63897736538, -14922.71750244111, -6273.687633715586, 5281.136069433221, -81494.77320847193, 1559.9058937914247, -37833.702604019956, 0.61, -0.668, 0.47200000000000003, 192.0, 0.0, 0.0, 0.0, 0.0, 0.0, 0.0, 0.0, 0.0, 0.0, 1.6635859797688923E9, 0.0, 2022-09-19 16:12:59.768
146.0, 14636.481062946446, -73449.91099237335, -14925.645580964754, -6274.782869193897, 5291.417871882662, -81464.3301325238, 1567.3266729505865, -37837.122420921616, 0.61, -0.668, 0.47200000000000003, 192.0, 0.0, 0.0, 0.0, 0.0, 0.0, 0.0, 0.0, 0.0, 0.0, 1.6635859797718625E9, 0.0, 2022-09-19 16:12:59.771
147.0, 14631.273106488361, -73494.90505396189, -14932.820490934908, -6272.279473814902, 5286.969874736056, -81476.08715010728, 1535.2966231461314, -37818.27990034579, 0.61, -0.668, 0.47200000000000003, 192.0, 0.0, 0.0, 0.0, 0.0, 0.0, 0.0, 0.0, 0.0, 0.0, 1.663585979775863E9, 0.0, 2022-09-19 16:12:59.775
148.0, 14640.61613567068, -73521.1012984635, -14926.763168187521, -6267.272683056914, 5299.173927208653, -81462.98902785649, 1541.3092424046092, -37817.609348012134, 0.61, -0.668, 0.47200000000000003, 192.0, 0.0, 0.0, 0.0, 0.0, 0.0, 0.0, 0.0, 0.0, 0.0, 1.6635859797798805E9, 0.0, 2022-09-19 16:12:59.779
149.0, 14636.726932135456, -73545.79997608662, -14931.278220567492, -6277.643892484176, 5313.680209360148, -81425.54985589384, 1575.8426875880584, -37843.02328145782, 0.616, -0.672, 0.47200000000000003, 192.0, 19.0, 64.0, 235.0, 0.0, 14.0, 192.0, 0.0, 0.0, 0.0, 1.6635859797838728E9, 0.0, 2022-09-19 16:12:59.783
150.0, 14649.646240430624, -73554.31599072409, -14926.517298998511, -6281.108412874748, 5340.748171895525, -81355.38773004863, 1641.1768366309211, -37854.26620891884, 0.616, -0.672, 0.47200000000000003, 192.0, 0.0, 0.0, 0.0, 0.0, 0.0, 0.0, 0.0, 0.0, 0.0, 1.663585979788915E9, 0.0, 2022-09-19 16:12:59.788
151.0, 14657.245833545428, -73556.03707504715, -14922.114005340816, -6274.604055238254, 5368.598445486838, -81305.1410085131, 1677.9678080043566, -37844.4314413585, 0.616, -0.672, 0.47200000000000003, 192.0, 0.0, 0.0, 0.0, 0.0, 0.0, 0.0, 0.0, 0.0, 0.0, 1.663585979792903E9, 0.0, 2022-09-19 16:12:59.792
152.0, 14650.585013697746, -73573.13615955546, -14929.28891531097, -6272.257122070447, 5375.7063002236255, -81300.44714217748, 1666.4790113543286, -37831.7803539968, 0.616, -0.672, 0.47200000000000003, 192.0, 0.0, 0.0, 0.0, 0.0, 0.0, 0.0, 0.0, 0.0, 0.0, 1.6635859797969067E9, 0.0, 2022-09-19 16:12:59.796
153.0, 14652.529615465357, -73580.42282824789, -14935.301534569448, -6277.710947717542, 5388.9161811967115, -81276.77664479932, 1681.1641074614654, -37845.34786288117, 0.616, -0.672, 0.47200000000000003, 192.0, 0.0, 0.0, 0.0, 0.0, 0.0, 0.0, 0.0, 0.0, 0.0, 1.6635859797999508E9, 0.0, 2022-09-19 16:12:59.799
154.0, 14660.620946958179, -73574.54431945614, -14944.130473629293, -6293.267761858436, 5412.944306486167, -81219.98086213839, 1733.243672042331, -37868.19134571449, 0.616, -0.672, 0.47200000000000003, 192.0, 0.0, 0.0, 0.0, 0.0, 0.0, 0.0, 0.0, 0.0, 0.0, 1.6635859798039436E9, 0.0, 2022-09-19 16:12:59.803
155.0, 14679.128191367174, -73553.08664477905, -14929.020694377507, -6284.394119309678, 5452.082211027409, -81128.33870987162, 1819.9907922733776, -37857.75308105387, 0.616, -0.672, 0.47200000000000003, 192.0, 0.0, 0.0, 0.0, 0.0, 0.0, 0.0, 0.0, 0.0, 0.0, 1.6635859798079324E9, 0.0, 2022-09-19 16:12:59.807
156.0, 14684.514961780902, -73541.15081323992, -14927.657237965732, -6277.040395383882, 5477.205571795174, -81069.0842353206, 1865.3871852621062, -37850.600522828165, 0.616, -0.672, 0.47200000000000003, 192.0, 0.0, 0.0, 0.0, 0.0, 0.0, 0.0, 0.0, 0.0, 0.0, 1.6635859798118963E9, 0.0, 2022-09-19 16:12:59.811
157.0, 14688.7170897385, -73530.66784509037, -14930.607668233833, -6267.026813867905, 5498.842060427912, -81044.45261293085, 1873.0314818658212, -37834.30610112025, 0.616, -0.672, 0.47200000000000003, 192.0, 0.0, 0.0, 0.0, 0.0, 0.0, 0.0, 0.0, 0.0, 0.0, 1.6635859798179696E9, 0.0, 2022-09-19 16:12:59.817
158.0, 14694.394432830148, -73515.4463071163, -14927.210203076625, -6257.393212007668, 5525.708857263191, -81005.76174327872, 1904.1004066586981, -37834.70843252044, 0.616, -0.672, 0.47200000000000003, 192.0, 0.0, 0.0, 0.0, 0.0, 0.0, 0.0, 0.0, 0.0, 0.0, 1.6635859798209932E9, 0.0, 2022-09-19 16:12:59.820
159.0, 14710.845316749253, -73485.6961352463, -14922.784557674475, -6252.408772994134, 5561.806924558512, -80928.46941095227, 1973.323759236784, -37845.12434543662, 0.618, -0.67, 0.48, 192.0, 19.0, 80.0, 235.0, 16.0, 15.0, 0.0, 0.0, 0.0, 0.0, 1.6635859798259633E9, 0.0, 2022-09-19 16:12:59.825
160.0, 14724.971619245009, -73443.89837311488, -14911.407519746725, -6250.195950293059, 5602.643561678357, -80819.25878754363, 2072.5878563628025, -37850.42170887253, 0.618, -0.67, 0.48, 192.0, 0.0, 0.0, 0.0, 0.0, 0.0, 0.0, 0.0, 0.0, 0.0, 1.6635859798300521E9, 0.0, 2022-09-19 16:12:59.830
161.0, 14725.91039251213, -73411.22012272122, -14916.973104116096, -6257.840246896773, 5631.320849814517, -80738.83721099344, 2134.256319314995, -37858.848316532174, 0.618, -0.67, 0.48, 192.0, 0.0, 0.0, 0.0, 0.0, 0.0, 0.0, 0.0, 0.0, 0.0, 1.6635859798329887E9, 0.0, 2022-09-19 16:12:59.832
162.0, 14721.663561065623, -73384.6215468194, -14929.534784499978, -6263.294072543868, 5649.716335501234, -80700.5933762304, 2148.0473456439195, -37860.21177294395, 0.618, -0.67, 0.48, 192.0, 0.0, 0.0, 0.0, 0.0, 0.0, 0.0, 0.0, 0.0, 0.0, 1.6635859798360088E9, 0.0, 2022-09-19 16:12:59.836
163.0, 14721.261229665428, -73357.71004649521, -14935.033313635984, -6257.169694563115, 5669.989367722198, -80655.64401813078, 2183.38545362776, -37863.1398514676, 0.618, -0.67, 0.48, 192.0, 0.0, 0.0, 0.0, 0.0, 0.0, 0.0, 0.0, 0.0, 0.0, 1.663585979839974E9, 0.0, 2022-09-19 16:12:59.839
164.0, 14744.082360754295, -73311.21841802818, -14928.327790299392, -6254.688650928575, 5705.372179194949, -80572.22730782357, 2258.1296870863066, -37881.155357498574, 0.618, -0.67, 0.48, 192.0, 0.0, 0.0, 0.0, 0.0, 0.0, 0.0, 0.0, 0.0, 0.0, 1.6635859798440187E9, 0.0, 2022-09-19 16:12:59.844
165.0, 14741.176633975105, -73258.13302494682, -14921.689322196165, -6247.670203169609, 5747.371107026471, -80459.14983262419, 2360.9700633251746, -37871.43234866051, 0.618, -0.67, 0.48, 192.0, 0.0, 0.0, 0.0, 0.0, 0.0, 0.0, 0.0, 0.0, 0.0, 1.6635859798490045E9, 0.0, 2022-09-19 16:12:59.849
166.0, 14749.580889890301, -73207.90865515574, -14923.566868730411, -6238.729505387486, 5780.183467886862, -80369.29581991385, 2432.9650322157186, -37862.04461598928, 0.618, -0.67, 0.48, 192.0, 0.0, 0.0, 0.0, 0.0, 0.0, 0.0, 0.0, 0.0, 0.0, 1.6635859798519912E9, 0.0, 2022-09-19 16:12:59.851
167.0, 14762.388439463191, -73170.20126225964, -14927.411368776724, -6234.28150824088, 5796.857869250521, -80327.69922348252, 2454.2885964260813, -37853.193325184984, 0.618, -0.67, 0.48, 192.0, 0.0, 0.0, 0.0, 0.0, 0.0, 0.0, 0.0, 0.0, 0.0, 1.6635859798560524E9, 0.0, 2022-09-19 16:12:59.856
168.0, 14770.323308744826, -73122.48028784756, -14920.504679740034, -6226.391342448157, 5823.881128296987, -80269.96466755446, 2499.3497132479806, -37855.80847928625, 0.618, -0.67, 0.48, 192.0, 0.0, 0.0, 0.0, 0.0, 0.0, 0.0, 0.0, 0.0, 0.0, 1.6635859798600357E9, 0.0, 2022-09-19 16:12:59.860
169.0, 14780.44864898308, -73061.28121152893, -14914.447356992647, -6219.305839455824, 5860.49328571478, -80176.57907922019, 2582.4087956439016, -37857.30604616476, 0.618, -0.67, 0.48, 192.0, 0.0, 0.0, 0.0, 0.0, 0.0, 0.0, 0.0, 0.0, 0.0, 1.663585979864026E9, 0.0, 2022-09-19 16:12:59.864
170.0, 14792.07155609984, -72995.58943457478, -14916.52606922699, -6220.959868545517, 5898.424196055436, -80058.91949640746, 2688.6689887844313, -37864.07862473472, 0.618, -0.66, 0.47600000000000003, 192.0, 19.0, 80.0, 235.0, 96.0, 14.0, 224.0, 0.0, 0.0, 0.0, 1.6635859798680272E9, 0.0, 2022-09-19 16:12:59.868
171.0, 14794.30673054537, -72939.77712866988, -14925.422063520202, -6229.364124460712, 5924.955716723885, -79970.51834708672, 2759.099335563104, -37879.45662491997, 0.618, -0.66, 0.47600000000000003, 192.0, 0.0, 0.0, 0.0, 0.0, 0.0, 0.0, 0.0, 0.0, 0.0, 1.6635859798720365E9, 0.0, 2022-09-19 16:12:59.872
172.0, 14783.756707162465, -72892.97257578047, -14937.849633437352, -6236.181406519581, 5939.484350619835, -79933.05682337962, 2781.1158038515814, -37875.3886074291, 0.618, -0.66, 0.47600000000000003, 192.0, 0.0, 0.0, 0.0, 0.0, 0.0, 0.0, 0.0, 0.0, 0.0, 1.663585979877048E9, 0.0, 2022-09-19 16:12:59.877
173.0, 14774.972471591529, -72849.85606072618, -14944.845729451863, -6245.56913919081, 5948.827379802154, -79899.55155844112, 2809.055484420715, -37868.236049203406, 0.618, -0.66, 0.47600000000000003, 192.0, 0.0, 0.0, 0.0, 0.0, 0.0, 0.0, 0.0, 0.0, 0.0, 1.6635859798800447E9, 0.0, 2022-09-19 16:12:59.880
174.0, 14780.850980383275, -72795.07193506623, -14940.330677071892, -6242.61870892271, 5970.888551579542, -79834.57503730954, 2873.0038253073485, -37860.457642132955, 0.618, -0.66, 0.47600000000000003, 192.0, 0.0, 0.0, 0.0, 0.0, 0.0, 0.0, 0.0, 0.0, 0.0, 1.6635859798850343E9, 0.0, 2022-09-19 16:12:59.885
175.0, 14796.608960224266, -72724.0604429317, -14927.120796098805, -6225.877252325685, 6007.791281675253, -79736.69674833975, 2973.631378845141, -37847.739499537885, 0.618, -0.66, 0.47600000000000003, 192.0, 0.0, 0.0, 0.0, 0.0, 0.0, 0.0, 0.0, 0.0, 0.0, 1.6635859798890817E9, 0.0, 2022-09-19 16:12:59.889
176.0, 14802.509820760468, -72666.28118351474, -14935.636810736278, -6224.178519747081, 6029.628936008088, -79667.6522097173, 3040.6419087221516, -37850.041729216784, 0.618, -0.66, 0.47600000000000003, 192.0, 0.0, 0.0, 0.0, 0.0, 0.0, 0.0, 0.0, 0.0, 0.0, 1.6635859798920343E9, 0.0, 2022-09-19 16:12:59.892
177.0, 14802.532172504923, -72618.56020910267, -14942.81172070643, -6225.452569181034, 6036.915604700519, -79650.01668334207, 3053.494161783953, -37847.85125826016, 0.618, -0.66, 0.47600000000000003, 192.0, 0.0, 0.0, 0.0, 0.0, 0.0, 0.0, 0.0, 0.0, 0.0, 1.6635859798960893E9, 0.0, 2022-09-19 16:12:59.896
178.0, 14799.738204448011, -72570.7274759683, -14943.817549206919, -6228.782979104874, 6044.828122237697, -79635.01866281255, 3077.5446388178634, -37852.25455191786, 0.618, -0.66, 0.47600000000000003, 192.0, 0.0, 0.0, 0.0, 0.0, 0.0, 0.0, 0.0, 0.0, 0.0, 1.6635859799000864E9, 0.0, 2022-09-19 16:12:59.900
179.0, 14801.056957370873, -72526.62748415799, -14950.098389398861, -6236.516682686411, 6048.851436239653, -79607.45896189916, 3123.90215681817, -37863.72099682343, 0.618, -0.66, 0.47600000000000003, 192.0, 0.0, 0.0, 0.0, 0.0, 0.0, 0.0, 0.0, 0.0, 0.0, 1.6635859799051096E9, 0.0, 2022-09-19 16:12:59.905
180.0, 14808.075405129839, -72466.88127122895, -14949.67370625421, -6240.741162388464, 6064.877637014108, -79543.3318070569, 3205.933058969147, -37869.01836025934, 0.62, -0.666, 0.47400000000000003, 192.0, 19.0, 96.0, 235.0, 48.0, 14.0, 208.0, 0.0, 0.0, 0.0, 1.6635859799080672E9, 0.0, 2022-09-19 16:12:59.908
181.0, 14809.282399330426, -72408.29734901158, -14946.477406797101, -6241.657583911131, 6075.427660397013, -79497.55543441241, 3267.4450597101522, -37857.08252872021, 0.62, -0.666, 0.47400000000000003, 192.0, 0.0, 0.0, 0.0, 0.0, 0.0, 0.0, 0.0, 0.0, 0.0, 1.6635859799122093E9, 0.0, 2022-09-19 16:12:59.912
182.0, 14800.967550393052, -72365.96314501323, -14954.032296422994, -6237.94719433155, 6067.4704393709235, -79510.09476305185, 3271.0213388230013, -37846.95718848195, 0.62, -0.666, 0.47400000000000003, 192.0, 0.0, 0.0, 0.0, 0.0, 0.0, 0.0, 0.0, 0.0, 0.0, 1.6635859799161122E9, 0.0, 2022-09-19 16:12:59.916
183.0, 14797.614788724755, -72316.58814151146, -14958.323831358413, -6239.243595509958, 6066.285796914792, -79516.91204511072, 3289.036844853979, -37856.18845894199, 0.62, -0.666, 0.47400000000000003, 192.0, 0.0, 0.0, 0.0, 0.0, 0.0, 0.0, 0.0, 0.0, 0.0, 1.663585979920172E9, 0.0, 2022-09-19 16:12:59.920
184.0, 14800.83343992632, -72262.8545478409, -14956.759209246542, -6242.238729266969, 6071.471401628423, -79501.04230654745, 3334.7461622650817, -37859.87649677712, 0.62, -0.666, 0.47400000000000003, 192.0, 0.0, 0.0, 0.0, 0.0, 0.0, 0.0, 0.0, 0.0, 0.0, 1.663585979924147E9, 0.0, 2022-09-19 16:12:59.924
185.0, 14808.187163852117, -72208.00336694758, -14953.518206300523, -6247.580796191788, 6080.322692432725, -79462.97728574005, 3405.6905991662265, -37873.71222659495, 0.62, -0.666, 0.47400000000000003, 192.0, 0.0, 0.0, 0.0, 0.0, 0.0, 0.0, 0.0, 0.0, 0.0, 1.6635859799281728E9, 0.0, 2022-09-19 16:12:59.928
186.0, 14807.06957662935, -72159.00834310155, -14956.5803952909, -6255.00157535095, 6082.5578668782555, -79441.22903838505, 3454.3056433565193, -37871.45470040497, 0.62, -0.666, 0.47400000000000003, 192.0, 0.0, 0.0, 0.0, 0.0, 0.0, 0.0, 0.0, 0.0, 0.0, 1.6635859799331338E9, 0.0, 2022-09-19 16:12:59.933
187.0, 14790.395175265692, -72122.9773310396, -14973.634776310299, -6259.315462030824, 6066.978700992907, -79474.73430332355, 3442.928605428768, -37864.793880557285, 0.62, -0.666, 0.47400000000000003, 192.0, 0.0, 0.0, 0.0, 0.0, 0.0, 0.0, 0.0, 0.0, 0.0, 1.6635859799363022E9, 0.0, 2022-09-19 16:12:59.936
188.0, 14789.076422342829, -72082.78889450895, -14983.670709570732, -6254.867464884218, 6055.400497365057, -79508.08310605086, 3441.2969280835305, -37856.18845894199, 0.62, -0.666, 0.47400000000000003, 192.0, 0.0, 0.0, 0.0, 0.0, 0.0, 0.0, 0.0, 0.0, 0.0, 1.6635859799392009E9, 0.0, 2022-09-19 16:12:59.939
189.0, 14799.224114325538, -72033.83857415183, -14981.457886869657, -6254.442781739567, 6054.171151420016, -79512.77697238648, 3475.539800589061, -37862.24578168938, 0.62, -0.666, 0.47400000000000003, 192.0, 0.0, 0.0, 0.0, 0.0, 0.0, 0.0, 0.0, 0.0, 0.0, 1.6635859799441605E9, 0.0, 2022-09-19 16:12:59.944
190.0, 14812.41164355417, -71979.1885589586, -14973.545369332478, -6258.130819574692, 6061.726041045909, -79492.52629190998, 3540.2704525316303, -37869.44304340399, 0.618, -0.666, 0.47200000000000003, 192.0, 19.0, 80.0, 235.0, 48.0, 14.0, 192.0, 0.0, 0.0, 0.0, 1.6635859799481432E9, 0.0, 2022-09-19 16:12:59.948
191.0, 14812.5457540209, -71927.73484322248, -14973.232444910103, -6259.315462030824, 6064.408250380547, -79481.81980631588, 3587.9690751992557, -37867.520793380834, 0.618, -0.666, 0.47200000000000003, 192.0, 0.0, 0.0, 0.0, 0.0, 0.0, 0.0, 0.0, 0.0, 0.0, 1.663585979952236E9, 0.0, 2022-09-19 16:12:59.952
192.0, 14801.012253881963, -71891.27914801588, -14983.290729914992, -6262.71292718803, 6047.6891455279765, -79529.20550456113, 3573.440441303306, -37857.6860258205, 0.618, -0.666, 0.47200000000000003, 192.0, 0.0, 0.0, 0.0, 0.0, 0.0, 0.0, 0.0, 0.0, 0.0, 1.6635859799561832E9, 0.0, 2022-09-19 16:12:59.956
193.0, 14799.492335259001, -71856.25396445442, -14979.356822890857, -6250.128895059693, 6032.065276153717, -79582.58147032041, 3561.9963481421887, -37836.38481335459, 0.618, -0.666, 0.47200000000000003, 192.0, 0.0, 0.0, 0.0, 0.0, 0.0, 0.0, 0.0, 0.0, 0.0, 1.6635859799602065E9, 0.0, 2022-09-19 16:12:59.960
194.0, 14800.878143415232, -71808.08595515322, -14969.946738475173, -6242.261081011425, 6034.300450599248, -79604.4861798866, 3589.6231042889485, -37839.40229885606, 0.618, -0.666, 0.47200000000000003, 192.0, 0.0, 0.0, 0.0, 0.0, 0.0, 0.0, 0.0, 0.0, 0.0, 1.6635859799642231E9, 0.0, 2022-09-19 16:12:59.964
195.0, 14808.991826652507, -71756.05109406127, -14963.688250027688, -6246.574967691299, 6039.329593101692, -79599.92642401773, 3644.3625264599955, -37855.04851997477, 0.618, -0.666, 0.47200000000000003, 192.0, 0.0, 0.0, 0.0, 0.0, 0.0, 0.0, 0.0, 0.0, 0.0, 1.663585979967231E9, 0.0, 2022-09-19 16:12:59.967
196.0, 14809.237695841515, -71707.65956731554, -14965.67755528421, -6250.933557860084, 6038.189654134471, -79602.25100544108, 3686.0708816135984, -37864.68212183501, 0.618, -0.666, 0.47200000000000003, 192.0, 0.0, 0.0, 0.0, 0.0, 0.0, 0.0, 0.0, 0.0, 0.0, 1.6635859799722068E9, 0.0, 2022-09-19 16:12:59.972
197.0, 14799.291169558905, -71676.88121520057, -14977.30046240097, -6250.039488081871, 6017.38018004658, -79664.65707596029, 3664.6579104254142, -37849.30412164976, 0.618, -0.666, 0.47200000000000003, 192.0, 0.0, 0.0, 0.0, 0.0, 0.0, 0.0, 0.0, 0.0, 0.0, 1.6635859799762492E9, 0.0, 2022-09-19 16:12:59.976
198.0, 14806.98016965153, -71640.42551999397, -14975.355860633357, -6246.731429902486, 6004.349113029136, -79727.97956800218, 3651.112753285498, -37845.61608381463, 0.618, -0.666, 0.47200000000000003, 192.0, 0.0, 0.0, 0.0, 0.0, 0.0, 0.0, 0.0, 0.0, 0.0, 1.663585979981242E9, 0.0, 2022-09-19 16:12:59.981
199.0, 14809.774137708442, -71596.81726656166, -14972.897168743273, -6252.229959038492, 5999.632894949066, -79764.83759460898, 3669.374128505484, -37855.31674090824, 0.618, -0.666, 0.47200000000000003, 192.0, 0.0, 0.0, 0.0, 0.0, 0.0, 0.0, 0.0, 0.0, 0.0, 1.6635859799851885E9, 0.0, 2022-09-19 16:12:59.985
200.0, 14803.202724838582, -71545.74353048128, -14971.287843142492, -6257.57202596331, 6001.756310672321, -79774.76176914714, 3717.2962686176625, -37867.34197942519, 0.614, -0.67, 0.47600000000000003, 192.0, 19.0, 48.0, 235.0, 16.0, 14.0, 224.0, 0.0, 0.0, 0.0, 1.663585979990224E9, 0.0, 2022-09-19 16:12:59.990
201.0, 14803.515649260957, -71501.35296599305, -14968.650337296765, -6252.14055206067, 5998.783528659765, -79790.40799026586, 3755.4283446584163, -37852.12044145113, 0.614, -0.67, 0.47600000000000003, 192.0, 0.0, 0.0, 0.0, 0.0, 0.0, 0.0, 0.0, 0.0, 0.0, 1.6635859799932852E9, 0.0, 2022-09-19 16:12:59.993
202.0, 14803.292131816404, -71467.53477663216, -14975.892302500286, -6245.94911884655, 5981.237409262349, -79859.0501974881, 3736.2952514046733, -37845.66078730355, 0.614, -0.67, 0.47600000000000003, 192.0, 0.0, 0.0, 0.0, 0.0, 0.0, 0.0, 0.0, 0.0, 0.0, 1.663585979996235E9, 0.0, 2022-09-19 16:12:59.996
203.0, 14808.053053385383, -71427.36869184599, -14979.490933357589, -6240.51764494391, 5967.200513744416, -79934.15205885793, 3714.6811145163915, -37834.84254298718, 0.614, -0.67, 0.47600000000000003, 192.0, 0.0, 0.0, 0.0, 0.0, 0.0, 0.0, 0.0, 0.0, 0.0, 1.663585980000292E9, 0.0, 2022-09-19 16:13:00.000
204.0, 14795.178448579127, -71389.3483745275, -14973.411258865746, -6242.0375635668715, 5959.712679351888, -79988.31033567314, 3724.761751265735, -37836.31775812123, 0.614, -0.67, 0.47600000000000003, 192.0, 0.0, 0.0, 0.0, 0.0, 0.0, 0.0, 0.0, 0.0, 0.0, 1.6635859800042644E9, 0.0, 2022-09-19 16:13:00.004
205.0, 14795.580779979324, -71343.88492630541, -14965.655203539754, -6246.597319435754, 5959.600920629611, -80013.65721388545, 3766.3806994415168, -37845.95135998146, 0.614, -0.67, 0.47600000000000003, 192.0, 0.0, 0.0, 0.0, 0.0, 0.0, 0.0, 0.0, 0.0, 0.0, 1.6635859800082629E9, 0.0, 2022-09-19 16:13:00.008
206.0, 14804.856753928276, -71300.45548682875, -14967.778619263008, -6249.748915403952, 5956.583435128145, -80040.54636246519, 3801.2494207917957, -37858.7365578099, 0.614, -0.67, 0.47600000000000003, 192.0, 0.0, 0.0, 0.0, 0.0, 0.0, 0.0, 0.0, 0.0, 0.0, 1.6635859800122848E9, 0.0, 2022-09-19 16:13:00.012
207.0, 14798.55356199188, -71266.50318700113, -14982.351956647868, -6253.906339872639, 5941.8536355320975, -80117.81634304719, 3780.1940775148964, -37865.218563701936, 0.614, -0.67, 0.47600000000000003, 192.0, 0.0, 0.0, 0.0, 0.0, 0.0, 0.0, 0.0, 0.0, 0.0, 1.6635859800153224E9, 0.0, 2022-09-19 16:13:00.015
208.0, 14785.16486706315, -71240.46340471071, -14998.579323122422, -6265.596302222765, 5918.36195210957, -80213.16888489353, 3748.208731199352, -37872.39347367209, 0.614, -0.67, 0.47600000000000003, 192.0, 0.0, 0.0, 0.0, 0.0, 0.0, 0.0, 0.0, 0.0, 0.0, 1.6635859800192325E9, 0.0, 2022-09-19 16:13:00.019
209.0, 14787.042413597395, -71202.35368041441, -14993.930160275719, -6259.538979475377, 5907.78957698221, -80275.75376936838, 3754.623681858025, -37853.14862169607, 0.614, -0.67, 0.47600000000000003, 192.0, 0.0, 0.0, 0.0, 0.0, 0.0, 0.0, 0.0, 0.0, 0.0, 1.66358598002328E9, 0.0, 2022-09-19 16:13:00.023
210.0, 14790.104602587773, -71159.77360722705, -14980.899093258275, -6257.013232351927, 5901.955771679374, -80310.62249071867, 3791.6381706760135, -37856.50138336437, 0.618, -0.672, 0.47600000000000003, 192.0, 19.0, 80.0, 235.0, 0.0, 14.0, 224.0, 0.0, 0.0, 0.0, 1.66358598002731E9, 0.0, 2022-09-19 16:13:00.027
211.0, 14794.485544501013, -71116.031243328, -14975.020584466529, -6258.510799230433, 5895.920800676442, -80341.46789806699, 3828.2503280938067, -37864.54801136828, 0.618, -0.672, 0.47600000000000003, 192.0, 0.0, 0.0, 0.0, 0.0, 0.0, 0.0, 0.0, 0.0, 0.0, 1.6635859800322835E9, 0.0, 2022-09-19 16:13:00.032
212.0, 14798.821782925343, -71083.24123421208, -14982.754288048065, -6258.488447485977, 5875.200733566372, -80423.6776141736, 3805.853880149589, -37851.04755771728, 0.618, -0.672, 0.47600000000000003, 192.0, 0.0, 0.0, 0.0, 0.0, 0.0, 0.0, 0.0, 0.0, 0.0, 1.6635859800363243E9, 0.0, 2022-09-19 16:13:00.036
213.0, 14791.222189810538, -71055.54742283195, -14989.593921851389, -6259.091944586271, 5851.262015254738, -80523.54520839993, 3773.108574522564, -37845.61608381463, 0.618, -0.672, 0.47600000000000003, 192.0, 0.0, 0.0, 0.0, 0.0, 0.0, 0.0, 0.0, 0.0, 0.0, 1.6635859800403368E9, 0.0, 2022-09-19 16:13:00.040
214.0, 14787.556503719868, -71017.12477411327, -14982.419011881235, -6255.605072451243, 5839.125018015507, -80594.53434878998, 3776.3495774685834, -37845.12434543662, 0.618, -0.672, 0.47600000000000003, 192.0, 0.0, 0.0, 0.0, 0.0, 0.0, 0.0, 0.0, 0.0, 0.0, 1.6635859800433297E9, 0.0, 2022-09-19 16:13:00.043
215.0, 14788.696442687089, -70973.09183753633, -14978.507456601556, -6260.7683254204185, 5836.3757534475035, -80636.1309452213, 3810.1007115960974, -37864.21273520145, 0.618, -0.672, 0.47600000000000003, 192.0, 0.0, 0.0, 0.0, 0.0, 0.0, 0.0, 0.0, 0.0, 0.0, 1.6635859800473325E9, 0.0, 2022-09-19 16:13:00.047
216.0, 14792.250370055483, -70931.29407540489, -14979.937968246695, -6267.116220845726, 5835.057000524641, -80673.54776543949, 3846.422296335971, -37873.66752310604, 0.618, -0.672, 0.47600000000000003, 192.0, 0.0, 0.0, 0.0, 0.0, 0.0, 0.0, 0.0, 0.0, 0.0, 1.6635859800513608E9, 0.0, 2022-09-19 16:13:00.051
217.0, 14781.230960039016, -70904.94136869209, -14994.53365737601, -6265.9315783895945, 5815.38746540397, -80764.65347583932, 3820.3154588121724, -37852.992159484886, 0.618, -0.672, 0.47600000000000003, 192.0, 0.0, 0.0, 0.0, 0.0, 0.0, 0.0, 0.0, 0.0, 0.0, 1.6635859800574045E9, 0.0, 2022-09-19 16:13:00.057
218.0, 14779.219303038039, -70878.45455151255, -14998.44521265569, -6262.444706254567, 5791.515802325703, -80872.00890445815, 3783.3903769720055, -37846.10782219265, 0.618, -0.672, 0.47600000000000003, 192.0, 0.0, 0.0, 0.0, 0.0, 0.0, 0.0, 0.0, 0.0, 0.0, 1.66358598006039E9, 0.0, 2022-09-19 16:13:00.060
219.0, 14785.433087996613, -70840.724806872, -14989.549218362477, -6263.830514410796, 5780.116412653496, -80951.53641123015, 3783.2562665052733, -37850.80168852826, 0.618, -0.672, 0.47600000000000003, 192.0, 0.0, 0.0, 0.0, 0.0, 0.0, 0.0, 0.0, 0.0, 0.0, 1.6635859800643682E9, 0.0, 2022-09-19 16:13:00.064
220.0, 14791.669224699644, -70798.27884415137, -14978.865084512841, -6257.214398052025, 5777.098927152029, -81003.66067929992, 3814.526356998248, -37833.32262436421, 0.616, -0.672, 0.47400000000000003, 192.0, 19.0, 64.0, 235.0, 0.0, 14.0, 208.0, 0.0, 0.0, 0.0, 1.6635859800694203E9, 0.0, 2022-09-19 16:13:00.069
221.0, 14796.541904990901, -70763.52188152337, -14977.38986937879, -6260.164828320126, 5771.131011382462, -81053.14744152396, 3849.1939126484294, -37833.81436274223, 0.616, -0.672, 0.47400000000000003, 192.0, 0.0, 0.0, 0.0, 0.0, 0.0, 0.0, 0.0, 0.0, 0.0, 1.6635859800733876E9, 0.0, 2022-09-19 16:13:00.073
222.0, 14792.697404944589, -70742.3994830131, -14991.046785240984, -6266.110392345237, 5747.840493660033, -81156.54661137421, 3821.656563479491, -37838.75409826686, 0.616, -0.672, 0.47400000000000003, 192.0, 0.0, 0.0, 0.0, 0.0, 0.0, 0.0, 0.0, 0.0, 0.0, 1.663585980076328E9, 0.0, 2022-09-19 16:13:00.076
223.0, 14786.93065487512, -70721.23238101392, -15006.827116826431, -6273.285302315391, 5722.761836381178, -81279.07887447822, 3777.824792602634, -37849.0359007163, 0.616, -0.672, 0.47400000000000003, 192.0, 0.0, 0.0, 0.0, 0.0, 0.0, 0.0, 0.0, 0.0, 0.0, 1.6635859800795028E9, 0.0, 2022-09-19 16:13:00.079
224.0, 14784.44961124058, -70693.02447951132, -15011.431576184223, -6276.168677350125, 5709.328437963538, -81372.66562851258, 3770.202847743374, -37853.84152577419, 0.616, -0.672, 0.47400000000000003, 192.0, 0.0, 0.0, 0.0, 0.0, 0.0, 0.0, 0.0, 0.0, 0.0, 1.6635859800833476E9, 0.0, 2022-09-19 16:13:00.083
225.0, 14793.12208808924, -70654.89240347057, -14993.34901491988, -6271.251293569958, 5710.1107490194745, -81432.90357981964, 3797.919010867955, -37850.35465363916, 0.616, -0.672, 0.47400000000000003, 192.0, 0.0, 0.0, 0.0, 0.0, 0.0, 0.0, 0.0, 0.0, 0.0, 1.6635859800883772E9, 0.0, 2022-09-19 16:13:00.088
226.0, 14793.50206774498, -70616.38034777407, -14976.16052343375, -6266.557427234344, 5710.133100763929, -81482.63621123269, 3833.9500229299097, -37842.86681924663, 0.616, -0.672, 0.47400000000000003, 192.0, 0.0, 0.0, 0.0, 0.0, 0.0, 0.0, 0.0, 0.0, 0.0, 1.6635859800923817E9, 0.0, 2022-09-19 16:13:00.092
227.0, 14787.534151975413, -70587.65835614901, -14981.614349080844, -6263.741107432975, 5693.168126722351, -81577.76523563448, 3817.588545988625, -37842.375080868616, 0.616, -0.672, 0.47400000000000003, 192.0, 0.0, 0.0, 0.0, 0.0, 0.0, 0.0, 0.0, 0.0, 0.0, 1.6635859800963783E9, 0.0, 2022-09-19 16:13:00.096
228.0, 14785.410736252159, -70559.13753022403, -14980.764982791541, -6263.785810921885, 5673.923274746332, -81689.43455093319, 3786.3631589845613, -37851.651054817565, 0.616, -0.672, 0.47400000000000003, 192.0, 0.0, 0.0, 0.0, 0.0, 0.0, 0.0, 0.0, 0.0, 0.0, 1.6635859800994437E9, 0.0, 2022-09-19 16:13:00.099
229.0, 14796.094870101795, -70529.61087579858, -14977.099296700871, -6268.52438074641, 5659.327585617017, -81778.46154909868, 3782.8986385939884, -37868.97365677043, 0.616, -0.672, 0.47400000000000003, 192.0, 0.0, 0.0, 0.0, 0.0, 0.0, 0.0, 0.0, 0.0, 0.0, 1.6635859801034024E9, 0.0, 2022-09-19 16:13:00.103
230.0, 14802.420413782647, -70491.23293056882, -14968.404468107758, -6262.198837065558, 5657.360632104949, -81835.2126282707, 3813.4758250088485, -37855.11557520814, 0.61, -0.67, 0.47600000000000003, 192.0, 19.0, 16.0, 235.0, 16.0, 14.0, 224.0, 0.0, 0.0, 0.0, 1.6635859801074038E9, 0.0, 2022-09-19 16:13:00.107
231.0, 14807.047224884895, -70452.8773370835, -14965.76696226203, -6257.1249910742035, 5656.846541982477, -81878.9773439142, 3852.7925435057336, -37836.34010986568, 0.61, -0.67, 0.47600000000000003, 192.0, 0.0, 0.0, 0.0, 0.0, 0.0, 0.0, 0.0, 0.0, 0.0, 1.6635859801113913E9, 0.0, 2022-09-19 16:13:00.111
232.0, 14799.559390492368, -70424.35651115853, -14978.283939157003, -6258.555502719343, 5643.3684400759275, -81968.58548743553, 3838.353316587605, -37832.13798190808, 0.61, -0.67, 0.47600000000000003, 192.0, 0.0, 0.0, 0.0, 0.0, 0.0, 0.0, 0.0, 0.0, 0.0, 1.6635859801154943E9, 0.0, 2022-09-19 16:13:00.115
233.0, 14793.479716000524, -70402.69767078134, -14993.706642831165, -6259.583682964288, 5624.056532866542, -82085.19453825886, 3799.818909146656, -37834.44021158698, 0.61, -0.67, 0.47600000000000003, 192.0, 0.0, 0.0, 0.0, 0.0, 0.0, 0.0, 0.0, 0.0, 0.0, 1.6635859801205635E9, 0.0, 2022-09-19 16:13:00.120
234.0, 14794.776117178932, -70374.44506578983, -14999.786317323009, -6266.468020256522, 5613.707675183735, -82177.7978155372, 3791.3475979980944, -37846.554857081755, 0.61, -0.67, 0.47600000000000003, 192.0, 0.0, 0.0, 0.0, 0.0, 0.0, 0.0, 0.0, 0.0, 0.0, 1.6635859801234844E9, 0.0, 2022-09-19 16:13:00.123
235.0, 14803.828573683331, -70329.27219024565, -14979.289767657492, -6253.392249750167, 5625.576451489503, -82227.75396439481, 3826.551595515203, -37828.60640628415, 0.61, -0.67, 0.47600000000000003, 192.0, 0.0, 0.0, 0.0, 0.0, 0.0, 0.0, 0.0, 0.0, 0.0, 1.663585980127455E9, 0.0, 2022-09-19 16:13:00.127
236.0, 14811.942256920607, -70284.07696295703, -14969.38794486379, -6249.681860170586, 5634.092466126975, -82265.26019159082, 3871.7691745482894, -37836.65303428806, 0.61, -0.67, 0.47600000000000003, 192.0, 0.0, 0.0, 0.0, 0.0, 0.0, 0.0, 0.0, 0.0, 0.0, 1.6635859801314783E9, 0.0, 2022-09-19 16:13:00.131
237.0, 14798.061823613862, -70262.01579117964, -14989.906846273763, -6268.591435979776, 5616.032256607086, -82359.5398497033, 3852.099639427619, -37857.2836944203, 0.61, -0.67, 0.47600000000000003, 192.0, 0.0, 0.0, 0.0, 0.0, 0.0, 0.0, 0.0, 0.0, 0.0, 1.6635859801355424E9, 0.0, 2022-09-19 16:13:00.135
238.0, 14793.83734391181, -70234.70195945525, -14998.176991722226, -6279.968473907527, 5601.414215733316, -82470.96329581301, 3817.163862843974, -37866.202040457974, 0.61, -0.67, 0.47600000000000003, 192.0, 0.0, 0.0, 0.0, 0.0, 0.0, 0.0, 0.0, 0.0, 0.0, 1.663585980139484E9, 0.0, 2022-09-19 16:13:00.139
239.0, 14801.861620171265, -70200.70495613872, -14998.288750444503, -6278.605017495754, 5594.015788318609, -82559.7891282784, 3812.939383141921, -37864.033921245806, 0.61, -0.67, 0.47600000000000003, 192.0, 0.0, 0.0, 0.0, 0.0, 0.0, 0.0, 0.0, 0.0, 0.0, 1.6635859801434538E9, 0.0, 2022-09-19 16:13:00.143
240.0, 14803.627407983233, -70160.94120275274, -14985.771773549532, -6267.965587135028, 5598.463785465216, -82618.50716096249, 3838.018040420776, -37844.00675821385, 0.61, -0.668, 0.47000000000000003, 192.0, 19.0, 16.0, 235.0, 32.0, 14.0, 176.0, 0.0, 0.0, 0.0, 1.6635859801484816E9, 0.0, 2022-09-19 16:13:00.148
241.0, 14806.913114418163, -70122.6526645008, -14974.260625155048, -6260.5895114647765, 5602.084768066975, -82663.1659463842, 3876.3736339060824, -37838.5305808223, 0.61, -0.668, 0.47000000000000003, 192.0, 0.0, 0.0, 0.0, 0.0, 0.0, 0.0, 0.0, 0.0, 0.0, 1.6635859801515756E9, 0.0, 2022-09-19 16:13:00.151
242.0, 14800.11818410375, -70093.3495275199, -14985.123572960327, -6266.512723745433, 5592.048834806542, -82747.45437472516, 3867.2541221683173, -37851.382833884105, 0.61, -0.668, 0.47000000000000003, 192.0, 0.0, 0.0, 0.0, 0.0, 0.0, 0.0, 0.0, 0.0, 0.0, 1.663585980155481E9, 0.0, 2022-09-19 16:13:00.155
243.0, 14791.825686910832, -70071.48952144259, -14997.461735899657, -6276.995691894972, 5574.592122386947, -82862.58821041444, 3828.6750112384575, -37855.00381648586, 0.61, -0.668, 0.47000000000000003, 192.0, 0.0, 0.0, 0.0, 0.0, 0.0, 0.0, 0.0, 0.0, 0.0, 1.6635859801594775E9, 0.0, 2022-09-19 16:13:00.159
244.0, 14787.400041508681, -70046.09793974138, -15001.954436535174, -6284.438822798589, 5565.025575760076, -82956.35377840446, 3819.108464611586, -37856.68019732001, 0.61, -0.668, 0.47000000000000003, 192.0, 0.0, 0.0, 0.0, 0.0, 0.0, 0.0, 0.0, 0.0, 0.0, 1.6635859801635208E9, 0.0, 2022-09-19 16:13:00.163
245.0, 14792.228018311027, -70009.95516895714, -14991.560875363455, -6281.823668697318, 5569.786497329056, -83013.46248548776, 3845.885854469044, -37854.936761252495, 0.61, -0.668, 0.47000000000000003, 192.0, 0.0, 0.0, 0.0, 0.0, 0.0, 0.0, 0.0, 0.0, 0.0, 1.6635859801675155E9, 0.0, 2022-09-19 16:13:00.167
246.0, 14806.957817907074, -69966.07869459137, -14979.245064168581, -6272.614749981732, 5582.996378302143, -83044.53141028064, 3895.953762048932, -37850.15348793906, 0.61, -0.668, 0.47000000000000003, 192.0, 0.0, 0.0, 0.0, 0.0, 0.0, 0.0, 0.0, 0.0, 0.0, 1.6635859801715555E9, 0.0, 2022-09-19 16:13:00.171
247.0, 14799.268817814449, -69938.29547623343, -14994.53365737601, -6285.467003043534, 5575.53089565407, -83121.82374260708, 3890.7681573353, -37862.11167122265, 0.61, -0.668, 0.47000000000000003, 192.0, 0.0, 0.0, 0.0, 0.0, 0.0, 0.0, 0.0, 0.0, 0.0, 1.6635859801765563E9, 0.0, 2022-09-19 16:13:00.176
248.0, 14786.953006619575, -69919.0059207685, -15002.06619525745, -6290.540849034888, 5558.409459401305, -83231.45904916037, 3853.261930139295, -37852.81334552924, 0.61, -0.668, 0.47000000000000003, 192.0, 0.0, 0.0, 0.0, 0.0, 0.0, 0.0, 0.0, 0.0, 0.0, 1.6635859801795547E9, 0.0, 2022-09-19 16:13:00.179
249.0, 14778.057012326362, -69887.75818201997, -14995.606541109866, -6287.523363533422, 5555.727250066669, -83314.80870423421, 3850.847941738122, -37852.835697273695, 0.61, -0.668, 0.47000000000000003, 192.0, 0.0, 0.0, 0.0, 0.0, 0.0, 0.0, 0.0, 0.0, 0.0, 1.6635859801835804E9, 0.0, 2022-09-19 16:13:00.183
250.0, 14794.932579390119, -69857.98565840551, -14993.147849219782, -6291.949008935572, 5552.19567444273, -83375.67250438602, 3871.3891948925493, -37864.61506660165, 0.614, -0.664, 0.47400000000000003, 192.0, 19.0, 48.0, 235.0, 64.0, 14.0, 208.0, 0.0, 0.0, 0.0, 1.663585980187631E9, 0.0, 2022-09-19 16:13:00.187
251.0, 14805.706120217577, -69818.44542246406, -14981.748459547576, -6290.473793801522, 5561.181075713763, -83408.08253384622, 3919.065465815719, -37860.52469736632, 0.614, -0.664, 0.47400000000000003, 192.0, 0.0, 0.0, 0.0, 0.0, 0.0, 0.0, 0.0, 0.0, 0.0, 1.6635859801915689E9, 0.0, 2022-09-19 16:13:00.191
252.0, 14792.049204355384, -69791.64568086216, -14990.555046862966, -6289.535020534399, 5555.950767511221, -83481.21744170398, 3917.1208640481073, -37837.90473197755, 0.614, -0.664, 0.47400000000000003, 192.0, 0.0, 0.0, 0.0, 0.0, 0.0, 0.0, 0.0, 0.0, 0.0, 1.6635859801955492E9, 0.0, 2022-09-19 16:13:00.195
253.0, 14781.49918097248, -69776.0218114879, -15002.624988868833, -6287.5904187667875, 5538.270537647073, -83593.71377154754, 3877.111241473108, -37832.495609819365, 0.614, -0.664, 0.47400000000000003, 192.0, 0.0, 0.0, 0.0, 0.0, 0.0, 0.0, 0.0, 0.0, 0.0, 1.6635859801996896E9, 0.0, 2022-09-19 16:13:00.199
254.0, 14787.869428142241, -69748.77503499687, -14994.153677720271, -6279.81201169634, 5531.81088349949, -83680.50559526749, 3869.3775378915716, -37834.35080460916, 0.614, -0.664, 0.47400000000000003, 192.0, 0.0, 0.0, 0.0, 0.0, 0.0, 0.0, 0.0, 0.0, 0.0, 1.6635859802046635E9, 0.0, 2022-09-19 16:13:00.204
255.0, 14793.21149506706, -69717.37083403717, -14987.314043916947, -6278.582665751299, 5532.928470722255, -83736.85434303932, 3890.8575643131217, -37842.375080868616, 0.614, -0.664, 0.47400000000000003, 192.0, 0.0, 0.0, 0.0, 0.0, 0.0, 0.0, 0.0, 0.0, 0.0, 1.6635859802076392E9, 0.0, 2022-09-19 16:13:00.207
0.0, 14794.418489267648, -69679.08229578522, -14980.206189180159, -6280.683729730097, 5545.557206339504, -83766.53745967596, 3939.1149805921295, -37858.40128164307, 0.614, -0.664, 0.47400000000000003, 192.0, 0.0, 0.0, 0.0, 0.0, 0.0, 0.0, 0.0, 0.0, 0.0, 1.663585980210694E9, 0.0, 2022-09-19 16:13:00.210
1.0, 14796.810125924365, -69655.54590887378, -14982.888398514797, -6286.29401758838, 5541.913871993288, -83835.06790817594, 3939.7631811813335, -37859.47416537692, 0.614, -0.664, 0.47400000000000003, 192.0, 0.0, 0.0, 0.0, 0.0, 0.0, 0.0, 0.0, 0.0, 0.0, 1.663585980215632E9, 0.0, 2022-09-19 16:13:00.215
2.0, 14796.608960224266, -69635.27287665283, -14982.977805492617, -6281.466040786033, 5534.38133411185, -83935.74016520265, 3907.979000565887, -37837.681214533, 0.614, -0.664, 0.47400000000000003, 192.0, 0.0, 0.0, 0.0, 0.0, 0.0, 0.0, 0.0, 0.0, 0.0, 1.6635859802196388E9, 0.0, 2022-09-19 16:13:00.219
3.0, 14795.245503812494, -69622.37592010212, -14982.44136362569, -6277.95681690655, 5521.462025816682, -84031.87501810493, 3886.7001398444345, -37825.76773473832, 0.614, -0.664, 0.47400000000000003, 192.0, 0.0, 0.0, 0.0, 0.0, 0.0, 0.0, 0.0, 0.0, 0.0, 1.6635859802237556E9, 0.0, 2022-09-19 16:13:00.223
4.0, 14790.194009565594, -69596.85022793415, -14979.379174635313, -6283.38829080919, 5522.646668272814, -84091.37536184494, 3903.3074859747276, -37837.07771743271, 0.614, -0.662, 0.47600000000000003, 192.0, 19.0, 48.0, 235.0, 80.0, 14.0, 224.0, 0.0, 0.0, 0.0, 1.6635859802276645E9, 0.0, 2022-09-19 16:13:00.227
5.0, 14796.743070690998, -69563.68023916248, -14976.96518623414, -6289.400910067668, 5531.967345710676, -84122.69015582683, 3948.726230707912, -37841.101031434664, 0.614, -0.662, 0.47600000000000003, 192.0, 0.0, 0.0, 0.0, 0.0, 0.0, 0.0, 0.0, 0.0, 0.0, 1.6635859802317224E9, 0.0, 2022-09-19 16:13:00.231
6.0, 14800.542867248401, -69541.73082610736, -14985.190628193694, -6291.591381024287, 5529.151025909308, -84187.19729032485, 3952.1236958651184, -37849.23706641639, 0.614, -0.662, 0.47600000000000003, 192.0, 0.0, 0.0, 0.0, 0.0, 0.0, 0.0, 0.0, 0.0, 0.0, 1.6635859802357564E9, 0.0, 2022-09-19 16:13:00.235
7.0, 14792.138611333206, -69531.40432016902, -14992.20907595266, -6293.983017681006, 5514.33181933544, -84294.10568405458, 3910.0800645446857, -37848.54416233828, 0.614, -0.662, 0.47600000000000003, 192.0, 0.0, 0.0, 0.0, 0.0, 0.0, 0.0, 0.0, 0.0, 0.0, 1.6635859802387116E9, 0.0, 2022-09-19 16:13:00.238
8.0, 14787.556503719868, -69517.03214848426, -14994.578360864922, -6297.849869471774, 5504.631162241836, -84385.9713537659, 3889.739977090356, -37853.550953096266, 0.614, -0.662, 0.47600000000000003, 192.0, 0.0, 0.0, 0.0, 0.0, 0.0, 0.0, 0.0, 0.0, 0.0, 1.6635859802436874E9, 0.0, 2022-09-19 16:13:00.243
9.0, 14789.612864209756, -69489.87477897106, -14986.487029372101, -6292.9324856916055, 5509.861470444378, -84441.51543873733, 3906.9955238098532, -37845.079641947705, 0.614, -0.662, 0.47600000000000003, 192.0, 0.0, 0.0, 0.0, 0.0, 0.0, 0.0, 0.0, 0.0, 0.0, 1.6635859802477095E9, 0.0, 2022-09-19 16:13:00.247
10.0, 14789.635215954211, -69461.91274665747, -14974.595901321878, -6287.143383877681, 5520.322086849462, -84472.42790131902, 3947.3404225516824, -37837.748269766365, 0.614, -0.662, 0.47600000000000003, 192.0, 0.0, 0.0, 0.0, 0.0, 0.0, 0.0, 0.0, 0.0, 0.0, 1.6635859802516549E9, 0.0, 2022-09-19 16:13:00.251
11.0, 14784.40490775167, -69446.93707787241, -14980.63087232481, -6287.836287955795, 5517.215194370174, -84533.42581193756, 3950.2014458419617, -37835.15546740955, 0.614, -0.662, 0.47600000000000003, 192.0, 0.0, 0.0, 0.0, 0.0, 0.0, 0.0, 0.0, 0.0, 0.0, 1.6635859802557156E9, 0.0, 2022-09-19 16:13:00.255
12.0, 14783.35437576227, -69437.10231031207, -14987.783430550508, -6292.239581613491, 5506.218136098163, -84631.974653241, 3913.1869570239733, -37836.407165099045, 0.614, -0.662, 0.47600000000000003, 192.0, 0.0, 0.0, 0.0, 0.0, 0.0, 0.0, 0.0, 0.0, 0.0, 1.6635859802587385E9, 0.0, 2022-09-19 16:13:00.258
13.0, 14784.78488740741, -69419.91381882594, -14984.5871310934, -6296.754633993463, 5503.46887153016, -84712.26211932447, 3898.3901021945603, -37845.12434543662, 0.614, -0.662, 0.47600000000000003, 192.0, 0.0, 0.0, 0.0, 0.0, 0.0, 0.0, 0.0, 0.0, 0.0, 1.6635859802627397E9, 0.0, 2022-09-19 16:13:00.262
14.0, 14782.840285639799, -69397.80794355964, -14977.501628101067, -6299.146270650181, 5508.56506926597, -84761.95004724861, 3915.936221591976, -37848.38770012709, 0.614, -0.662, 0.47600000000000003, 192.0, 0.0, 0.0, 0.0, 0.0, 0.0, 0.0, 0.0, 0.0, 0.0, 1.6635859802667084E9, 0.0, 2022-09-19 16:13:00.266
15.0, 14790.350471776781, -69371.36582986901, -14972.450133854169, -6301.403796840167, 5518.176319381752, -84784.52530914848, 3958.6727569905233, -37852.52277285132, 0.612, -0.662, 0.47400000000000003, 192.0, 19.0, 32.0, 235.0, 80.0, 14.0, 208.0, 0.0, 0.0, 0.0, 1.6635859802717905E9, 0.0, 2022-09-19 16:13:00.271
16.0, 14790.6410444547, -69356.27840236168, -14978.708622301654, -6307.639933543198, 5514.980019924644, -84832.55920798292, 3966.317053594238, -37856.05434847526, 0.612, -0.662, 0.47400000000000003, 192.0, 0.0, 0.0, 0.0, 0.0, 0.0, 0.0, 0.0, 0.0, 0.0, 1.663585980275756E9, 0.0, 2022-09-19 16:13:00.275
17.0, 14771.507951200958, -69360.14525415245, -14992.142020719293, -6319.106378448771, 5491.711853946669, -84931.26451149756, 3918.3725617376044, -37864.57036311273, 0.612, -0.662, 0.47400000000000003, 192.0, 0.0, 0.0, 0.0, 0.0, 0.0, 0.0, 0.0, 0.0, 0.0, 1.6635859802797396E9, 0.0, 2022-09-19 16:13:00.279
18.0, 14766.657622654157, -69346.98007666827, -14986.844657283385, -6322.883823261717, 5487.733243433624, -85005.89698623384, 3902.3687127076046, -37866.7384823249, 0.612, -0.662, 0.47400000000000003, 192.0, 0.0, 0.0, 0.0, 0.0, 0.0, 0.0, 0.0, 0.0, 0.0, 1.6635859802838268E9, 0.0, 2022-09-19 16:13:00.283
19.0, 14777.699384415077, -69329.23279157076, -14984.184799693205, -6323.666134317653, 5490.32604579044, -85054.10969902393, 3916.5620704367248, -37852.47806936241, 0.612, -0.662, 0.47400000000000003, 192.0, 0.0, 0.0, 0.0, 0.0, 0.0, 0.0, 0.0, 0.0, 0.0, 1.6635859802868433E9, 0.0, 2022-09-19 16:13:00.286
20.0, 14775.888893114197, -69310.36791925048, -14981.68140431421, -6323.6884860621085, 5494.975208637144, -85075.32150451202, 3955.521161022325, -37838.46352558894, 0.612, -0.662, 0.47400000000000003, 192.0, 0.0, 0.0, 0.0, 0.0, 0.0, 0.0, 0.0, 0.0, 0.0, 1.663585980290754E9, 0.0, 2022-09-19 16:13:00.290
21.0, 14768.35635523276, -69298.36503247799, -14978.954491490662, -6310.545660322387, 5493.61175222537, -85119.0415166666, 3963.724251237423, -37803.415990283014, 0.612, -0.662, 0.47400000000000003, 192.0, 0.0, 0.0, 0.0, 0.0, 0.0, 0.0, 0.0, 0.0, 0.0, 1.6635859802947643E9, 0.0, 2022-09-19 16:13:00.294
22.0, 14756.152302760162, -69301.31546274609, -14987.671671828231, -6308.91398297715, 5477.920827617744, -85212.58356721206, 3919.11016930463, -37804.958260650434, 0.612, -0.662, 0.47400000000000003, 192.0, 0.0, 0.0, 0.0, 0.0, 0.0, 0.0, 0.0, 0.0, 0.0, 1.6635859802988212E9, 0.0, 2022-09-19 16:13:00.298
23.0, 14765.808256364853, -69295.77223012116, -14981.212017680647, -6304.510689319455, 5471.9752635926325, -85288.84771929357, 3897.965419049909, -37812.84842644315, 0.612, -0.662, 0.47400000000000003, 192.0, 0.0, 0.0, 0.0, 0.0, 0.0, 0.0, 0.0, 0.0, 0.0, 1.663585980303754E9, 0.0, 2022-09-19 16:13:00.303
24.0, 14773.094925057285, -69277.64496536792, -14975.82524726692, -6306.321180620334, 5479.910132874266, -85330.46666746934, 3913.4104744685264, -37824.49368530437, 0.612, -0.662, 0.47400000000000003, 192.0, 0.0, 0.0, 0.0, 0.0, 0.0, 0.0, 0.0, 0.0, 0.0, 1.663585980307783E9, 0.0, 2022-09-19 16:13:00.307
25.0, 14768.5351691884, -69263.74218031671, -14974.215921666137, -6317.519404592444, 5487.666188200258, -85349.8456299121, 3949.642652230579, -37829.34401385117, 0.616, -0.662, 0.47600000000000003, 192.0, 19.0, 64.0, 235.0, 80.0, 14.0, 224.0, 0.0, 0.0, 0.0, 1.6635859803118153E9, 0.0, 2022-09-19 16:13:00.311
26.0, 14771.35148898977, -69249.03473246512, -14967.711564029643, -6316.20065166958, 5495.243429570607, -85380.04283667121, 3967.7475652393778, -37828.87462721761, 0.616, -0.662, 0.47600000000000003, 192.0, 0.0, 0.0, 0.0, 0.0, 0.0, 0.0, 0.0, 0.0, 0.0, 1.663585980314888E9, 0.0, 2022-09-19 16:13:00.314
27.0, 14753.604203892257, -69250.17467143234, -14980.295596157981, -6319.732227293519, 5481.22888579713, -85464.04069233427, 3927.49207347537, -37831.62389178561, 0.616, -0.662, 0.47600000000000003, 192.0, 0.0, 0.0, 0.0, 0.0, 0.0, 0.0, 0.0, 0.0, 0.0, 1.6635859803188272E9, 0.0, 2022-09-19 16:13:00.318
28.0, 14749.87146256822, -69246.39722661939, -14984.25185492657, -6323.062637217359, 5472.221132781641, -85537.37676589213, 3903.709817374923, -37836.29540637677, 0.616, -0.662, 0.47600000000000003, 192.0, 0.0, 0.0, 0.0, 0.0, 0.0, 0.0, 0.0, 0.0, 0.0, 1.6635859803228374E9, 0.0, 2022-09-19 16:13:00.322
29.0, 14764.087172041794, -69239.19996490478, -14976.607558322856, -6322.7497127949855, 5469.673033913736, -85582.84021411421, 3912.4046459680376, -37832.495609819365, 0.616, -0.662, 0.47600000000000003, 192.0, 0.0, 0.0, 0.0, 0.0, 0.0, 0.0, 0.0, 0.0, 0.0, 1.6635859803278143E9, 0.0, 2022-09-19 16:13:00.327
30.0, 14772.78200063491, -69221.832659463, -14959.955508703652, -6315.418340613644, 5482.614693953359, -85593.18907179702, 3956.102306378163, -37825.2759963603, 0.616, -0.662, 0.47600000000000003, 192.0, 0.0, 0.0, 0.0, 0.0, 0.0, 0.0, 0.0, 0.0, 0.0, 1.663585980331885E9, 0.0, 2022-09-19 16:13:00.331
31.0, 14768.490465699491, -69216.02120590463, -14965.923424473218, -6320.335724393813, 5484.134612576319, -85625.48734253495, 3969.915684451543, -37834.08258367569, 0.616, -0.662, 0.47600000000000003, 192.0, 0.0, 0.0, 0.0, 0.0, 0.0, 0.0, 0.0, 0.0, 0.0, 1.663585980335886E9, 0.0, 2022-09-19 16:13:00.335
32.0, 14758.25336673896, -69224.67133100884, -14987.58226485041, -6338.73121008053, 5466.364975734351, -85712.36857323273, 3923.938146106976, -37848.34299663818, 0.616, -0.662, 0.47600000000000003, 192.0, 0.0, 0.0, 0.0, 0.0, 0.0, 0.0, 0.0, 0.0, 0.0, 1.663585980339856E9, 0.0, 2022-09-19 16:13:00.339
33.0, 14747.457474167048, -69225.5877525315, -14993.281959686514, -6342.754524082485, 5458.497161686082, -85786.08462644633, 3896.557259149225, -37842.151563424064, 0.616, -0.662, 0.47600000000000003, 192.0, 0.0, 0.0, 0.0, 0.0, 0.0, 0.0, 0.0, 0.0, 0.0, 1.6635859803428175E9, 0.0, 2022-09-19 16:13:00.342
34.0, 14745.065837510328, -69220.20098211778, -14981.502590358567, -6333.277384433435, 5462.162847776753, -85828.35177521131, 3906.0567505427302, -37828.025260928305, 0.616, -0.662, 0.47600000000000003, 192.0, 0.0, 0.0, 0.0, 0.0, 0.0, 0.0, 0.0, 0.0, 0.0, 1.6635859803469267E9, 0.0, 2022-09-19 16:13:00.346
35.0, 14752.7324858585, -69204.39829878787, -14963.710601772143, -6321.207442427569, 5477.071461328443, -85836.42075495968, 3949.5308935083026, -37814.99419391086, 0.618, -0.662, 0.47200000000000003, 192.0, 19.0, 80.0, 235.0, 80.0, 14.0, 192.0, 0.0, 0.0, 0.0, 1.663585980350855E9, 0.0, 2022-09-19 16:13:00.350
36.0, 14763.6848406416, -69194.71999343873, -14965.185816906192, -6323.10734070627, 5482.413528253261, -85859.0630720929, 3970.742698996389, -37832.89794121956, 0.618, -0.662, 0.47200000000000003, 192.0, 0.0, 0.0, 0.0, 0.0, 0.0, 0.0, 0.0, 0.0, 0.0, 1.663585980354928E9, 0.0, 2022-09-19 16:13:00.354
37.0, 14757.96279406104, -69196.23991206169, -14981.748459547576, -6328.628221586731, 5473.673996171236, -85933.00264275106, 3936.321012535216, -37832.294444119274, 0.618, -0.662, 0.47200000000000003, 192.0, 0.0, 0.0, 0.0, 0.0, 0.0, 0.0, 0.0, 0.0, 0.0, 1.663585980359841E9, 0.0, 2022-09-19 16:13:00.359
38.0, 14753.738314358989, -69195.41289751684, -14989.862142784852, -6326.325991907835, 5467.974301335133, -86003.52239650756, 3913.9916198243645, -37822.59378702567, 0.618, -0.662, 0.47200000000000003, 192.0, 0.0, 0.0, 0.0, 0.0, 0.0, 0.0, 0.0, 0.0, 0.0, 1.6635859803639767E9, 0.0, 2022-09-19 16:13:00.363
39.0, 14755.414695193136, -69193.89297889388, -14988.431631139712, -6323.889651762206, 5463.950987333177, -86049.00819647411, 3921.322992005705, -37822.996118425865, 0.618, -0.662, 0.47200000000000003, 192.0, 0.0, 0.0, 0.0, 0.0, 0.0, 0.0, 0.0, 0.0, 0.0, 1.6635859803679202E9, 0.0, 2022-09-19 16:13:00.367
40.0, 14759.370953961725, -69181.37600199891, -14983.804820037463, -6330.997506498994, 5474.076327571432, -86058.93237101226, 3964.551265782269, -37843.04563320227, 0.618, -0.662, 0.47200000000000003, 192.0, 0.0, 0.0, 0.0, 0.0, 0.0, 0.0, 0.0, 0.0, 0.0, 1.663585980370952E9, 0.0, 2022-09-19 16:13:00.370
41.0, 14771.262082011948, -69166.84736810296, -14982.843695025886, -6332.606832099776, 5487.375615522339, -86072.47752815217, 3995.575487086235, -37844.07381344722, 0.618, -0.662, 0.47200000000000003, 192.0, 0.0, 0.0, 0.0, 0.0, 0.0, 0.0, 0.0, 0.0, 0.0, 1.6635859803748822E9, 0.0, 2022-09-19 16:13:00.374
42.0, 14760.7344103735, -69176.74919089666, -14999.808669067465, -6335.713724579064, 5470.432993225217, -86151.04390991258, 3956.169361611529, -37836.831848243695, 0.618, -0.662, 0.47200000000000003, 192.0, 0.0, 0.0, 0.0, 0.0, 0.0, 0.0, 0.0, 0.0, 0.0, 1.6635859803790216E9, 0.0, 2022-09-19 16:13:00.379
43.0, 14753.335982958793, -69176.21274902973, -14993.974863764628, -6332.092741977303, 5462.833400110412, -86222.12245728046, 3930.0625240877303, -37830.59571154066, 0.618, -0.662, 0.47200000000000003, 192.0, 0.0, 0.0, 0.0, 0.0, 0.0, 0.0, 0.0, 0.0, 0.0, 1.6635859803829017E9, 0.0, 2022-09-19 16:13:00.382
44.0, 14757.716924872033, -69160.320658722, -14982.284901414503, -6330.72928556553, 5472.2658362705515, -86255.1583355854, 3945.775800439811, -37833.18851389748, 0.618, -0.662, 0.47200000000000003, 192.0, 0.0, 0.0, 0.0, 0.0, 0.0, 0.0, 0.0, 0.0, 0.0, 1.6635859803879504E9, 0.0, 2022-09-19 16:13:00.387
45.0, 14757.515759171934, -69141.34402767946, -14971.62311930932, -6330.103436720781, 5487.196801566697, -86260.16512634339, 3989.36170212766, -37827.55587429475, 0.612, -0.664, 0.47200000000000003, 192.0, 19.0, 32.0, 235.0, 64.0, 14.0, 192.0, 0.0, 0.0, 0.0, 1.663585980391935E9, 0.0, 2022-09-19 16:13:00.391
46.0, 14756.129951015706, -69134.32557992048, -14974.752363533064, -6332.629183844231, 5490.258990557074, -86280.03582716416, 4012.4063506610814, -37832.361499352635, 0.612, -0.664, 0.47200000000000003, 192.0, 0.0, 0.0, 0.0, 0.0, 0.0, 0.0, 0.0, 0.0, 0.0, 1.6635859803950257E9, 0.0, 2022-09-19 16:13:00.395
47.0, 14757.918090572131, -69133.85619328692, -14986.889360772297, -6331.533948365921, 5481.3629962638615, -86346.95695006335, 3983.036158446808, -37819.5763015242, 0.612, -0.664, 0.47200000000000003, 192.0, 0.0, 0.0, 0.0, 0.0, 0.0, 0.0, 0.0, 0.0, 0.0, 1.6635859803989885E9, 0.0, 2022-09-19 16:13:00.398
48.0, 14761.203797007061, -69129.58701009596, -14992.67846258622, -6330.841044287807, 5476.803240394979, -86414.28040436273, 3957.465762789937, -37815.82120845571, 0.612, -0.664, 0.47200000000000003, 192.0, 0.0, 0.0, 0.0, 0.0, 0.0, 0.0, 0.0, 0.0, 0.0, 1.6635859804029665E9, 0.0, 2022-09-19 16:13:00.402
49.0, 14756.867558582731, -69124.2672949156, -14988.543389861989, -6329.052904731382, 5476.713833417158, -86458.3580444286, 3961.042041902786, -37819.03985965727, 0.612, -0.664, 0.47200000000000003, 192.0, 0.0, 0.0, 0.0, 0.0, 0.0, 0.0, 0.0, 0.0, 0.0, 1.663585980406958E9, 0.0, 2022-09-19 16:13:00.406
50.0, 14761.226148751515, -69104.03896618355, -14974.752363533064, -6326.527157607932, 5490.1695835792525, -86465.51060265429, 4003.1750802010397, -37831.71329876343, 0.612, -0.664, 0.47200000000000003, 192.0, 0.0, 0.0, 0.0, 0.0, 0.0, 0.0, 0.0, 0.0, 0.0, 1.6635859804110923E9, 0.0, 2022-09-19 16:13:00.411
51.0, 14771.083268056307, -69085.91170143029, -14979.178008935216, -6335.333744923323, 5500.943124406711, -86474.00426554731, 4036.590938161724, -37850.37700538361, 0.612, -0.664, 0.47200000000000003, 192.0, 0.0, 0.0, 0.0, 0.0, 0.0, 0.0, 0.0, 0.0, 0.0, 1.6635859804149892E9, 0.0, 2022-09-19 16:13:00.414
52.0, 14761.06968654033, -69083.14008511783, -14987.738727061598, -6337.993602513505, 5495.243429570607, -86536.25387385534, 4011.959315771975, -37839.067022689225, 0.612, -0.664, 0.47200000000000003, 192.0, 0.0, 0.0, 0.0, 0.0, 0.0, 0.0, 0.0, 0.0, 0.0, 1.6635859804200253E9, 0.0, 2022-09-19 16:13:00.420
53.0, 14760.622651651223, -69081.06137288349, -14987.783430550508, -6335.0208205009485, 5486.839173655412, -86609.52289217984, 3985.4054433590704, -37824.15840913754, 0.612, -0.664, 0.47200000000000003, 192.0, 0.0, 0.0, 0.0, 0.0, 0.0, 0.0, 0.0, 0.0, 0.0, 1.6635859804229796E9, 0.0, 2022-09-19 16:13:00.422
54.0, 14764.44479995308, -69070.73486694513, -14979.736802546598, -6331.15396871018, 5490.437804512716, -86650.89597116661, 3994.636713819112, -37818.34695557916, 0.612, -0.664, 0.47200000000000003, 192.0, 0.0, 0.0, 0.0, 0.0, 0.0, 0.0, 0.0, 0.0, 0.0, 1.6635859804270833E9, 0.0, 2022-09-19 16:13:00.427
55.0, 14768.44576221058, -69055.17805280424, -14970.4831803421, -6330.103436720781, 5500.116109861864, -86663.03296840584, 4033.1711212600617, -37820.693888746966, 0.614, -0.67, 0.47600000000000003, 192.0, 19.0, 48.0, 235.0, 16.0, 14.0, 224.0, 0.0, 0.0, 0.0, 1.663585980431034E9, 0.0, 2022-09-19 16:13:00.431
56.0, 14765.629442409212, -69040.89528809731, -14972.696003043176, -6333.187977455614, 5507.939220421222, -86673.78415748884, 4066.4305170095586, -37830.86393247413, 0.614, -0.67, 0.47600000000000003, 192.0, 0.0, 0.0, 0.0, 0.0, 0.0, 0.0, 0.0, 0.0, 0.0, 1.6635859804349716E9, 0.0, 2022-09-19 16:13:00.434
57.0, 14762.343735974282, -69031.55225891498, -14977.76984903453, -6336.786608312918, 5506.03932214252, -86731.16108550562, 4049.5996534347123, -37837.56945581072, 0.614, -0.67, 0.47600000000000003, 192.0, 0.0, 0.0, 0.0, 0.0, 0.0, 0.0, 0.0, 0.0, 0.0, 1.6635859804390287E9, 0.0, 2022-09-19 16:13:00.439
58.0, 14763.260157496949, -69025.07025302295, -14981.167314191738, -6343.425076416144, 5500.719606962158, -86800.89852820618, 4027.806702590788, -37846.39839487057, 0.614, -0.67, 0.47600000000000003, 192.0, 0.0, 0.0, 0.0, 0.0, 0.0, 0.0, 0.0, 0.0, 0.0, 1.6635859804430804E9, 0.0, 2022-09-19 16:13:00.443
59.0, 14763.617785408234, -69013.11206973935, -14983.424840381724, -6348.476570663044, 5501.7924906960125, -86844.43972640512, 4035.071019538763, -37852.433365873505, 0.614, -0.67, 0.47600000000000003, 192.0, 0.0, 0.0, 0.0, 0.0, 0.0, 0.0, 0.0, 0.0, 0.0, 1.6635859804480584E9, 0.0, 2022-09-19 16:13:00.448
60.0, 14769.116314544239, -68995.54359859748, -14982.083735714405, -6345.772009583951, 5508.989752410621, -86859.12482251225, 4072.577246734768, -37840.69870003447, 0.614, -0.67, 0.47600000000000003, 192.0, 0.0, 0.0, 0.0, 0.0, 0.0, 0.0, 0.0, 0.0, 0.0, 1.6635859804509945E9, 0.0, 2022-09-19 16:13:00.450
61.0, 14766.21058776505, -68979.33858386739, -14982.463715370146, -6343.335669438323, 5516.097607147409, -86869.45132845061, 4110.821081497798, -37835.781316254295, 0.614, -0.67, 0.47600000000000003, 192.0, 0.0, 0.0, 0.0, 0.0, 0.0, 0.0, 0.0, 0.0, 0.0, 1.6635859804550252E9, 0.0, 2022-09-19 16:13:00.455
62.0, 14758.432180694603, -68972.23072913059, -14994.488953887101, -6350.510579408477, 5510.688484989225, -86929.2198931241, 4090.346883576737, -37841.4810110904, 0.614, -0.67, 0.47600000000000003, 192.0, 0.0, 0.0, 0.0, 0.0, 0.0, 0.0, 0.0, 0.0, 0.0, 1.6635859804592679E9, 0.0, 2022-09-19 16:13:00.459
63.0, 14760.44383769558, -68963.31238309293, -14997.774660322031, -6358.4007452012, 5505.0781971309425, -87000.49960619207, 4067.5034007434133, -37853.59565658518, 0.614, -0.67, 0.47600000000000003, 192.0, 0.0, 0.0, 0.0, 0.0, 0.0, 0.0, 0.0, 0.0, 0.0, 1.6635859804640589E9, 0.0, 2022-09-19 16:13:00.464
64.0, 14767.596395921279, -68945.58744973988, -14993.371366664334, -6358.601910901298, 5510.017932655565, -87040.93391191172, 4080.4674125274914, -37855.74142405289, 0.614, -0.67, 0.47600000000000003, 192.0, 0.0, 0.0, 0.0, 0.0, 0.0, 0.0, 0.0, 0.0, 0.0, 1.66358598046805E9, 0.0, 2022-09-19 16:13:00.468
65.0, 14767.127009287717, -68928.24249604256, -14982.128439203316, -6355.584425399831, 5518.735112993135, -87054.791993474, 4120.1417589356615, -37846.24193265938, 0.618, -0.666, 0.47800000000000004, 192.0, 19.0, 80.0, 235.0, 48.0, 14.0, 240.0, 0.0, 0.0, 0.0, 1.6635859804710605E9, 0.0, 2022-09-19 16:13:00.471
66.0, 14768.02107906593, -68906.47189694308, -14975.177046677716, -6348.9906607855155, 5531.408552099294, -87061.18459238824, 4162.073631533817, -37836.54127556578, 0.618, -0.666, 0.47800000000000004, 192.0, 0.0, 0.0, 0.0, 0.0, 0.0, 0.0, 0.0, 0.0, 0.0, 1.6635859804761276E9, 0.0, 2022-09-19 16:13:00.476
67.0, 14764.802427864364, -68902.33682421886, -14988.20811369516, -6353.170436998658, 5522.020819428065, -87126.40698270881, 4142.784076068888, -37840.96692096793, 0.618, -0.666, 0.47800000000000004, 192.0, 0.0, 0.0, 0.0, 0.0, 0.0, 0.0, 0.0, 0.0, 0.0, 1.6635859804790783E9, 0.0, 2022-09-19 16:13:00.479
68.0, 14761.96375631854, -68893.32907120336, -14992.63375909731, -6354.064506776871, 5514.465929802172, -87198.22313764371, 4120.119407191206, -37846.35369138166, 0.618, -0.666, 0.47800000000000004, 192.0, 0.0, 0.0, 0.0, 0.0, 0.0, 0.0, 0.0, 0.0, 0.0, 1.663585980483127E9, 0.0, 2022-09-19 16:13:00.483
69.0, 14762.611956907745, -68878.37575416277, -14994.86893354284, -6356.322032966857, 5513.4153978127715, -87244.64771087738, 4124.813273526821, -37845.95135998146, 0.618, -0.666, 0.47800000000000004, 192.0, 0.0, 0.0, 0.0, 0.0, 0.0, 0.0, 0.0, 0.0, 0.0, 1.6635859804871824E9, 0.0, 2022-09-19 16:13:00.487
70.0, 14780.78392514991, -68848.49147182601, -14983.536599104, -6354.176265499147, 5528.502825320104, -87253.16372551487, 4171.237846760493, -37861.35171191117, 0.618, -0.666, 0.47800000000000004, 192.0, 0.0, 0.0, 0.0, 0.0, 0.0, 0.0, 0.0, 0.0, 0.0, 1.6635859804911783E9, 0.0, 2022-09-19 16:13:00.491
71.0, 14780.091021071796, -68822.56344825786, -14981.837866525397, -6359.943015568616, 5539.768104525579, -87257.63407440593, 4216.723646727043, -37863.56453461225, 0.618, -0.666, 0.47800000000000004, 192.0, 0.0, 0.0, 0.0, 0.0, 0.0, 0.0, 0.0, 0.0, 0.0, 1.6635859804951963E9, 0.0, 2022-09-19 16:13:00.495
72.0, 14758.92391907262, -68815.45559352108, -14992.63375909731, -6360.568864413365, 5532.034400944042, -87315.63685126745, 4200.250411063482, -37844.54320008078, 0.618, -0.666, 0.47800000000000004, 192.0, 0.0, 0.0, 0.0, 0.0, 0.0, 0.0, 0.0, 0.0, 0.0, 1.663585980499154E9, 0.0, 2022-09-19 16:13:00.499
73.0, 14752.7324858585, -68801.57516021433, -14990.130363718315, -6349.482399163533, 5530.00039219861, -87384.97196256781, 4178.300998008371, -37820.53742653578, 0.618, -0.666, 0.47800000000000004, 192.0, 0.0, 0.0, 0.0, 0.0, 0.0, 0.0, 0.0, 0.0, 0.0, 1.6635859805042236E9, 0.0, 2022-09-19 16:13:00.504
74.0, 14773.363145990748, -68785.2360350175, -14988.029299739517, -6345.682602606131, 5528.368714853373, -87436.135105626, 4181.296131765382, -37823.93489169299, 0.618, -0.666, 0.47800000000000004, 192.0, 0.0, 0.0, 0.0, 0.0, 0.0, 0.0, 0.0, 0.0, 0.0, 1.6635859805072515E9, 0.0, 2022-09-19 16:13:00.507
75.0, 14782.97439610653, -68767.35463945326, -14981.457886869657, -6349.25888171898, 5531.117979421375, -87460.40910010447, 4210.509861768468, -37836.988310454886, 0.614, -0.664, 0.48, 192.0, 19.0, 48.0, 235.0, 64.0, 15.0, 0.0, 0.0, 0.0, 0.0, 1.6635859805102313E9, 0.0, 2022-09-19 16:13:00.510
76.0, 14788.539980475902, -68737.11272920523, -14978.932139746206, -6353.6845271211305, 5545.333688894951, -87461.86196349407, 4258.3202431583695, -37849.46058386095, 0.614, -0.664, 0.48, 192.0, 0.0, 0.0, 0.0, 0.0, 0.0, 0.0, 0.0, 0.0, 0.0, 1.6635859805152264E9, 0.0, 2022-09-19 16:13:00.515
77.0, 14785.433087996613, -68717.95728420702, -14992.723166075131, -6357.104344022792, 5543.791418527534, -87511.79576060722, 4252.441734366624, -37845.861953003645, 0.614, -0.664, 0.48, 192.0, 0.0, 0.0, 0.0, 0.0, 0.0, 0.0, 0.0, 0.0, 0.0, 1.6635859805192544E9, 0.0, 2022-09-19 16:13:00.519
78.0, 14778.101715815274, -68710.58120853678, -14995.137154476304, -6361.351175469301, 5530.38037185435, -87591.14445342356, 4221.7527892294875, -37846.39839487057, 0.614, -0.664, 0.48, 192.0, 0.0, 0.0, 0.0, 0.0, 0.0, 0.0, 0.0, 0.0, 0.0, 1.6635859805233643E9, 0.0, 2022-09-19 16:13:00.523
79.0, 14776.87236987023, -68693.12449611718, -14985.503552616066, -6353.617471887765, 5528.614584042381, -87644.11808778264, 4222.736265985521, -37826.348880094156, 0.614, -0.664, 0.48, 192.0, 0.0, 0.0, 0.0, 0.0, 0.0, 0.0, 0.0, 0.0, 0.0, 1.663585980527222E9, 0.0, 2022-09-19 16:13:00.527
80.0, 14781.521532716935, -68667.33058301575, -14971.734878031599, -6344.140332238714, 5538.896386491822, -87664.43582349252, 4258.811981536386, -37817.16231312303, 0.614, -0.664, 0.48, 192.0, 0.0, 0.0, 0.0, 0.0, 0.0, 0.0, 0.0, 0.0, 0.0, 1.6635859805311842E9, 0.0, 2022-09-19 16:13:00.531
81.0, 14784.606073451767, -68639.41325419108, -14968.739744274586, -6356.8584748337835, 5548.798209285523, -87672.72832068543, 4305.437720470157, -37840.16225816754, 0.614, -0.664, 0.48, 192.0, 0.0, 0.0, 0.0, 0.0, 0.0, 0.0, 0.0, 0.0, 0.0, 1.6635859805341845E9, 0.0, 2022-09-19 16:13:00.534
82.0, 14782.683823428612, -68628.55030638579, -14981.457886869657, -6368.056698805893, 5537.845854502422, -87731.28989115833, 4290.171479007182, -37848.38770012709, 0.614, -0.664, 0.48, 192.0, 0.0, 0.0, 0.0, 0.0, 0.0, 0.0, 0.0, 0.0, 0.0, 1.6635859805382617E9, 0.0, 2022-09-19 16:13:00.538
83.0, 14772.11144830125, -68618.96140801447, -14989.571570106933, -6375.477477965054, 5525.641802029825, -87813.38784854268, 4257.627339080255, -37858.96007525445, 0.614, -0.664, 0.48, 192.0, 0.0, 0.0, 0.0, 0.0, 0.0, 0.0, 0.0, 0.0, 0.0, 1.6635859805432463E9, 0.0, 2022-09-19 16:13:00.543
84.0, 14775.598320436278, -68599.67185254954, -14992.29848293048, -6380.014882089482, 5526.312354363484, -87866.92027651313, 4260.533065859445, -37860.54704911078, 0.614, -0.664, 0.48, 192.0, 0.0, 0.0, 0.0, 0.0, 0.0, 0.0, 0.0, 0.0, 0.0, 1.6635859805472407E9, 0.0, 2022-09-19 16:13:00.547
85.0, 14774.816009380344, -68575.8895964491, -14985.481200871613, -6373.085841308337, 5533.28609863354, -87890.41195993566, 4295.871173843286, -37833.747307508864, 0.612, -0.666, 0.48, 192.0, 19.0, 32.0, 235.0, 48.0, 15.0, 0.0, 0.0, 0.0, 0.0, 1.6635859805511825E9, 0.0, 2022-09-19 16:13:00.551
86.0, 14774.748954146977, -68545.51357573434, -14976.786372278497, -6371.252998263001, 5545.445447617227, -87895.75402686048, 4343.949776166651, -37836.47422033241, 0.612, -0.666, 0.48, 192.0, 0.0, 0.0, 0.0, 0.0, 0.0, 0.0, 0.0, 0.0, 0.0, 1.6635859805552907E9, 0.0, 2022-09-19 16:13:00.555
87.0, 14776.35827974776, -68528.9732848374, -14976.696965300676, -6370.113059295781, 5541.533892337548, -87951.007539154, 4337.758342952531, -37837.52475232181, 0.612, -0.666, 0.48, 192.0, 0.0, 0.0, 0.0, 0.0, 0.0, 0.0, 0.0, 0.0, 0.0, 1.6635859805582771E9, 0.0, 2022-09-19 16:13:00.558
88.0, 14771.843227367786, -68515.53988641976, -14975.86995075583, -6368.5931406728205, 5534.493092834126, -88031.3844122153, 4311.048008328439, -37831.75800225234, 0.612, -0.666, 0.48, 192.0, 0.0, 0.0, 0.0, 0.0, 0.0, 0.0, 0.0, 0.0, 0.0, 1.6635859805622685E9, 0.0, 2022-09-19 16:13:00.562
89.0, 14765.96471857604, -68503.13466824708, -14983.91657875974, -6378.874943122261, 5527.005258441599, -88093.52226180104, 4305.795348381442, -37845.705490792454, 0.612, -0.666, 0.48, 192.0, 0.0, 0.0, 0.0, 0.0, 0.0, 0.0, 0.0, 0.0, 0.0, 1.6635859805662973E9, 0.0, 2022-09-19 16:13:00.566
90.0, 14762.790770863388, -68489.85773204062, -14987.761078806054, -6387.078033337359, 5522.467854317171, -88130.78261980804, 4326.247194558048, -37844.54320008078, 0.612, -0.666, 0.48, 192.0, 0.0, 0.0, 0.0, 0.0, 0.0, 0.0, 0.0, 0.0, 0.0, 1.6635859805702994E9, 0.0, 2022-09-19 16:13:00.570
91.0, 14776.335928003304, -68461.96275496039, -14976.652261811765, -6381.31128326789, 5533.643726544825, -88142.36082343588, 4373.767003270031, -37844.14086868058, 0.612, -0.666, 0.48, 192.0, 0.0, 0.0, 0.0, 0.0, 0.0, 0.0, 0.0, 0.0, 0.0, 1.6635859805752711E9, 0.0, 2022-09-19 16:13:00.575
92.0, 14774.346622746782, -68445.06483615217, -14980.16148569125, -6379.590198944831, 5532.168511410775, -88196.74261769565, 4369.274302634514, -37844.69966229197, 0.612, -0.666, 0.48, 192.0, 0.0, 0.0, 0.0, 0.0, 0.0, 0.0, 0.0, 0.0, 0.0, 1.6635859805793335E9, 0.0, 2022-09-19 16:13:00.579
93.0, 14767.104657543261, -68433.3525220576, -14988.96807300664, -6382.585332701842, 5521.953764194699, -88279.26525822464, 4337.937156908173, -37848.521810593826, 0.612, -0.666, 0.48, 192.0, 0.0, 0.0, 0.0, 0.0, 0.0, 0.0, 0.0, 0.0, 0.0, 1.6635859805832863E9, 0.0, 2022-09-19 16:13:00.583
94.0, 14760.645003395679, -68419.78501317323, -14994.10897423136, -6379.478440222555, 5515.069426902464, -88344.51000028968, 4332.729200450087, -37844.744365780876, 0.612, -0.666, 0.48, 192.0, 0.0, 0.0, 0.0, 0.0, 0.0, 0.0, 0.0, 0.0, 0.0, 1.6635859805863345E9, 0.0, 2022-09-19 16:13:00.586
95.0, 14761.44966619607, -68399.51198095226, -14991.404413152268, -6378.07028032187, 5519.115092648875, -88377.97056173928, 4359.059555418438, -37849.214714671936, 0.614, -0.664, 0.47600000000000003, 192.0, 19.0, 48.0, 235.0, 64.0, 14.0, 224.0, 0.0, 0.0, 0.0, 1.6635859805902617E9, 0.0, 2022-09-19 16:13:00.590
96.0, 14778.660509426656, -68359.72587582182, -14970.907863486751, -6367.252036005501, 5542.2938516490285, -88374.30487564861, 4418.381085202824, -37848.47710710491, 0.614, -0.664, 0.47600000000000003, 192.0, 0.0, 0.0, 0.0, 0.0, 0.0, 0.0, 0.0, 0.0, 0.0, 1.6635859805943074E9, 0.0, 2022-09-19 16:13:00.594
97.0, 14779.398116993681, -68340.30220989016, -14976.987537978595, -6368.950768584105, 5544.529026094559, -88421.17648377139, 4418.582250902921, -37851.47224086193, 0.614, -0.664, 0.47600000000000003, 192.0, 0.0, 0.0, 0.0, 0.0, 0.0, 0.0, 0.0, 0.0, 0.0, 1.6635859805982616E9, 0.0, 2022-09-19 16:13:00.598
98.0, 14777.297053014881, -68330.24392488528, -14983.335433403903, -6364.703937137597, 5536.258880646095, -88504.97317373434, 4385.591076086888, -37831.82505748571, 0.614, -0.664, 0.47600000000000003, 192.0, 0.0, 0.0, 0.0, 0.0, 0.0, 0.0, 0.0, 0.0, 0.0, 1.663585980603372E9, 0.0, 2022-09-19 16:13:00.603
99.0, 14781.566236205845, -68314.12831713299, -14981.994328736584, -6368.615492417275, 5533.4872643336375, -88567.71452042038, 4379.377291128313, -37833.72495576441, 0.614, -0.664, 0.47600000000000003, 192.0, 0.0, 0.0, 0.0, 0.0, 0.0, 0.0, 0.0, 0.0, 0.0, 1.6635859806073065E9, 0.0, 2022-09-19 16:13:00.607
100.0, 14777.811143137355, -68292.00009012224, -14980.764982791541, -6380.6854344231415, 5536.437694601738, -88600.07984639167, 4404.724169340631, -37850.42170887253, 0.614, -0.664, 0.47600000000000003, 192.0, 0.0, 0.0, 0.0, 0.0, 0.0, 0.0, 0.0, 0.0, 0.0, 1.6635859806113102E9, 0.0, 2022-09-19 16:13:00.611
101.0, 14778.705212915565, -68268.64251716645, -14982.01668048104, -6387.6144752042865, 5543.254976660607, -88612.2168436309, 4448.511236728577, -37853.10391820716, 0.614, -0.664, 0.47600000000000003, 192.0, 0.0, 0.0, 0.0, 0.0, 0.0, 0.0, 0.0, 0.0, 0.0, 1.6635859806143353E9, 0.0, 2022-09-19 16:13:00.614
102.0, 14781.275663527926, -68251.81165359159, -14989.526866618022, -6382.7417949130295, 5542.874997004867, -88658.77552733131, 4448.734754173131, -37840.609293056645, 0.614, -0.664, 0.47600000000000003, 192.0, 0.0, 0.0, 0.0, 0.0, 0.0, 0.0, 0.0, 0.0, 0.0, 1.663585980618312E9, 0.0, 2022-09-19 16:13:00.618
103.0, 14782.572064706334, -68232.74561557121, -14990.487991629601, -6378.316149510879, 5541.958575482199, -88729.71996423244, 4424.192538761204, -37842.419784357524, 0.614, -0.664, 0.47600000000000003, 192.0, 0.0, 0.0, 0.0, 0.0, 0.0, 0.0, 0.0, 0.0, 0.0, 1.6635859806223352E9, 0.0, 2022-09-19 16:13:00.622
104.0, 14769.317480244337, -68218.06051946408, -14995.49478238759, -6386.049853092415, 5537.398819613317, -88791.07550276227, 4417.241146235603, -37851.24872341737, 0.614, -0.664, 0.47600000000000003, 192.0, 0.0, 0.0, 0.0, 0.0, 0.0, 0.0, 0.0, 0.0, 0.0, 1.6635859806263192E9, 0.0, 2022-09-19 16:13:00.626
105.0, 14780.895683872186, -68193.87593196344, -14988.699852073176, -6382.898257124217, 5542.517369093582, -88822.07737232177, 4441.425733736245, -37844.36438612513, 0.622, -0.668, 0.47400000000000003, 192.0, 19.0, 112.0, 235.0, 32.0, 14.0, 208.0, 0.0, 0.0, 0.0, 1.663585980630329E9, 0.0, 2022-09-19 16:13:00.630
106.0, 14795.714890446056, -68166.1374170944, -14981.837866525397, -6379.903123367206, 5553.134447709853, -88830.68279393707, 4485.078690657459, -37845.66078730355, 0.622, -0.668, 0.47400000000000003, 192.0, 0.0, 0.0, 0.0, 0.0, 0.0, 0.0, 0.0, 0.0, 0.0, 1.663585980635328E9, 0.0, 2022-09-19 16:13:00.635
107.0, 14785.053108340873, -68149.59712619748, -14995.24891319858, -6386.720405426074, 5551.078087219964, -88875.20746889204, 4485.615132524387, -37850.600522828165, 0.622, -0.668, 0.47400000000000003, 192.0, 0.0, 0.0, 0.0, 0.0, 0.0, 0.0, 0.0, 0.0, 0.0, 1.6635859806383567E9, 0.0, 2022-09-19 16:13:00.638
108.0, 14774.793657635888, -68147.02667558512, -15009.419919183245, -6389.089690338336, 5533.062581188987, -88963.34039727932, 4442.833893636929, -37844.610255314146, 0.622, -0.668, 0.47400000000000003, 192.0, 0.0, 0.0, 0.0, 0.0, 0.0, 0.0, 0.0, 0.0, 0.0, 1.6635859806423588E9, 0.0, 2022-09-19 16:13:00.642
109.0, 14788.204704309072, -68122.95384680675, -14996.880590543818, -6374.8739808647615, 5539.835159758944, -89017.09634269433, 4442.677431425743, -37829.90280746255, 0.622, -0.668, 0.47400000000000003, 192.0, 0.0, 0.0, 0.0, 0.0, 0.0, 0.0, 0.0, 0.0, 0.0, 1.663585980646347E9, 0.0, 2022-09-19 16:13:00.646
110.0, 14792.540942733402, -68105.58654136497, -14987.716375317143, -6374.78457388694, 5544.976060983666, -89054.2672937235, 4463.732774702642, -37841.72688027941, 0.622, -0.668, 0.47400000000000003, 192.0, 0.0, 0.0, 0.0, 0.0, 0.0, 0.0, 0.0, 0.0, 0.0, 1.6635859806503427E9, 0.0, 2022-09-19 16:13:00.650
111.0, 14794.530247989924, -68079.21148290772, -14976.384040878302, -6376.080975065348, 5557.493037878638, -89061.50925892702, 4512.280763659569, -37850.175839683514, 0.622, -0.668, 0.47400000000000003, 192.0, 0.0, 0.0, 0.0, 0.0, 0.0, 0.0, 0.0, 0.0, 0.0, 1.6635859806543748E9, 0.0, 2022-09-19 16:13:00.654
112.0, 14792.004500866475, -68058.84904370893, -14979.759154291054, -6376.438602976633, 5558.409459401305, -89099.84250066787, 4521.9367172642615, -37835.87072323212, 0.622, -0.668, 0.47400000000000003, 192.0, 0.0, 0.0, 0.0, 0.0, 0.0, 0.0, 0.0, 0.0, 0.0, 1.6635859806594715E9, 0.0, 2022-09-19 16:13:00.659
113.0, 14781.901512372675, -68052.59055526144, -14992.63375909731, -6381.668911179175, 5542.584424326948, -89183.77330109755, 4482.798812723018, -37837.34593836617, 0.622, -0.668, 0.47400000000000003, 192.0, 0.0, 0.0, 0.0, 0.0, 0.0, 0.0, 0.0, 0.0, 0.0, 1.6635859806633828E9, 0.0, 2022-09-19 16:13:00.663
114.0, 14785.455439741068, -68038.17368008777, -14992.96903526414, -6380.663082678686, 5535.700087034713, -89248.43689780675, 4469.320710816469, -37833.00969994184, 0.622, -0.668, 0.47400000000000003, 192.0, 0.0, 0.0, 0.0, 0.0, 0.0, 0.0, 0.0, 0.0, 0.0, 1.6635859806664398E9, 0.0, 2022-09-19 16:13:00.666
115.0, 14797.815954424854, -68017.56537169998, -14985.794125293985, -6383.702919924608, 5538.248185902618, -89285.22786918019, 4489.481984315155, -37841.30219713476, 0.622, -0.668, 0.47400000000000003, 192.0, 0.0, 0.0, 0.0, 0.0, 0.0, 0.0, 0.0, 0.0, 0.0, 1.6635859806704636E9, 0.0, 2022-09-19 16:13:00.670
116.0, 14800.565218992857, -67991.48088592064, -14979.937968246695, -6387.88269613775, 5545.423095872771, -89297.6330873529, 4532.620851113898, -37845.19140066998, 0.616, -0.664, 0.47200000000000003, 192.0, 19.0, 64.0, 235.0, 64.0, 14.0, 192.0, 0.0, 0.0, 0.0, 1.6635859806744175E9, 0.0, 2022-09-19 16:13:00.674
117.0, 14795.02198636794, -67974.98529851262, -14984.96711074914, -6385.759280414496, 5544.081991205453, -89341.0401750851, 4536.778275582585, -37840.98927271239, 0.616, -0.664, 0.47200000000000003, 192.0, 0.0, 0.0, 0.0, 0.0, 0.0, 0.0, 0.0, 0.0, 0.0, 1.663585980678415E9, 0.0, 2022-09-19 16:13:00.678
118.0, 14792.295073544394, -67967.3410019089, -14989.6386253403, -6389.290856038435, 5535.0742381899645, -89424.27807143665, 4500.74726352063, -37854.06504321874, 0.616, -0.664, 0.47200000000000003, 192.0, 0.0, 0.0, 0.0, 0.0, 0.0, 0.0, 0.0, 0.0, 0.0, 1.6635859806824033E9, 0.0, 2022-09-19 16:13:00.682
119.0, 14793.30090204488, -67953.1923476687, -14982.642529325787, -6386.921571126172, 5532.660249788792, -89489.63457222398, 4490.130184904359, -37855.31674090824, 0.616, -0.664, 0.47200000000000003, 192.0, 0.0, 0.0, 0.0, 0.0, 0.0, 0.0, 0.0, 0.0, 0.0, 1.6635859806864367E9, 0.0, 2022-09-19 16:13:00.686
120.0, 14793.971454378541, -67937.94845795017, -14984.184799693205, -6387.949751371116, 5531.609717799392, -89531.72290703331, 4504.815281011496, -37847.314816393235, 0.616, -0.664, 0.47200000000000003, 192.0, 0.0, 0.0, 0.0, 0.0, 0.0, 0.0, 0.0, 0.0, 0.0, 1.6635859806914277E9, 0.0, 2022-09-19 16:13:00.691
121.0, 14790.55163747688, -67916.75900420654, -14982.10608745886, -6386.206315303602, 5539.164607425286, -89546.49741011827, 4547.216540243214, -37843.09033669118, 0.616, -0.664, 0.47200000000000003, 192.0, 0.0, 0.0, 0.0, 0.0, 0.0, 0.0, 0.0, 0.0, 0.0, 1.6635859806945522E9, 0.0, 2022-09-19 16:13:00.694
122.0, 14789.434050254113, -67896.9330068747, -14985.749421805076, -6384.686396680641, 5540.908043492799, -89584.13774778102, 4557.945377581761, -37842.084508190695, 0.616, -0.664, 0.47200000000000003, 192.0, 0.0, 0.0, 0.0, 0.0, 0.0, 0.0, 0.0, 0.0, 0.0, 1.6635859806985033E9, 0.0, 2022-09-19 16:13:00.698
123.0, 14791.222189810538, -67882.22555902309, -14983.536599104, -6378.8078878888955, 5535.923604479266, -89661.20656266292, 4526.474121388688, -37843.85029600267, 0.616, -0.664, 0.47200000000000003, 192.0, 0.0, 0.0, 0.0, 0.0, 0.0, 0.0, 0.0, 0.0, 0.0, 1.6635859807025137E9, 0.0, 2022-09-19 16:13:00.702
124.0, 14791.110431088262, -67869.01567805001, -14981.368479891835, -6379.970178600572, 5531.073275932465, -89730.00523209634, 4511.65491481482, -37849.79586002778, 0.616, -0.664, 0.47200000000000003, 192.0, 0.0, 0.0, 0.0, 0.0, 0.0, 0.0, 0.0, 0.0, 0.0, 1.6635859807064607E9, 0.0, 2022-09-19 16:13:00.706
125.0, 14794.463192756557, -67852.05070400843, -14984.25185492657, -6385.021672847471, 5532.637898044336, -89772.00415992788, 4525.468292888199, -37853.059214718254, 0.616, -0.664, 0.47200000000000003, 192.0, 0.0, 0.0, 0.0, 0.0, 0.0, 0.0, 0.0, 0.0, 0.0, 1.6635859807104688E9, 0.0, 2022-09-19 16:13:00.710
126.0, 14800.967550393052, -67828.06728220788, -14976.96518623414, -6377.623245432765, 5542.852645260411, -89784.1411571671, 4568.495400964666, -37847.180705926505, 0.618, -0.664, 0.47400000000000003, 192.0, 19.0, 80.0, 235.0, 64.0, 14.0, 208.0, 0.0, 0.0, 0.0, 1.6635859807145348E9, 0.0, 2022-09-19 16:13:00.714
127.0, 14792.853867155776, -67816.01969194648, -14983.603654337367, -6382.138297812736, 5535.878900990356, -89826.60947163218, 4574.2397992896795, -37858.35657815416, 0.618, -0.664, 0.47400000000000003, 192.0, 0.0, 0.0, 0.0, 0.0, 0.0, 0.0, 0.0, 0.0, 0.0, 1.6635859807195516E9, 0.0, 2022-09-19 16:13:00.719
128.0, 14784.762535662954, -67802.42983131766, -14986.039994482995, -6381.1548210567025, 5525.865319474378, -89903.54417604735, 4542.902653563339, -37843.87264774712, 0.618, -0.664, 0.47400000000000003, 192.0, 0.0, 0.0, 0.0, 0.0, 0.0, 0.0, 0.0, 0.0, 0.0, 1.6635859807225375E9, 0.0, 2022-09-19 16:13:00.722
129.0, 14783.44378274009, -67789.04113638891, -14981.524942103022, -6379.813716389384, 5519.606831026892, -89973.39337747019, 4526.205900455225, -37832.093278419175, 0.618, -0.664, 0.47400000000000003, 192.0, 0.0, 0.0, 0.0, 0.0, 0.0, 0.0, 0.0, 0.0, 0.0, 1.6635859807265537E9, 0.0, 2022-09-19 16:13:00.726
130.0, 14791.333948532814, -67774.17722632614, -14969.25383439706, -6373.4658209640775, 5518.153967637297, -90019.28150883694, 4536.934737793772, -37825.2759963603, 0.618, -0.664, 0.47400000000000003, 192.0, 0.0, 0.0, 0.0, 0.0, 0.0, 0.0, 0.0, 0.0, 0.0, 1.6635859807306385E9, 0.0, 2022-09-19 16:13:00.730
131.0, 14803.06861437185, -67757.1451970512, -14963.174159905215, -6372.839972119328, 5518.176319381752, -90040.67212828067, 4573.077508578004, -37835.49074357638, 0.618, -0.664, 0.47400000000000003, 192.0, 0.0, 0.0, 0.0, 0.0, 0.0, 0.0, 0.0, 0.0, 0.0, 1.6635859807345347E9, 0.0, 2022-09-19 16:13:00.734
132.0, 14798.307692802871, -67735.06167352936, -14965.141113417283, -6374.426945975655, 5521.506729305593, -90074.5573728749, 4590.981255886705, -37838.46352558894, 0.618, -0.664, 0.47400000000000003, 192.0, 0.0, 0.0, 0.0, 0.0, 0.0, 0.0, 0.0, 0.0, 0.0, 1.66358598073855E9, 0.0, 2022-09-19 16:13:00.738
133.0, 14787.109468830762, -67726.05392051386, -14981.234369425103, -6378.629073933253, 5510.219098355663, -90159.87398146081, 4554.704374635741, -37842.93387448, 0.618, -0.664, 0.47400000000000003, 192.0, 0.0, 0.0, 0.0, 0.0, 0.0, 0.0, 0.0, 0.0, 0.0, 1.663585980742565E9, 0.0, 2022-09-19 16:13:00.742
134.0, 14784.516666473946, -67714.6321790972, -14987.269340428036, -6382.250056535013, 5506.464005287172, -90233.74649688561, 4534.856025559428, -37850.332301894705, 0.618, -0.664, 0.47400000000000003, 192.0, 0.0, 0.0, 0.0, 0.0, 0.0, 0.0, 0.0, 0.0, 0.0, 1.6635859807475915E9, 0.0, 2022-09-19 16:13:00.747
135.0, 14784.829590896321, -67690.8275712523, -14978.216883923636, -6377.556190199398, 5512.789548968023, -90273.91258167179, 4553.072697290504, -37847.91831349353, 0.618, -0.664, 0.47400000000000003, 192.0, 0.0, 0.0, 0.0, 0.0, 0.0, 0.0, 0.0, 0.0, 0.0, 1.663585980750598E9, 0.0, 2022-09-19 16:13:00.750
136.0, 14787.668262442145, -67664.02782965038, -14971.220787909126, -6382.719443168574, 5519.942107193721, -90289.3576370904, 4595.362197799945, -37862.24578168938, 0.62, -0.668, 0.47800000000000004, 192.0, 19.0, 96.0, 235.0, 32.0, 14.0, 240.0, 0.0, 0.0, 0.0, 1.6635859807546115E9, 0.0, 2022-09-19 16:13:00.754
137.0, 14788.316463031348, -67643.10659684023, -14975.288805399992, -6388.463841493588, 5523.540738051026, -90317.25261417063, 4614.29412535359, -37859.31770316574, 0.62, -0.668, 0.47800000000000004, 192.0, 0.0, 0.0, 0.0, 0.0, 0.0, 0.0, 0.0, 0.0, 0.0, 1.6635859807585394E9, 0.0, 2022-09-19 16:13:00.758
138.0, 14788.629387453722, -67638.23391654897, -14988.163410206249, -6388.888524638239, 5507.380426809839, -90401.11635936695, 4576.027938846104, -37842.10685993515, 0.62, -0.668, 0.47800000000000004, 192.0, 0.0, 0.0, 0.0, 0.0, 0.0, 0.0, 0.0, 0.0, 0.0, 1.663585980762777E9, 0.0, 2022-09-19 16:13:00.762
