%OpenBCI Raw EEG Data
%Number of channels = 8
%Sample Rate = 250 Hz
%Board = OpenBCI_GUI$BoardCytonSerial
Sample Index, EXG Channel 0, EXG Channel 1, EXG Channel 2, EXG Channel 3, EXG Channel 4, EXG Channel 5, EXG Channel 6, EXG Channel 7, Accel Channel 0, Accel Channel 1, Accel Channel 2, Other, Other, Other, Other, Other, Other, Other, Analog Channel 0, Analog Channel 1, Analog Channel 2, Timestamp, Other, Timestamp (Formatted)
109.0, -81273.28977266428, -25839.30949441308, -59019.423606327015, -20475.80724666205, -187500.02235174447, 187500.0, -42196.383142040155, -16092.518400254059, 0.0, 0.0, 0.0, 192.0, 0.0, 0.0, 0.0, 0.0, 0.0, 0.0, 0.0, 0.0, 0.0, 1.663592881326341E9, 0.0, 2022-09-19 18:08:01.326
110.0, -81188.62136466759, -25878.17917802086, -58993.92026590351, -20500.66238649635, -187500.02235174447, 187500.0, -42339.03197515392, -16092.272531065051, 0.0, 0.0, 0.0, 192.0, 0.0, 0.0, 0.0, 0.0, 0.0, 0.0, 0.0, 0.0, 0.0, 1.6635928813263733E9, 0.0, 2022-09-19 18:08:01.326
111.0, -81517.23671164952, -25938.1712601389, -58855.071229347144, -20458.261127264635, -187500.02235174447, 187500.0, -42327.90080641518, -16081.856618148879, 0.0, 0.0, 0.0, 192.0, 0.0, 0.0, 0.0, 0.0, 0.0, 0.0, 0.0, 0.0, 0.0, 1.6635928813263917E9, 0.0, 2022-09-19 18:08:01.326
0.0, 0.0, 0.0, 0.0, 0.0, 0.0, 0.0, 0.0, 0.0, 0.0, 0.0, 0.0, 192.0, 0.0, 0.0, 0.0, 0.0, 0.0, 0.0, 0.0, 0.0, 0.0, 1.6635928813945105E9, 0.0, 2022-09-19 18:08:01.394
1.0, -103516.27063945183, -23887.10813368656, -62396.54867607936, -21029.39290158664, -187500.02235174447, 187500.0, -46401.59564037271, -14419.535031263236, 0.64, -0.5660000000000001, 0.5680000000000001, 192.0, 20.0, 0.0, 238.0, 80.0, 17.0, 192.0, 0.0, 0.0, 0.0, 1.6635928814116547E9, 0.0, 2022-09-19 18:08:01.411
2.0, -103740.16806366063, -23962.54527122322, -62258.48195057893, -21014.372529312674, -187500.02235174447, 187500.0, -46444.80156240482, -14446.558290309704, 0.64, -0.5660000000000001, 0.5680000000000001, 192.0, 0.0, 0.0, 0.0, 0.0, 0.0, 0.0, 0.0, 0.0, 0.0, 1.6635928814145107E9, 0.0, 2022-09-19 18:08:01.414
3.0, -103970.77101120604, -23974.637564973542, -62192.58900792468, -20970.71957239146, -187500.02235174447, 187500.0, -46328.84071217069, -14460.282261405262, 0.64, -0.5660000000000001, 0.5680000000000001, 192.0, 0.0, 0.0, 0.0, 0.0, 0.0, 0.0, 0.0, 0.0, 0.0, 1.6635928814176133E9, 0.0, 2022-09-19 18:08:01.417
4.0, -103949.62626095132, -23923.02738702624, -62232.93390666651, -20949.261897714365, -187500.02235174447, 187500.0, -46270.63676960907, -14444.568985053182, 0.64, -0.5660000000000001, 0.5680000000000001, 192.0, 0.0, 0.0, 0.0, 0.0, 0.0, 0.0, 0.0, 0.0, 0.0, 1.6635928814215722E9, 0.0, 2022-09-19 18:08:01.421
5.0, -103694.45874624954, -23866.96921193233, -62348.715942945004, -20975.68165966054, -187500.02235174447, 187500.0, -46281.54442090326, -14419.155051607497, 0.64, -0.5660000000000001, 0.5680000000000001, 192.0, 0.0, 0.0, 0.0, 0.0, 0.0, 0.0, 0.0, 0.0, 0.0, 1.6635928814245632E9, 0.0, 2022-09-19 18:08:01.424
6.0, -103441.12407459308, -23872.601851535066, -62403.54477209387, -21025.727215495972, -187500.02235174447, 187500.0, -46396.27592519235, -14413.164784093475, 0.64, -0.5660000000000001, 0.5680000000000001, 192.0, 0.0, 0.0, 0.0, 0.0, 0.0, 0.0, 0.0, 0.0, 0.0, 1.6635928814285192E9, 0.0, 2022-09-19 18:08:01.428
7.0, -103667.74841162543, -23943.702750647397, -62267.690869294514, -21012.405575800607, -187500.02235174447, 187500.0, -46433.46922796598, -14441.082112918153, 0.64, -0.5660000000000001, 0.5680000000000001, 192.0, 0.0, 0.0, 0.0, 0.0, 0.0, 0.0, 0.0, 0.0, 0.0, 1.663592881432626E9, 0.0, 2022-09-19 18:08:01.432
8.0, -103902.50878363953, -23952.241117029324, -62200.97091209542, -20968.886729346126, -187500.02235174447, 187500.0, -46314.960278863946, -14452.794427012734, 0.638, -0.5660000000000001, 0.56, 192.0, 19.0, 240.0, 238.0, 80.0, 17.0, 128.0, 0.0, 0.0, 0.0, 1.6635928814366248E9, 0.0, 2022-09-19 18:08:01.436
9.0, -103893.61278934631, -23916.25480845628, -62237.69482823549, -20956.347400706698, -187500.02235174447, 187500.0, -46261.673720082494, -14439.495139061826, 0.638, -0.5660000000000001, 0.56, 192.0, 0.0, 0.0, 0.0, 0.0, 0.0, 0.0, 0.0, 0.0, 0.0, 1.6635928814406238E9, 0.0, 2022-09-19 18:08:01.440
10.0, -103635.80776879881, -23869.517310800235, -62351.174634835086, -20978.229758528443, -187500.02235174447, 187500.0, -46265.87584804009, -14412.315417804173, 0.638, -0.5660000000000001, 0.56, 192.0, 0.0, 0.0, 0.0, 0.0, 0.0, 0.0, 0.0, 0.0, 0.0, 1.6635928814446616E9, 0.0, 2022-09-19 18:08:01.444
11.0, -103371.61014933708, -23879.173264404926, -62409.669150074624, -21022.553267783318, -187500.02235174447, 187500.0, -46383.736596552924, -14401.273656043251, 0.638, -0.5660000000000001, 0.56, 192.0, 0.0, 0.0, 0.0, 0.0, 0.0, 0.0, 0.0, 0.0, 0.0, 1.6635928814496677E9, 0.0, 2022-09-19 18:08:01.449
12.0, -103598.18978288052, -23961.22651830036, -62263.60050005919, -21012.31616882279, -187500.02235174447, 187500.0, -46426.71900114048, -14429.347447079117, 0.638, -0.5660000000000001, 0.56, 192.0, 0.0, 0.0, 0.0, 0.0, 0.0, 0.0, 0.0, 0.0, 0.0, 1.6635928814526503E9, 0.0, 2022-09-19 18:08:01.452
13.0, -103835.1629775957, -23963.640506701533, -62194.04187131428, -20970.943089836015, -187500.02235174447, 187500.0, -46309.50645321685, -14436.231784371352, 0.638, -0.5660000000000001, 0.56, 192.0, 0.0, 0.0, 0.0, 0.0, 0.0, 0.0, 0.0, 0.0, 0.0, 1.663592881456565E9, 0.0, 2022-09-19 18:08:01.456
14.0, -103825.99876236901, -23922.535648648223, -62232.77744445532, -20957.66615362956, -187500.02235174447, 187500.0, -46255.10230721263, -14421.434929541938, 0.638, -0.5660000000000001, 0.56, 192.0, 0.0, 0.0, 0.0, 0.0, 0.0, 0.0, 0.0, 0.0, 0.0, 1.6635928814606347E9, 0.0, 2022-09-19 18:08:01.460
15.0, -103567.34437553221, -23868.064447410638, -62344.737332431956, -20980.39787774061, -187500.02235174447, 187500.0, -46254.45410662343, -14395.573961207148, 0.638, -0.5660000000000001, 0.56, 192.0, 0.0, 0.0, 0.0, 0.0, 0.0, 0.0, 0.0, 0.0, 0.0, 1.6635928814646504E9, 0.0, 2022-09-19 18:08:01.464
16.0, -103304.42080550443, -23868.690296255387, -62404.640007572176, -21022.910895694604, -187500.02235174447, 187500.0, -46368.626817301134, -14384.219275023852, 0.638, -0.5660000000000001, 0.56, 192.0, 0.0, 0.0, 0.0, 0.0, 0.0, 0.0, 0.0, 0.0, 0.0, 1.6635928814675868E9, 0.0, 2022-09-19 18:08:01.467
17.0, -103532.29684022628, -23950.810605384184, -62271.42361061855, -21012.651444989617, -187500.02235174447, 187500.0, -46422.114541782685, -14415.355255050095, 0.638, -0.5660000000000001, 0.56, 192.0, 0.0, 0.0, 0.0, 0.0, 0.0, 0.0, 0.0, 0.0, 0.0, 1.6635928814725986E9, 0.0, 2022-09-19 18:08:01.472
18.0, -103771.03582275342, -23965.4062945135, -62210.51510697784, -20973.401781726097, -187500.02235174447, 187500.0, -46315.87670038661, -14428.587487767636, 0.636, -0.5640000000000001, 0.562, 192.0, 19.0, 224.0, 238.0, 96.0, 17.0, 144.0, 0.0, 0.0, 0.0, 1.663592881476734E9, 0.0, 2022-09-19 18:08:01.476
19.0, -103761.75984880446, -23931.63280864153, -62256.000906944384, -20962.985868809923, -187500.02235174447, 187500.0, -46272.581371376684, -14418.976237651854, 0.636, -0.5640000000000001, 0.562, 192.0, 0.0, 0.0, 0.0, 0.0, 0.0, 0.0, 0.0, 0.0, 0.0, 1.663592881480758E9, 0.0, 2022-09-19 18:08:01.480
20.0, -103509.69922658197, -23888.046906953685, -62376.38740258067, -20996.267616303878, -187500.02235174447, 187500.0, -46292.07209254171, -14400.536048476226, 0.636, -0.5640000000000001, 0.562, 192.0, 0.0, 0.0, 0.0, 0.0, 0.0, 0.0, 0.0, 0.0, 0.0, 1.6635928814846954E9, 0.0, 2022-09-19 18:08:01.484
21.0, -103244.09344721955, -23885.275290641224, -62420.91207753564, -21038.892392980146, -187500.02235174447, 187500.0, -46397.013532759374, -14388.08612681462, 0.636, -0.5640000000000001, 0.562, 192.0, 0.0, 0.0, 0.0, 0.0, 0.0, 0.0, 0.0, 0.0, 0.0, 1.6635928814886935E9, 0.0, 2022-09-19 18:08:01.488
22.0, -103468.59436852866, -23965.071018346673, -62279.649052578105, -21023.849668961724, -187500.02235174447, 187500.0, -46449.24955955143, -14415.109385861086, 0.636, -0.5640000000000001, 0.562, 192.0, 0.0, 0.0, 0.0, 0.0, 0.0, 0.0, 0.0, 0.0, 0.0, 1.6635928814918396E9, 0.0, 2022-09-19 18:08:01.491
23.0, -103707.10983361123, -23973.74349519533, -62209.19635405498, -20977.022764327856, -187500.02235174447, 187500.0, -46344.576340267224, -14426.307609833195, 0.636, -0.5640000000000001, 0.562, 192.0, 0.0, 0.0, 0.0, 0.0, 0.0, 0.0, 0.0, 0.0, 0.0, 1.6635928814956949E9, 0.0, 2022-09-19 18:08:01.495
24.0, -103696.60451371725, -23937.131337777537, -62249.49654930789, -20960.370714708653, -187500.02235174447, 187500.0, -46289.94867681846, -14411.75662419279, 0.636, -0.5640000000000001, 0.562, 192.0, 0.0, 0.0, 0.0, 0.0, 0.0, 0.0, 0.0, 0.0, 0.0, 1.6635928815006816E9, 0.0, 2022-09-19 18:08:01.500
25.0, -103437.59249896914, -23895.847665768586, -62372.408792067625, -20988.757430166894, -187500.02235174447, 187500.0, -46297.928249589, -14388.80138263719, 0.636, -0.5640000000000001, 0.562, 192.0, 0.0, 0.0, 0.0, 0.0, 0.0, 0.0, 0.0, 0.0, 0.0, 1.6635928815046723E9, 0.0, 2022-09-19 18:08:01.504
26.0, -103160.47557121224, -23896.71938380234, -62440.291039978394, -21035.91961096759, -187500.02235174447, 187500.0, -46418.202986503005, -14380.195961021896, 0.636, -0.5640000000000001, 0.562, 192.0, 0.0, 0.0, 0.0, 0.0, 0.0, 0.0, 0.0, 0.0, 0.0, 1.6635928815086997E9, 0.0, 2022-09-19 18:08:01.508
27.0, -103373.4429923824, -23967.373248025568, -62295.161163230085, -21014.797212457324, -187500.02235174447, 187500.0, -46457.18442883306, -14404.8499351561, 0.636, -0.5640000000000001, 0.562, 192.0, 0.0, 0.0, 0.0, 0.0, 0.0, 0.0, 0.0, 0.0, 0.0, 1.6635928815126855E9, 0.0, 2022-09-19 18:08:01.512
28.0, -103612.96428596549, -23980.158445854002, -62234.23030784492, -20977.62626142815, -187500.02235174447, 187500.0, -46353.31587234925, -14422.351351064606, 0.638, -0.562, 0.556, 192.0, 19.0, 240.0, 238.0, 112.0, 17.0, 96.0, 0.0, 0.0, 0.0, 1.663592881516703E9, 0.0, 2022-09-19 18:08:01.516
29.0, -103608.62804754115, -23950.274163517257, -62283.38179390214, -20977.76037189488, -187500.02235174447, 187500.0, -46312.81451139623, -14421.256115586295, 0.638, -0.562, 0.556, 192.0, 0.0, 0.0, 0.0, 0.0, 0.0, 0.0, 0.0, 0.0, 0.0, 1.6635928815207953E9, 0.0, 2022-09-19 18:08:01.520
30.0, -103347.71613451435, -23896.942901246894, -62393.68765278908, -21004.53776175234, -187500.02235174447, 187500.0, -46313.23919454088, -14398.703205430891, 0.638, -0.562, 0.556, 192.0, 0.0, 0.0, 0.0, 0.0, 0.0, 0.0, 0.0, 0.0, 0.0, 1.6635928815237572E9, 0.0, 2022-09-19 18:08:01.523
31.0, -103066.44178228878, -23889.700936043377, -62452.42803721763, -21047.564869828806, -187500.02235174447, 187500.0, -46424.41677146158, -14386.23093202483, 0.638, -0.562, 0.556, 192.0, 0.0, 0.0, 0.0, 0.0, 0.0, 0.0, 0.0, 0.0, 0.0, 1.6635928815298033E9, 0.0, 2022-09-19 18:08:01.529
32.0, -103282.35963372704, -23964.80279741321, -62310.3603494597, -21038.557116813317, -187500.02235174447, 187500.0, -46468.740280716454, -14415.37760679455, 0.638, -0.562, 0.556, 192.0, 0.0, 0.0, 0.0, 0.0, 0.0, 0.0, 0.0, 0.0, 0.0, 1.6635928815327575E9, 0.0, 2022-09-19 18:08:01.532
33.0, -103519.95867728695, -23966.814454414183, -62239.3935608141, -20991.953729624, -187500.02235174447, 187500.0, -46359.99904394139, -14428.118101134074, 0.638, -0.562, 0.556, 192.0, 0.0, 0.0, 0.0, 0.0, 0.0, 0.0, 0.0, 0.0, 0.0, 1.6635928815367785E9, 0.0, 2022-09-19 18:08:01.536
34.0, -103503.01605498983, -23923.563828893166, -62275.022241475854, -20973.021802070358, -187500.02235174447, 187500.0, -46308.45592122745, -14415.399958539005, 0.638, -0.562, 0.556, 192.0, 0.0, 0.0, 0.0, 0.0, 0.0, 0.0, 0.0, 0.0, 0.0, 1.663592881540768E9, 0.0, 2022-09-19 18:08:01.540
35.0, -103242.75234255224, -23868.802054977663, -62371.29120484486, -20992.75839242439, -187500.02235174447, 187500.0, -46301.01279032383, -14390.142487304509, 0.638, -0.562, 0.556, 192.0, 0.0, 0.0, 0.0, 0.0, 0.0, 0.0, 0.0, 0.0, 0.0, 1.6635928815447664E9, 0.0, 2022-09-19 18:08:01.544
36.0, -102978.7558887906, -23873.49592131328, -62430.07629276232, -21041.172270914587, -187500.02235174447, 187500.0, -46414.38083820115, -14389.740155904312, 0.638, -0.562, 0.556, 192.0, 0.0, 0.0, 0.0, 0.0, 0.0, 0.0, 0.0, 0.0, 0.0, 1.6635928815487947E9, 0.0, 2022-09-19 18:08:01.548
37.0, -103218.70186551832, -23959.751303166307, -62297.128116742155, -21039.16061391361, -187500.02235174447, 187500.0, -46477.703330243035, -14432.767263980779, 0.638, -0.562, 0.556, 192.0, 0.0, 0.0, 0.0, 0.0, 0.0, 0.0, 0.0, 0.0, 0.0, 1.6635928815518997E9, 0.0, 2022-09-19 18:08:01.551
38.0, -103474.00349068684, -23979.107913864606, -62224.417892029036, -20997.58636922674, -187500.02235174447, 187500.0, -46376.248762160394, -14452.19092991244, 0.648, -0.562, 0.55, 192.0, 20.0, 64.0, 238.0, 112.0, 17.0, 48.0, 0.0, 0.0, 0.0, 1.6635928815567837E9, 0.0, 2022-09-19 18:08:01.556
39.0, -103475.5234093098, -23946.474366959857, -62258.101970923184, -20980.26376727388, -187500.02235174447, 187500.0, -46325.13032259111, -14439.249269872818, 0.648, -0.562, 0.55, 192.0, 0.0, 0.0, 0.0, 0.0, 0.0, 0.0, 0.0, 0.0, 0.0, 1.6635928815608075E9, 0.0, 2022-09-19 18:08:01.560
40.0, -103228.76015052322, -23899.312186159157, -62363.758666963426, -21008.315206565287, -187500.02235174447, 187500.0, -46318.35774402115, -14418.61860974057, 0.648, -0.562, 0.55, 192.0, 0.0, 0.0, 0.0, 0.0, 0.0, 0.0, 0.0, 0.0, 0.0, 1.663592881564895E9, 0.0, 2022-09-19 18:08:01.564
41.0, -102961.99208044913, -23895.758258790764, -62423.84015605929, -21052.92928849808, -187500.02235174447, 187500.0, -46432.329288998764, -14409.409691024983, 0.648, -0.562, 0.55, 192.0, 0.0, 0.0, 0.0, 0.0, 0.0, 0.0, 0.0, 0.0, 0.0, 1.6635928815688179E9, 0.0, 2022-09-19 18:08:01.568
42.0, -103197.98179840825, -23975.352820796114, -62289.573227116256, -21044.033294204866, -187500.02235174447, 187500.0, -46491.49435657196, -14448.18996765494, 0.648, -0.562, 0.55, 192.0, 0.0, 0.0, 0.0, 0.0, 0.0, 0.0, 0.0, 0.0, 0.0, 1.663592881572812E9, 0.0, 2022-09-19 18:08:01.572
43.0, -103457.68671723446, -23986.41693430149, -62217.55590648126, -20996.312319792785, -187500.02235174447, 187500.0, -46375.30998889327, -14463.903244007022, 0.648, -0.562, 0.55, 192.0, 0.0, 0.0, 0.0, 0.0, 0.0, 0.0, 0.0, 0.0, 0.0, 1.6635928815758357E9, 0.0, 2022-09-19 18:08:01.575
44.0, -103472.1706476415, -23949.335390250137, -62248.60247952968, -20975.14521779361, -187500.02235174447, 187500.0, -46317.15074982056, -14450.715714778391, 0.648, -0.562, 0.55, 192.0, 0.0, 0.0, 0.0, 0.0, 0.0, 0.0, 0.0, 0.0, 0.0, 1.663592881579818E9, 0.0, 2022-09-19 18:08:01.579
45.0, -103238.72902855028, -23897.72521230283, -62354.01330638091, -20997.54166573783, -187500.02235174447, 187500.0, -46301.86215661313, -14425.592354010625, 0.648, -0.562, 0.55, 192.0, 0.0, 0.0, 0.0, 0.0, 0.0, 0.0, 0.0, 0.0, 0.0, 1.6635928815839355E9, 0.0, 2022-09-19 18:08:01.583
46.0, -102978.88999925733, -23889.92445348793, -62422.25318220296, -21041.999285459435, -187500.02235174447, 187500.0, -46411.8550910777, -14413.857688171589, 0.648, -0.562, 0.55, 192.0, 0.0, 0.0, 0.0, 0.0, 0.0, 0.0, 0.0, 0.0, 0.0, 1.6635928815888977E9, 0.0, 2022-09-19 18:08:01.588
47.0, -103211.90693520391, -23970.88247190505, -62289.081488738244, -21030.555192298318, -187500.02235174447, 187500.0, -46470.6178272507, -14443.674915274969, 0.648, -0.562, 0.55, 192.0, 0.0, 0.0, 0.0, 0.0, 0.0, 0.0, 0.0, 0.0, 0.0, 1.6635928815928583E9, 0.0, 2022-09-19 18:08:01.592
48.0, -103475.14342965405, -23991.535483781754, -62219.07582510422, -20987.550435966306, -187500.02235174447, 187500.0, -46363.396509098595, -14458.471770104381, 0.646, -0.5640000000000001, 0.548, 192.0, 20.0, 48.0, 238.0, 96.0, 17.0, 32.0, 0.0, 0.0, 0.0, 1.6635928815969355E9, 0.0, 2022-09-19 18:08:01.596
49.0, -103486.20754315944, -23947.12256754906, -62255.55387205528, -20970.831331113735, -187500.02235174447, 187500.0, -46313.2838980298, -14448.502892077315, 0.646, -0.5640000000000001, 0.548, 192.0, 0.0, 0.0, 0.0, 0.0, 0.0, 0.0, 0.0, 0.0, 0.0, 1.663592881600908E9, 0.0, 2022-09-19 18:08:01.600
50.0, -103251.0224880007, -23885.744677274786, -62358.30484131633, -20988.377450511154, -187500.02235174447, 187500.0, -46307.36068574914, -14423.781862709746, 0.646, -0.5640000000000001, 0.548, 192.0, 0.0, 0.0, 0.0, 0.0, 0.0, 0.0, 0.0, 0.0, 0.0, 1.6635928816048963E9, 0.0, 2022-09-19 18:08:01.604
51.0, -102993.41863315328, -23881.833121995107, -62420.06271124634, -21039.63000054717, -187500.02235174447, 187500.0, -46415.23020449045, -14416.875173673056, 0.646, -0.5640000000000001, 0.548, 192.0, 0.0, 0.0, 0.0, 0.0, 0.0, 0.0, 0.0, 0.0, 0.0, 1.6635928816099083E9, 0.0, 2022-09-19 18:08:01.609
52.0, -103223.50749057622, -23954.006904841295, -62283.6500148356, -21029.437605075553, -187500.02235174447, 187500.0, -46468.315597571804, -14439.830415228656, 0.646, -0.5640000000000001, 0.548, 192.0, 0.0, 0.0, 0.0, 0.0, 0.0, 0.0, 0.0, 0.0, 0.0, 1.663592881612894E9, 0.0, 2022-09-19 18:08:01.612
53.0, -103486.94515072646, -23965.719218935876, -62216.28185704731, -20984.175322553554, -187500.02235174447, 187500.0, -46361.004872441874, -14450.693363033935, 0.646, -0.5640000000000001, 0.548, 192.0, 0.0, 0.0, 0.0, 0.0, 0.0, 0.0, 0.0, 0.0, 0.0, 1.6635928816169205E9, 0.0, 2022-09-19 18:08:01.616
54.0, -103505.65356083555, -23927.74360510631, -62253.22929063193, -20963.790531610317, -187500.02235174447, 187500.0, -46307.91947936052, -14441.216223384885, 0.646, -0.5640000000000001, 0.548, 192.0, 0.0, 0.0, 0.0, 0.0, 0.0, 0.0, 0.0, 0.0, 0.0, 1.6635928816218665E9, 0.0, 2022-09-19 18:08:01.621
55.0, -103281.06323254862, -23888.359831376056, -62373.5710827793, -20995.798229670316, -187500.02235174447, 187500.0, -46314.043857341276, -14427.983990667342, 0.646, -0.5640000000000001, 0.548, 192.0, 0.0, 0.0, 0.0, 0.0, 0.0, 0.0, 0.0, 0.0, 0.0, 1.6635928816249163E9, 0.0, 2022-09-19 18:08:01.624
56.0, -103018.34082822096, -23890.237377910304, -62430.67978986261, -21043.98859071596, -187500.02235174447, 187500.0, -46418.962945814485, -14417.456319028894, 0.646, -0.5640000000000001, 0.548, 192.0, 0.0, 0.0, 0.0, 0.0, 0.0, 0.0, 0.0, 0.0, 0.0, 1.6635928816289203E9, 0.0, 2022-09-19 18:08:01.628
57.0, -103244.40637164192, -23954.588050197133, -62282.95711075749, -21024.430814317562, -187500.02235174447, 187500.0, -46460.93952190156, -14439.271621617274, 0.646, -0.5640000000000001, 0.548, 192.0, 0.0, 0.0, 0.0, 0.0, 0.0, 0.0, 0.0, 0.0, 0.0, 1.663592881631915E9, 0.0, 2022-09-19 18:08:01.631
58.0, -103519.37753193111, -23960.757131666796, -62209.68809243299, -20976.978060838945, -187500.02235174447, 187500.0, -46354.07583166073, -14454.359049124605, 0.65, -0.5680000000000001, 0.55, 192.0, 20.0, 80.0, 238.0, 64.0, 17.0, 48.0, 0.0, 0.0, 0.0, 1.6635928816359386E9, 0.0, 2022-09-19 18:08:01.635
59.0, -103535.96252631696, -23920.16636373596, -62247.12726439563, -20958.895499574603, -187500.02235174447, 187500.0, -46300.677514157, -14441.327982107161, 0.65, -0.5680000000000001, 0.55, 192.0, 0.0, 0.0, 0.0, 0.0, 0.0, 0.0, 0.0, 0.0, 0.0, 1.663592881639956E9, 0.0, 2022-09-19 18:08:01.639
60.0, -103303.54908747067, -23869.182034633403, -62355.086190114765, -20983.39301149762, -187500.02235174447, 187500.0, -46294.26256349833, -14413.053025371199, 0.65, -0.5680000000000001, 0.55, 192.0, 0.0, 0.0, 0.0, 0.0, 0.0, 0.0, 0.0, 0.0, 0.0, 1.6635928816449552E9, 0.0, 2022-09-19 18:08:01.644
61.0, -103038.88208137538, -23867.52800554371, -62423.90721129265, -21037.59599180174, -187500.02235174447, 187500.0, -46412.43623643354, -14403.598237466604, 0.65, -0.5680000000000001, 0.55, 192.0, 0.0, 0.0, 0.0, 0.0, 0.0, 0.0, 0.0, 0.0, 0.0, 1.663592881648996E9, 0.0, 2022-09-19 18:08:01.648
62.0, -103271.34022371058, -23949.424797227955, -62292.166029473075, -21023.335578839255, -187500.02235174447, 187500.0, -46475.445804053044, -14427.961638922889, 0.65, -0.5680000000000001, 0.55, 192.0, 0.0, 0.0, 0.0, 0.0, 0.0, 0.0, 0.0, 0.0, 0.0, 1.6635928816529443E9, 0.0, 2022-09-19 18:08:01.652
63.0, -103552.03343058031, -23972.93883239494, -62218.87465940412, -20979.43675272903, -187500.02235174447, 187500.0, -46361.31779686425, -14445.53011006476, 0.65, -0.5680000000000001, 0.55, 192.0, 0.0, 0.0, 0.0, 0.0, 0.0, 0.0, 0.0, 0.0, 0.0, 1.663592881656993E9, 0.0, 2022-09-19 18:08:01.656
64.0, -103575.7933349363, -23928.481212673334, -62243.03689516031, -20959.0966652747, -187500.02235174447, 187500.0, -46299.8281478677, -14432.946077936422, 0.65, -0.5680000000000001, 0.55, 192.0, 0.0, 0.0, 0.0, 0.0, 0.0, 0.0, 0.0, 0.0, 0.0, 1.6635928816599696E9, 0.0, 2022-09-19 18:08:01.659
65.0, -103340.65298326648, -23871.86424396804, -62340.37874226317, -20972.172435781056, -187500.02235174447, 187500.0, -46291.91563033052, -14398.591446708615, 0.65, -0.5680000000000001, 0.55, 192.0, 0.0, 0.0, 0.0, 0.0, 0.0, 0.0, 0.0, 0.0, 0.0, 1.663592881663996E9, 0.0, 2022-09-19 18:08:01.663
66.0, -103065.61476774393, -23856.799168205165, -62407.232809928995, -21011.82443044477, -187500.02235174447, 187500.0, -46400.455701405495, -14382.431135467426, 0.65, -0.5680000000000001, 0.55, 192.0, 0.0, 0.0, 0.0, 0.0, 0.0, 0.0, 0.0, 0.0, 0.0, 1.6635928816679614E9, 0.0, 2022-09-19 18:08:01.667
67.0, -103284.86302910603, -23928.525916162245, -62277.72680255495, -21003.01784312938, -187500.02235174447, 187500.0, -46468.58381850527, -14409.14147009152, 0.65, -0.5680000000000001, 0.55, 192.0, 0.0, 0.0, 0.0, 0.0, 0.0, 0.0, 0.0, 0.0, 0.0, 1.663592881672046E9, 0.0, 2022-09-19 18:08:01.672
68.0, -103549.79825613479, -23948.240154771825, -62206.96117960945, -20962.494130431907, -187500.02235174447, 187500.0, -46370.19143941301, -14426.754644722301, 0.658, -0.5680000000000001, 0.548, 192.0, 20.0, 144.0, 238.0, 64.0, 17.0, 32.0, 0.0, 0.0, 0.0, 1.663592881677009E9, 0.0, 2022-09-19 18:08:01.677
69.0, -103569.75836393338, -23915.226628211338, -62235.21378460095, -20939.851813298683, -187500.02235174447, 187500.0, -46317.26250854284, -14416.405787039494, 0.658, -0.5680000000000001, 0.548, 192.0, 0.0, 0.0, 0.0, 0.0, 0.0, 0.0, 0.0, 0.0, 0.0, 1.6635928816810186E9, 0.0, 2022-09-19 18:08:01.681
70.0, -103339.62480302154, -23865.11401714254, -62343.53033823137, -20963.276441487844, -187500.02235174447, 187500.0, -46309.48410147239, -14389.024900081742, 0.658, -0.5680000000000001, 0.548, 192.0, 0.0, 0.0, 0.0, 0.0, 0.0, 0.0, 0.0, 0.0, 0.0, 1.6635928816850872E9, 0.0, 2022-09-19 18:08:01.685
71.0, -103067.84994218945, -23865.829272965108, -62413.49129837648, -21015.847744446724, -187500.02235174447, 187500.0, -46419.78996035933, -14377.491399942804, 0.658, -0.5680000000000001, 0.548, 192.0, 0.0, 0.0, 0.0, 0.0, 0.0, 0.0, 0.0, 0.0, 0.0, 1.6635928816890545E9, 0.0, 2022-09-19 18:08:01.689
72.0, -103293.15552629896, -23938.427738955947, -62268.36142162817, -21003.06254661829, -187500.02235174447, 187500.0, -46474.93171393058, -14405.073452600653, 0.658, -0.5680000000000001, 0.548, 192.0, 0.0, 0.0, 0.0, 0.0, 0.0, 0.0, 0.0, 0.0, 0.0, 1.6635928816929784E9, 0.0, 2022-09-19 18:08:01.692
73.0, -103563.00813710787, -23948.530727449743, -62194.131278292094, -20960.974211808945, -187500.02235174447, 187500.0, -46365.207000399474, -14420.920839419467, 0.658, -0.5680000000000001, 0.548, 192.0, 0.0, 0.0, 0.0, 0.0, 0.0, 0.0, 0.0, 0.0, 0.0, 1.6635928816971009E9, 0.0, 2022-09-19 18:08:01.697
74.0, -103579.25785532688, -23915.40544216698, -62240.46644454795, -20957.01795304036, -187500.02235174447, 187500.0, -46321.59874696717, -14416.651656228501, 0.658, -0.5680000000000001, 0.548, 192.0, 0.0, 0.0, 0.0, 0.0, 0.0, 0.0, 0.0, 0.0, 0.0, 1.663592881702075E9, 0.0, 2022-09-19 18:08:01.702
75.0, -103341.43529432241, -23859.97311591782, -62337.249498039426, -20980.330822507243, -187500.02235174447, 187500.0, -46309.50645321685, -14391.9976820943, 0.658, -0.5680000000000001, 0.548, 192.0, 0.0, 0.0, 0.0, 0.0, 0.0, 0.0, 0.0, 0.0, 0.0, 1.663592881704975E9, 0.0, 2022-09-19 18:08:01.704
76.0, -103065.41360204383, -23853.044075136673, -62398.11329819123, -21024.45316606202, -187500.02235174447, 187500.0, -46409.44110267652, -14379.279539499228, 0.658, -0.5680000000000001, 0.548, 192.0, 0.0, 0.0, 0.0, 0.0, 0.0, 0.0, 0.0, 0.0, 0.0, 1.6635928817090588E9, 0.0, 2022-09-19 18:08:01.709
77.0, -103297.38000600101, -23934.382073209534, -62268.4955320949, -21017.68058749206, -187500.02235174447, 187500.0, -46470.416661550604, -14417.076339373154, 0.658, -0.5680000000000001, 0.548, 192.0, 0.0, 0.0, 0.0, 0.0, 0.0, 0.0, 0.0, 0.0, 0.0, 1.663592881713179E9, 0.0, 2022-09-19 18:08:01.713
78.0, -103576.15096284759, -23949.961239094882, -62194.75712713684, -20979.34734575121, -187500.02235174447, 187500.0, -46357.98738694041, -14439.539842550737, 0.658, -0.5680000000000001, 0.548, 192.0, 0.0, 0.0, 0.0, 0.0, 0.0, 0.0, 0.0, 0.0, 0.0, 1.6635928817161596E9, 0.0, 2022-09-19 18:08:01.716
79.0, -103597.47452705796, -23918.624093368544, -62235.92904042352, -20966.159816522577, -187500.02235174447, 187500.0, -46308.76884564982, -14431.67202850247, 0.658, -0.5660000000000001, 0.548, 192.0, 20.0, 144.0, 238.0, 80.0, 17.0, 32.0, 0.0, 0.0, 0.0, 1.6635928817200985E9, 0.0, 2022-09-19 18:08:01.720
80.0, -103366.02221322324, -23864.57757527561, -62349.34179178975, -20985.985813854437, -187500.02235174447, 187500.0, -46311.227537539904, -14407.398034024005, 0.658, -0.5660000000000001, 0.548, 192.0, 0.0, 0.0, 0.0, 0.0, 0.0, 0.0, 0.0, 0.0, 0.0, 1.66359288172414E9, 0.0, 2022-09-19 18:08:01.724
81.0, -103091.67690177882, -23858.85552869505, -62415.65941758864, -21031.605724287718, -187500.02235174447, 187500.0, -46419.678201637056, -14399.641978698013, 0.658, -0.5660000000000001, 0.548, 192.0, 0.0, 0.0, 0.0, 0.0, 0.0, 0.0, 0.0, 0.0, 0.0, 1.6635928817281384E9, 0.0, 2022-09-19 18:08:01.728
82.0, -103316.2895818102, -23935.074977287648, -62273.39056413062, -21016.093613635734, -187500.02235174447, 187500.0, -46474.35056857474, -14434.24247911483, 0.658, -0.5660000000000001, 0.548, 192.0, 0.0, 0.0, 0.0, 0.0, 0.0, 0.0, 0.0, 0.0, 0.0, 1.66359288173212E9, 0.0, 2022-09-19 18:08:01.732
83.0, -103598.72622474746, -23957.069093831673, -62205.12833656411, -20975.68165966054, -187500.02235174447, 187500.0, -46373.119517936655, -14461.466903861394, 0.658, -0.5660000000000001, 0.548, 192.0, 0.0, 0.0, 0.0, 0.0, 0.0, 0.0, 0.0, 0.0, 0.0, 1.6635928817371175E9, 0.0, 2022-09-19 18:08:01.737
84.0, -103623.64841981512, -23923.429718426432, -62244.22153761644, -20963.790531610317, -187500.02235174447, 187500.0, -46321.799912667266, -14459.164674182497, 0.658, -0.5660000000000001, 0.548, 192.0, 0.0, 0.0, 0.0, 0.0, 0.0, 0.0, 0.0, 0.0, 0.0, 1.6635928817401085E9, 0.0, 2022-09-19 18:08:01.740
85.0, -103393.67132111447, -23867.77387473272, -62343.35152427573, -20981.180188796545, -187500.02235174447, 187500.0, -46307.74066540488, -14436.701171004912, 0.658, -0.5660000000000001, 0.548, 192.0, 0.0, 0.0, 0.0, 0.0, 0.0, 0.0, 0.0, 0.0, 0.0, 1.6635928817442644E9, 0.0, 2022-09-19 18:08:01.744
86.0, -103118.342532914, -23876.893386470485, -62425.53888863789, -21033.036235932857, -187500.02235174447, 187500.0, -46422.42746620506, -14426.776996466757, 0.658, -0.5660000000000001, 0.548, 192.0, 0.0, 0.0, 0.0, 0.0, 0.0, 0.0, 0.0, 0.0, 0.0, 1.6635928817481248E9, 0.0, 2022-09-19 18:08:01.748
87.0, -103342.50817805626, -23963.416989256977, -62288.47799163795, -21027.381244585664, -187500.02235174447, 187500.0, -46486.04053092487, -14459.43289511596, 0.658, -0.5660000000000001, 0.548, 192.0, 0.0, 0.0, 0.0, 0.0, 0.0, 0.0, 0.0, 0.0, 0.0, 1.6635928817522237E9, 0.0, 2022-09-19 18:08:01.752
88.0, -103620.13919593564, -23964.065189846184, -62199.47334521692, -20976.91100560558, -187500.02235174447, 187500.0, -46364.91642772155, -14476.688441835457, 0.658, -0.5660000000000001, 0.548, 192.0, 0.0, 0.0, 0.0, 0.0, 0.0, 0.0, 0.0, 0.0, 0.0, 1.6635928817561717E9, 0.0, 2022-09-19 18:08:01.756
89.0, -103644.83787355875, -23918.40057592399, -62239.237098602905, -20963.365848465666, -187500.02235174447, 187500.0, -46311.45105498446, -14470.675822576979, 0.648, -0.5660000000000001, 0.546, 192.0, 20.0, 64.0, 238.0, 80.0, 17.0, 16.0, 0.0, 0.0, 0.0, 1.663592881760379E9, 0.0, 2022-09-19 18:08:01.760
90.0, -103413.74318763534, -23867.505653799257, -62348.514777244905, -20986.72342142146, -187500.02235174447, 187500.0, -46312.34512476267, -14446.938269965443, 0.648, -0.5660000000000001, 0.546, 192.0, 0.0, 0.0, 0.0, 0.0, 0.0, 0.0, 0.0, 0.0, 0.0, 1.6635928817651749E9, 0.0, 2022-09-19 18:08:01.765
91.0, -103133.02762902113, -23852.842909436575, -62417.80518505636, -21033.192698144045, -187500.02235174447, 187500.0, -46417.68889638053, -14434.555403537202, 0.648, -0.5660000000000001, 0.546, 192.0, 0.0, 0.0, 0.0, 0.0, 0.0, 0.0, 0.0, 0.0, 0.0, 1.6635928817682397E9, 0.0, 2022-09-19 18:08:01.768
92.0, -103355.78511426272, -23932.392767953013, -62284.409974147085, -21023.514392794896, -187500.02235174447, 187500.0, -46481.21255412252, -14466.853674275122, 0.648, -0.5660000000000001, 0.546, 192.0, 0.0, 0.0, 0.0, 0.0, 0.0, 0.0, 0.0, 0.0, 0.0, 1.6635928817732153E9, 0.0, 2022-09-19 18:08:01.773
93.0, -103647.22951021547, -23962.187643311936, -62214.40431051306, -20983.05773533079, -187500.02235174447, 187500.0, -46386.44115763201, -14494.189857743962, 0.648, -0.5660000000000001, 0.546, 192.0, 0.0, 0.0, 0.0, 0.0, 0.0, 0.0, 0.0, 0.0, 0.0, 1.6635928817762284E9, 0.0, 2022-09-19 18:08:01.776
94.0, -103671.23528376047, -23921.35100619209, -62246.61317427316, -20963.455255443485, -187500.02235174447, 187500.0, -46333.17695059502, -14481.29290119325, 0.648, -0.5660000000000001, 0.546, 192.0, 0.0, 0.0, 0.0, 0.0, 0.0, 0.0, 0.0, 0.0, 0.0, 1.6635928817812188E9, 0.0, 2022-09-19 18:08:01.781
95.0, -103436.87724314658, -23857.648534494467, -62344.33500103176, -20978.609738184183, -187500.02235174447, 187500.0, -46318.67066844353, -14447.340601365639, 0.648, -0.5660000000000001, 0.546, 192.0, 0.0, 0.0, 0.0, 0.0, 0.0, 0.0, 0.0, 0.0, 0.0, 1.6635928817862425E9, 0.0, 2022-09-19 18:08:01.786
96.0, -103159.46974271176, -23846.986752389283, -62404.9305802501, -21024.520221295385, -187500.02235174447, 187500.0, -46412.883271322644, -14433.460168058893, 0.648, -0.5660000000000001, 0.546, 192.0, 0.0, 0.0, 0.0, 0.0, 0.0, 0.0, 0.0, 0.0, 0.0, 1.663592881789328E9, 0.0, 2022-09-19 18:08:01.789
97.0, -103379.16503896296, -23918.86996255755, -62267.17677917204, -21016.25007584692, -187500.02235174447, 187500.0, -46470.1707923616, -14464.417334129494, 0.648, -0.5660000000000001, 0.546, 192.0, 0.0, 0.0, 0.0, 0.0, 0.0, 0.0, 0.0, 0.0, 0.0, 1.6635928817932484E9, 0.0, 2022-09-19 18:08:01.793
98.0, -103662.74162086745, -23936.63959939952, -62191.73964163538, -20975.39108698262, -187500.02235174447, 187500.0, -46364.8940759771, -14485.003290772831, 0.648, -0.5660000000000001, 0.546, 192.0, 0.0, 0.0, 0.0, 0.0, 0.0, 0.0, 0.0, 0.0, 0.0, 1.663592881796255E9, 0.0, 2022-09-19 18:08:01.796
99.0, -103687.75322291294, -23899.06631697015, -62226.451900774475, -20954.782778594825, -187500.02235174447, 187500.0, -46309.88643287259, -14473.469790633893, 0.644, -0.5700000000000001, 0.546, 192.0, 20.0, 32.0, 238.0, 48.0, 17.0, 16.0, 0.0, 0.0, 0.0, 1.6635928817992115E9, 0.0, 2022-09-19 18:08:01.799
100.0, -103463.63228125958, -23846.427958777902, -62333.49440497094, -20975.3016800048, -187500.02235174447, 187500.0, -46310.48992997288, -14449.106389177608, 0.644, -0.5700000000000001, 0.546, 192.0, 0.0, 0.0, 0.0, 0.0, 0.0, 0.0, 0.0, 0.0, 0.0, 1.663592881804244E9, 0.0, 2022-09-19 18:08:01.804
101.0, -103184.97308313526, -23842.91873489842, -62410.67497857511, -21022.799136972328, -187500.02235174447, 187500.0, -46420.013477803885, -14440.81389198469, 0.644, -0.5700000000000001, 0.546, 192.0, 0.0, 0.0, 0.0, 0.0, 0.0, 0.0, 0.0, 0.0, 0.0, 1.6635928818082407E9, 0.0, 2022-09-19 18:08:01.808
102.0, -103403.1037572746, -23924.68141611593, -62283.44884913551, -21016.473593291474, -187500.02235174447, 187500.0, -46484.3194466018, -14473.425087144982, 0.644, -0.5700000000000001, 0.546, 192.0, 0.0, 0.0, 0.0, 0.0, 0.0, 0.0, 0.0, 0.0, 0.0, 1.6635928818122115E9, 0.0, 2022-09-19 18:08:01.812
103.0, -103685.04866183385, -23945.557945437187, -62202.22260978492, -20972.463008458973, -187500.02235174447, 187500.0, -46368.98444521242, -14493.474601921393, 0.644, -0.5700000000000001, 0.546, 192.0, 0.0, 0.0, 0.0, 0.0, 0.0, 0.0, 0.0, 0.0, 0.0, 1.6635928818162308E9, 0.0, 2022-09-19 18:08:01.816
104.0, -103710.37318830172, -23912.58912236561, -62240.019409658846, -20958.91785131906, -187500.02235174447, 187500.0, -46312.74745616287, -14488.221941974396, 0.644, -0.5700000000000001, 0.546, 192.0, 0.0, 0.0, 0.0, 0.0, 0.0, 0.0, 0.0, 0.0, 0.0, 1.6635928818212252E9, 0.0, 2022-09-19 18:08:01.821
105.0, -103477.40095584404, -23861.940069429886, -62347.754817933426, -20976.463970716475, -187500.02235174447, 187500.0, -46307.69596191597, -14458.807046271211, 0.644, -0.5700000000000001, 0.546, 192.0, 0.0, 0.0, 0.0, 0.0, 0.0, 0.0, 0.0, 0.0, 0.0, 1.663592881824246E9, 0.0, 2022-09-19 18:08:01.824
106.0, -103187.92351340337, -23850.67479022441, -62417.89459203418, -21020.452203804518, -187500.02235174447, 187500.0, -46416.28073647985, -14441.484444318348, 0.644, -0.5700000000000001, 0.546, 192.0, 0.0, 0.0, 0.0, 0.0, 0.0, 0.0, 0.0, 0.0, 0.0, 1.6635928818282907E9, 0.0, 2022-09-19 18:08:01.828
107.0, -103395.61592288208, -23923.27325621525, -62275.8492560207, -21012.1597066116, -187500.02235174447, 187500.0, -46480.05026341084, -14467.501874864325, 0.644, -0.5700000000000001, 0.546, 192.0, 0.0, 0.0, 0.0, 0.0, 0.0, 0.0, 0.0, 0.0, 0.0, 1.6635928818322392E9, 0.0, 2022-09-19 18:08:01.832
108.0, -103674.69980415104, -23949.245983272314, -62200.45682197295, -20976.240453271923, -187500.02235174447, 187500.0, -46379.065081961766, -14485.651491362036, 0.644, -0.5700000000000001, 0.546, 192.0, 0.0, 0.0, 0.0, 0.0, 0.0, 0.0, 0.0, 0.0, 0.0, 1.6635928818362288E9, 0.0, 2022-09-19 18:08:01.836
109.0, -103693.78819391587, -23916.232456711827, -62243.72979923843, -20965.265746744364, -187500.02235174447, 187500.0, -46332.08171511671, -14476.263758690806, 0.648, -0.5680000000000001, 0.546, 192.0, 20.0, 64.0, 238.0, 64.0, 17.0, 16.0, 0.0, 0.0, 0.0, 1.6635928818402667E9, 0.0, 2022-09-19 18:08:01.840
110.0, -103461.24064460286, -23868.846758466574, -62358.30484131633, -20993.473648246963, -187500.02235174447, 187500.0, -46342.341165821694, -14453.286165390751, 0.648, -0.5680000000000001, 0.546, 192.0, 0.0, 0.0, 0.0, 0.0, 0.0, 0.0, 0.0, 0.0, 0.0, 1.663592881844292E9, 0.0, 2022-09-19 18:08:01.844
111.0, -103160.76614389017, -23854.653400737454, -62428.82459507282, -21036.992494701444, -187500.02235174447, 187500.0, -46459.08432711176, -14438.534014050249, 0.648, -0.5680000000000001, 0.546, 192.0, 0.0, 0.0, 0.0, 0.0, 0.0, 0.0, 0.0, 0.0, 0.0, 1.6635928818483634E9, 0.0, 2022-09-19 18:08:01.848
112.0, -103361.97654747684, -23929.867020829563, -62296.47991615295, -21031.40455858762, -187500.02235174447, 187500.0, -46535.996679782475, -14466.965432997398, 0.648, -0.5680000000000001, 0.546, 192.0, 0.0, 0.0, 0.0, 0.0, 0.0, 0.0, 0.0, 0.0, 0.0, 1.663592881852316E9, 0.0, 2022-09-19 18:08:01.852
113.0, -103634.89134727613, -23945.736759392832, -62204.83776388619, -20985.0023370984, -187500.02235174447, 187500.0, -46430.76466688689, -14479.795334314746, 0.648, -0.5680000000000001, 0.546, 192.0, 0.0, 0.0, 0.0, 0.0, 0.0, 0.0, 0.0, 0.0, 0.0, 1.6635928818553164E9, 0.0, 2022-09-19 18:08:01.855
114.0, -103653.84562657424, -23913.14791597699, -62243.97566842743, -20969.043191557314, -187500.02235174447, 187500.0, -46375.04176795981, -14470.899340021533, 0.648, -0.5680000000000001, 0.546, 192.0, 0.0, 0.0, 0.0, 0.0, 0.0, 0.0, 0.0, 0.0, 0.0, 1.6635928818603268E9, 0.0, 2022-09-19 18:08:01.860
115.0, -103421.1639667945, -23860.28604034019, -62349.207681323016, -20992.221950557465, -187500.02235174447, 187500.0, -46367.50923007837, -14447.899394977021, 0.648, -0.5680000000000001, 0.546, 192.0, 0.0, 0.0, 0.0, 0.0, 0.0, 0.0, 0.0, 0.0, 0.0, 1.6635928818643427E9, 0.0, 2022-09-19 18:08:01.864
116.0, -103113.51455611165, -23836.77200517321, -62417.91694377863, -21035.87490747868, -187500.02235174447, 187500.0, -46467.73445221597, -14428.47572904536, 0.648, -0.5680000000000001, 0.546, 192.0, 0.0, 0.0, 0.0, 0.0, 0.0, 0.0, 0.0, 0.0, 0.0, 1.663592881868338E9, 0.0, 2022-09-19 18:08:01.868
117.0, -103309.20407881786, -23907.269407185246, -62286.46633463697, -21027.87298296368, -187500.02235174447, 187500.0, -46532.95684253655, -14458.315307893195, 0.648, -0.5680000000000001, 0.546, 192.0, 0.0, 0.0, 0.0, 0.0, 0.0, 0.0, 0.0, 0.0, 0.0, 1.6635928818723402E9, 0.0, 2022-09-19 18:08:01.872
118.0, -103586.85744844169, -23927.698901617397, -62207.005883098354, -20981.783685896837, -187500.02235174447, 187500.0, -46429.80354187531, -14478.767154069801, 0.648, -0.5680000000000001, 0.546, 192.0, 0.0, 0.0, 0.0, 0.0, 0.0, 0.0, 0.0, 0.0, 0.0, 1.6635928818783467E9, 0.0, 2022-09-19 18:08:01.878
119.0, -103604.18005039454, -23900.720346059843, -62248.49072080741, -20962.739999620917, -187500.02235174447, 187500.0, -46380.80851802928, -14470.541712110247, 0.646, -0.5700000000000001, 0.544, 192.0, 20.0, 48.0, 238.0, 48.0, 17.0, 0.0, 0.0, 0.0, 0.0, 1.6635928818813667E9, 0.0, 2022-09-19 18:08:01.881
120.0, -103361.10482944308, -23850.786548946686, -62360.62942273968, -20981.470761474462, -187500.02235174447, 187500.0, -46382.10491920768, -14442.7584937523, 0.646, -0.5700000000000001, 0.544, 192.0, 0.0, 0.0, 0.0, 0.0, 0.0, 0.0, 0.0, 0.0, 0.0, 1.6635928818843615E9, 0.0, 2022-09-19 18:08:01.884
121.0, -103048.26981404661, -23837.28609529568, -62437.720589366036, -21028.54353529734, -187500.02235174447, 187500.0, -46482.643065767654, -14427.469900544871, 0.646, -0.5700000000000001, 0.544, 192.0, 0.0, 0.0, 0.0, 0.0, 0.0, 0.0, 0.0, 0.0, 0.0, 1.663592881888392E9, 0.0, 2022-09-19 18:08:01.888
122.0, -103246.0156972427, -23918.646445112998, -62306.47114592447, -21024.96725618449, -187500.02235174447, 187500.0, -46550.45825844506, -14457.063610203697, 0.646, -0.5700000000000001, 0.544, 192.0, 0.0, 0.0, 0.0, 0.0, 0.0, 0.0, 0.0, 0.0, 0.0, 1.6635928818924005E9, 0.0, 2022-09-19 18:08:01.892
123.0, -103520.20454647596, -23941.758148879784, -62224.39554028458, -20983.3036045198, -187500.02235174447, 187500.0, -46448.3107862843, -14475.86142729061, 0.646, -0.5700000000000001, 0.544, 192.0, 0.0, 0.0, 0.0, 0.0, 0.0, 0.0, 0.0, 0.0, 0.0, 1.6635928818964036E9, 0.0, 2022-09-19 18:08:01.896
124.0, -103538.44356995149, -23913.72906133283, -62263.622851803644, -20971.501883447396, -187500.02235174447, 187500.0, -46400.00866651638, -14467.747744053335, 0.646, -0.5700000000000001, 0.544, 192.0, 0.0, 0.0, 0.0, 0.0, 0.0, 0.0, 0.0, 0.0, 0.0, 1.6635928819003844E9, 0.0, 2022-09-19 18:08:01.900
125.0, -103300.30808452464, -23859.235508350794, -62365.59151000876, -20988.042174344322, -187500.02235174447, 187500.0, -46387.98342799943, -14437.036447171742, 0.646, -0.5700000000000001, 0.544, 192.0, 0.0, 0.0, 0.0, 0.0, 0.0, 0.0, 0.0, 0.0, 0.0, 1.6635928819044063E9, 0.0, 2022-09-19 18:08:01.904
126.0, -102992.92689477527, -23842.91873489842, -62436.84887133228, -21033.97500919998, -187500.02235174447, 187500.0, -46483.00069367894, -14417.612781240081, 0.646, -0.5700000000000001, 0.544, 192.0, 0.0, 0.0, 0.0, 0.0, 0.0, 0.0, 0.0, 0.0, 0.0, 1.6635928819084089E9, 0.0, 2022-09-19 18:08:01.908
127.0, -103183.74373719022, -23918.825259068642, -62305.68883486853, -21026.531878296362, -187500.02235174447, 187500.0, -46557.76727888195, -14443.272583874774, 0.646, -0.5700000000000001, 0.544, 192.0, 0.0, 0.0, 0.0, 0.0, 0.0, 0.0, 0.0, 0.0, 0.0, 1.663592881911448E9, 0.0, 2022-09-19 18:08:01.911
128.0, -103467.23091211688, -23950.16240479498, -62226.74247345239, -20984.018860342367, -187500.02235174447, 187500.0, -46455.55275148783, -14465.780790541266, 0.646, -0.5700000000000001, 0.544, 192.0, 0.0, 0.0, 0.0, 0.0, 0.0, 0.0, 0.0, 0.0, 0.0, 1.6635928819164765E9, 0.0, 2022-09-19 18:08:01.916
129.0, -103486.34165362616, -23912.186790965414, -62257.65493603408, -20963.43290369903, -187500.02235174447, 187500.0, -46389.57040185576, -14453.442627601939, 0.644, -0.5660000000000001, 0.544, 192.0, 20.0, 32.0, 238.0, 80.0, 17.0, 0.0, 0.0, 0.0, 0.0, 1.663592881920477E9, 0.0, 2022-09-19 18:08:01.920
130.0, -103256.61042411452, -23866.164549131936, -62371.6711845006, -20990.411459256586, -187500.02235174447, 187500.0, -46388.18459369953, -14432.09671164712, 0.644, -0.5660000000000001, 0.544, 192.0, 0.0, 0.0, 0.0, 0.0, 0.0, 0.0, 0.0, 0.0, 0.0, 1.6635928819244833E9, 0.0, 2022-09-19 18:08:01.924
131.0, -102952.47023731116, -23853.044075136673, -62456.29488900839, -21041.149919170133, -187500.02235174447, 187500.0, -46492.12020541671, -14422.239592342328, 0.644, -0.5660000000000001, 0.544, 192.0, 0.0, 0.0, 0.0, 0.0, 0.0, 0.0, 0.0, 0.0, 0.0, 1.663592881928464E9, 0.0, 2022-09-19 18:08:01.928
132.0, -103145.56695766056, -23923.6979393599, -62329.26992526888, -21033.30445686632, -187500.02235174447, 187500.0, -46564.47280221854, -14452.43679910145, 0.644, -0.5660000000000001, 0.544, 192.0, 0.0, 0.0, 0.0, 0.0, 0.0, 0.0, 0.0, 0.0, 0.0, 1.663592881932407E9, 0.0, 2022-09-19 18:08:01.932
133.0, -103426.84130988615, -23946.2508495153, -62237.0913311352, -20983.48241847544, -187500.02235174447, 187500.0, -46454.1669433316, -14470.161732454508, 0.644, -0.5660000000000001, 0.544, 192.0, 0.0, 0.0, 0.0, 0.0, 0.0, 0.0, 0.0, 0.0, 0.0, 1.6635928819365726E9, 0.0, 2022-09-19 18:08:01.936
134.0, -103448.83542643016, -23911.4938868873, -62271.73653504092, -20965.355153722187, -187500.02235174447, 187500.0, -46402.6014688732, -14460.14815093853, 0.644, -0.5660000000000001, 0.544, 192.0, 0.0, 0.0, 0.0, 0.0, 0.0, 0.0, 0.0, 0.0, 0.0, 1.6635928819414625E9, 0.0, 2022-09-19 18:08:01.941
135.0, -103217.360760851, -23857.804996705654, -62378.421411326104, -20985.605834198694, -187500.02235174447, 187500.0, -46400.74627408341, -14431.33675233564, 0.644, -0.5660000000000001, 0.544, 192.0, 0.0, 0.0, 0.0, 0.0, 0.0, 0.0, 0.0, 0.0, 0.0, 1.6635928819445145E9, 0.0, 2022-09-19 18:08:01.944
136.0, -102909.53253621251, -23848.707836712343, -62459.82646463233, -21037.327770868276, -187500.02235174447, 187500.0, -46505.240679411974, -14414.036502127232, 0.644, -0.5660000000000001, 0.544, 192.0, 0.0, 0.0, 0.0, 0.0, 0.0, 0.0, 0.0, 0.0, 0.0, 1.66359288194848E9, 0.0, 2022-09-19 18:08:01.948
137.0, -103107.94897174227, -23950.274163517257, -62345.05025685433, -21046.536689583863, -187500.02235174447, 187500.0, -46600.16853811366, -14448.927575221966, 0.644, -0.5660000000000001, 0.544, 192.0, 0.0, 0.0, 0.0, 0.0, 0.0, 0.0, 0.0, 0.0, 0.0, 1.663592881953525E9, 0.0, 2022-09-19 18:08:01.953
138.0, -103392.68784435843, -23965.69686719142, -62250.10004640819, -20999.128639594157, -187500.02235174447, 187500.0, -46488.454519326035, -14464.059706218208, 0.644, -0.5660000000000001, 0.544, 192.0, 0.0, 0.0, 0.0, 0.0, 0.0, 0.0, 0.0, 0.0, 0.0, 1.6635928819585543E9, 0.0, 2022-09-19 18:08:01.958
139.0, -103412.93852483494, -23910.197485708894, -62279.649052578105, -20972.44065671452, -187500.02235174447, 187500.0, -46423.61210866119, -14452.257985145807, 0.654, -0.5640000000000001, 0.548, 192.0, 20.0, 112.0, 238.0, 96.0, 17.0, 32.0, 0.0, 0.0, 0.0, 1.6635928819614637E9, 0.0, 2022-09-19 18:08:01.961
140.0, -103175.29477778611, -23841.756444186743, -62371.93940543407, -20986.075220832256, -187500.02235174447, 187500.0, -46407.67531486456, -14422.038426642232, 0.654, -0.5640000000000001, 0.548, 192.0, 0.0, 0.0, 0.0, 0.0, 0.0, 0.0, 0.0, 0.0, 0.0, 1.6635928819645424E9, 0.0, 2022-09-19 18:08:01.964
141.0, -102872.6298061168, -23832.36871151551, -62445.3872377142, -21035.673741778584, -187500.02235174447, 187500.0, -46504.5254235894, -14410.66138871448, 0.654, -0.5640000000000001, 0.548, 192.0, 0.0, 0.0, 0.0, 0.0, 0.0, 0.0, 0.0, 0.0, 0.0, 1.6635928819676485E9, 0.0, 2022-09-19 18:08:01.967
142.0, -103071.85090444695, -23920.63575036952, -62319.211640263995, -21033.527974310873, -187500.02235174447, 187500.0, -46583.538840238914, -14443.138473408042, 0.654, -0.5640000000000001, 0.548, 192.0, 0.0, 0.0, 0.0, 0.0, 0.0, 0.0, 0.0, 0.0, 0.0, 1.6635928819715736E9, 0.0, 2022-09-19 18:08:01.971
143.0, -103365.37401263404, -23945.64735241501, -62230.54227000979, -20991.39493601262, -187500.02235174447, 187500.0, -46477.077481398286, -14466.652508575024, 0.654, -0.5640000000000001, 0.548, 192.0, 0.0, 0.0, 0.0, 0.0, 0.0, 0.0, 0.0, 0.0, 0.0, 1.663592881976572E9, 0.0, 2022-09-19 18:08:01.976
144.0, -103400.93563806244, -23910.555113620176, -62256.17972090003, -20972.887691603624, -187500.02235174447, 187500.0, -46414.71611436798, -14460.572834083181, 0.654, -0.5640000000000001, 0.548, 192.0, 0.0, 0.0, 0.0, 0.0, 0.0, 0.0, 0.0, 0.0, 0.0, 1.6635928819805794E9, 0.0, 2022-09-19 18:08:01.980
145.0, -103181.39680402241, -23856.598002505067, -62355.57792849278, -20987.371622010665, -187500.02235174447, 187500.0, -46407.451797420006, -14435.360066337595, 0.654, -0.5640000000000001, 0.548, 192.0, 0.0, 0.0, 0.0, 0.0, 0.0, 0.0, 0.0, 0.0, 0.0, 1.6635928819845555E9, 0.0, 2022-09-19 18:08:01.984
146.0, -102880.96700679863, -23841.28705755318, -62430.232754973506, -21029.862288220203, -187500.02235174447, 187500.0, -46507.18528117958, -14419.490327774327, 0.654, -0.5640000000000001, 0.548, 192.0, 0.0, 0.0, 0.0, 0.0, 0.0, 0.0, 0.0, 0.0, 0.0, 1.6635928819885738E9, 0.0, 2022-09-19 18:08:01.988
147.0, -103087.18420114329, -23921.64157887001, -62301.598465633215, -21027.69416900804, -187500.02235174447, 187500.0, -46582.39890127169, -14454.783732269256, 0.654, -0.5640000000000001, 0.548, 192.0, 0.0, 0.0, 0.0, 0.0, 0.0, 0.0, 0.0, 0.0, 0.0, 1.6635928819915905E9, 0.0, 2022-09-19 18:08:01.991
148.0, -103384.1047744876, -23938.69595988941, -62208.41404299904, -20975.3016800048, -187500.02235174447, 187500.0, -46474.976417419486, -14470.653470832523, 0.654, -0.5640000000000001, 0.548, 192.0, 0.0, 0.0, 0.0, 0.0, 0.0, 0.0, 0.0, 0.0, 0.0, 1.6635928819955947E9, 0.0, 2022-09-19 18:08:01.995
149.0, -103424.13674880705, -23906.263578684757, -62240.6899619925, -20950.781816337327, -187500.02235174447, 187500.0, -46417.17480625806, -14460.170502682986, 0.652, -0.5660000000000001, 0.544, 192.0, 20.0, 96.0, 238.0, 80.0, 17.0, 0.0, 0.0, 0.0, 0.0, 1.6635928819996085E9, 0.0, 2022-09-19 18:08:01.999
150.0, -103213.00217068222, -23863.14706363047, -62354.88502441467, -20972.083028803234, -187500.02235174447, 187500.0, -46412.14566375562, -14438.154034394507, 0.652, -0.5660000000000001, 0.544, 192.0, 0.0, 0.0, 0.0, 0.0, 0.0, 0.0, 0.0, 0.0, 0.0, 1.663592882004585E9, 0.0, 2022-09-19 18:08:02.004
151.0, -102918.7414549281, -23854.184014103892, -62440.35809521176, -21022.441509061042, -187500.02235174447, 187500.0, -46516.39419989517, -14424.005380154298, 0.652, -0.5660000000000001, 0.544, 192.0, 0.0, 0.0, 0.0, 0.0, 0.0, 0.0, 0.0, 0.0, 0.0, 1.6635928820085871E9, 0.0, 2022-09-19 18:08:02.008
152.0, -103123.43873064981, -23927.900067317496, -62300.99496853292, -21009.25397983241, -187500.02235174447, 187500.0, -46581.77305242694, -14448.882871733054, 0.652, -0.5660000000000001, 0.544, 192.0, 0.0, 0.0, 0.0, 0.0, 0.0, 0.0, 0.0, 0.0, 0.0, 1.663592882012658E9, 0.0, 2022-09-19 18:08:02.012
153.0, -103431.7139901774, -23948.038989071727, -62203.92134236352, -20956.86149082917, -187500.02235174447, 187500.0, -46470.01433015041, -14467.032488230765, 0.652, -0.5660000000000001, 0.544, 192.0, 0.0, 0.0, 0.0, 0.0, 0.0, 0.0, 0.0, 0.0, 0.0, 1.6635928820156112E9, 0.0, 2022-09-19 18:08:02.015
154.0, -103484.59821755865, -23918.668796857455, -62233.04566538879, -20935.80614755227, -187500.02235174447, 187500.0, -46413.19619574502, -14458.739991037846, 0.652, -0.5660000000000001, 0.544, 192.0, 0.0, 0.0, 0.0, 0.0, 0.0, 0.0, 0.0, 0.0, 0.0, 1.663592882019636E9, 0.0, 2022-09-19 18:08:02.019
155.0, -103281.35380522655, -23857.156796116447, -62326.543012445334, -20939.427130154032, -187500.02235174447, 187500.0, -46403.875518307155, -14428.252211600806, 0.652, -0.5660000000000001, 0.544, 192.0, 0.0, 0.0, 0.0, 0.0, 0.0, 0.0, 0.0, 0.0, 0.0, 1.6635928820236144E9, 0.0, 2022-09-19 18:08:02.023
156.0, -103014.317514219, -23853.669923981422, -62423.482528148, -20998.793363427325, -187500.02235174447, 187500.0, -46515.99186849497, -14432.052008158209, 0.652, -0.5660000000000001, 0.544, 192.0, 0.0, 0.0, 0.0, 0.0, 0.0, 0.0, 0.0, 0.0, 0.0, 1.6635928820296373E9, 0.0, 2022-09-19 18:08:02.029
157.0, -103250.64250834496, -23936.460785443876, -62292.56836087327, -21000.96148263949, -187500.02235174447, 187500.0, -46583.51648849446, -14475.324985423684, 0.652, -0.5660000000000001, 0.544, 192.0, 0.0, 0.0, 0.0, 0.0, 0.0, 0.0, 0.0, 0.0, 0.0, 1.6635928820327103E9, 0.0, 2022-09-19 18:08:02.032
158.0, -103581.73889896143, -23960.17598631096, -62194.712423647936, -20946.15500523508, -187500.02235174447, 187500.0, -46466.303940570826, -14497.095584523153, 0.652, -0.5660000000000001, 0.544, 192.0, 0.0, 0.0, 0.0, 0.0, 0.0, 0.0, 0.0, 0.0, 0.0, 1.663592882036657E9, 0.0, 2022-09-19 18:08:02.036
159.0, -103642.60269911322, -23905.816543795652, -62217.7347204369, -20914.728452530915, -187500.02235174447, 187500.0, -46397.3488089262, -14485.047994261742, 0.646, -0.562, 0.548, 192.0, 20.0, 48.0, 238.0, 112.0, 17.0, 32.0, 0.0, 0.0, 0.0, 1.663592882040619E9, 0.0, 2022-09-19 18:08:02.040
160.0, -103453.28342357677, -23834.84975515005, -62316.93176232956, -20928.38536839311, -187500.02235174447, 187500.0, -46388.72103556646, -14458.7623427823, 0.646, -0.562, 0.548, 192.0, 0.0, 0.0, 0.0, 0.0, 0.0, 0.0, 0.0, 0.0, 0.0, 1.6635928820437517E9, 0.0, 2022-09-19 18:08:02.043
161.0, -103184.01195812368, -23822.243371277258, -62399.23088541399, -20983.34830800871, -187500.02235174447, 187500.0, -46488.745092003956, -14451.140397923042, 0.646, -0.562, 0.548, 192.0, 0.0, 0.0, 0.0, 0.0, 0.0, 0.0, 0.0, 0.0, 0.0, 1.6635928820478015E9, 0.0, 2022-09-19 18:08:02.047
162.0, -103408.24465849933, -23895.713555301852, -62267.31088963877, -20979.079124817745, -187500.02235174447, 187500.0, -46566.97619759753, -14484.466848905904, 0.646, -0.562, 0.548, 192.0, 0.0, 0.0, 0.0, 0.0, 0.0, 0.0, 0.0, 0.0, 0.0, 1.66359288205174E9, 0.0, 2022-09-19 18:08:02.051
163.0, -103735.56360430285, -23914.73488983332, -62172.606548381635, -20929.972342249435, -187500.02235174447, 187500.0, -46461.87829516867, -14498.369633957105, 0.646, -0.562, 0.548, 192.0, 0.0, 0.0, 0.0, 0.0, 0.0, 0.0, 0.0, 0.0, 0.0, 1.6635928820556953E9, 0.0, 2022-09-19 18:08:02.055
164.0, -103798.08143354434, -23869.562014289146, -62197.81931612722, -20912.448574596474, -187500.02235174447, 187500.0, -46399.8522043052, -14485.986767528864, 0.646, -0.562, 0.548, 192.0, 0.0, 0.0, 0.0, 0.0, 0.0, 0.0, 0.0, 0.0, 0.0, 1.6635928820597496E9, 0.0, 2022-09-19 18:08:02.059
165.0, -103607.93514346304, -23822.51159221072, -62300.32441619926, -20932.743958561892, -187500.02235174447, 187500.0, -46390.866803034165, -14460.595185827637, 0.646, -0.562, 0.548, 192.0, 0.0, 0.0, 0.0, 0.0, 0.0, 0.0, 0.0, 0.0, 0.0, 1.6635928820647128E9, 0.0, 2022-09-19 18:08:02.064
166.0, -103321.81046269066, -23812.47565895029, -62381.46124857203, -20979.68262191804, -187500.02235174447, 187500.0, -46488.14159490366, -14439.249269872818, 0.646, -0.562, 0.548, 192.0, 0.0, 0.0, 0.0, 0.0, 0.0, 0.0, 0.0, 0.0, 0.0, 1.663592882068713E9, 0.0, 2022-09-19 18:08:02.068
167.0, -103532.27448848182, -23893.478380856322, -62253.564566798756, -20974.49701720441, -187500.02235174447, 187500.0, -46558.32607249333, -14464.976127740876, 0.646, -0.562, 0.548, 192.0, 0.0, 0.0, 0.0, 0.0, 0.0, 0.0, 0.0, 0.0, 0.0, 1.6635928820716717E9, 0.0, 2022-09-19 18:08:02.071
168.0, -103850.69743999213, -23916.523029389744, -62160.804827309235, -20928.027740481823, -187500.02235174447, 187500.0, -46446.455591494516, -14482.276377949283, 0.646, -0.562, 0.548, 192.0, 0.0, 0.0, 0.0, 0.0, 0.0, 0.0, 0.0, 0.0, 0.0, 1.6635928820757737E9, 0.0, 2022-09-19 18:08:02.075
169.0, -103908.14142324227, -23882.72719177332, -62202.73669990739, -20911.263932140344, -187500.02235174447, 187500.0, -46392.38672165712, -14476.755497068823, 0.638, -0.56, 0.55, 192.0, 19.0, 240.0, 238.0, 128.0, 17.0, 48.0, 0.0, 0.0, 0.0, 1.6635928820797884E9, 0.0, 2022-09-19 18:08:02.079
170.0, -103710.64140923518, -23832.18989755987, -62308.21458199198, -20925.725510802928, -187500.02235174447, 187500.0, -46383.08839596372, -14446.67004903198, 0.638, -0.56, 0.55, 192.0, 0.0, 0.0, 0.0, 0.0, 0.0, 0.0, 0.0, 0.0, 0.0, 1.663592882083743E9, 0.0, 2022-09-19 18:08:02.083
171.0, -103419.86756561609, -23820.43287997638, -62397.28628364638, -20975.368735238164, -187500.02235174447, 187500.0, -46483.80535647933, -14429.19098486793, 0.638, -0.56, 0.55, 192.0, 0.0, 0.0, 0.0, 0.0, 0.0, 0.0, 0.0, 0.0, 0.0, 1.66359288208779E9, 0.0, 2022-09-19 18:08:02.087
172.0, -103631.53858560785, -23900.20625593737, -62268.540235583816, -20973.29002300382, -187500.02235174447, 187500.0, -46555.35329048077, -14457.644755559535, 0.638, -0.56, 0.55, 192.0, 0.0, 0.0, 0.0, 0.0, 0.0, 0.0, 0.0, 0.0, 0.0, 1.6635928820927691E9, 0.0, 2022-09-19 18:08:02.092
173.0, -103962.12088610184, -23930.090538274115, -62173.0759350152, -20928.564182348753, -187500.02235174447, 187500.0, -46447.0143851059, -14480.398831415037, 0.638, -0.56, 0.55, 192.0, 0.0, 0.0, 0.0, 0.0, 0.0, 0.0, 0.0, 0.0, 0.0, 1.6635928820967944E9, 0.0, 2022-09-19 18:08:02.096
174.0, -104030.96425902419, -23894.48420935681, -62203.04962432977, -20907.75470826086, -187500.02235174447, 187500.0, -46388.02813148834, -14473.492142378349, 0.638, -0.56, 0.55, 192.0, 0.0, 0.0, 0.0, 0.0, 0.0, 0.0, 0.0, 0.0, 0.0, 1.663592882099784E9, 0.0, 2022-09-19 18:08:02.099
175.0, -103842.53905326594, -23843.90221165445, -62307.29816046932, -20929.882935271613, -187500.02235174447, 187500.0, -46380.47324186245, -14448.368781610583, 0.638, -0.56, 0.55, 192.0, 0.0, 0.0, 0.0, 0.0, 0.0, 0.0, 0.0, 0.0, 0.0, 1.6635928821047957E9, 0.0, 2022-09-19 18:08:02.104
176.0, -103552.1898927915, -23827.89836262445, -62390.6254637987, -20981.515464963373, -187500.02235174447, 187500.0, -46480.631408766676, -14432.968429680877, 0.638, -0.56, 0.55, 192.0, 0.0, 0.0, 0.0, 0.0, 0.0, 0.0, 0.0, 0.0, 0.0, 1.6635928821077893E9, 0.0, 2022-09-19 18:08:02.107
177.0, -103766.0960872288, -23910.957445020373, -62273.927005997546, -20989.11505807818, -187500.02235174447, 187500.0, -46573.56996221185, -14468.708869064913, 0.638, -0.56, 0.55, 192.0, 0.0, 0.0, 0.0, 0.0, 0.0, 0.0, 0.0, 0.0, 0.0, 1.6635928821138656E9, 0.0, 2022-09-19 18:08:02.113
178.0, -104095.89607666685, -23932.59393365311, -62176.58515889468, -20944.836252312216, -187500.02235174447, 187500.0, -46465.72279521499, -14486.746726840345, 0.638, -0.56, 0.55, 192.0, 0.0, 0.0, 0.0, 0.0, 0.0, 0.0, 0.0, 0.0, 0.0, 1.6635928821178331E9, 0.0, 2022-09-19 18:08:02.117
179.0, -104159.59854836448, -23895.512389601754, -62204.54719120827, -20922.596266579185, -187500.02235174447, 187500.0, -46398.04171300432, -14469.20060744293, 0.638, -0.56, 0.55, 192.0, 0.0, 0.0, 0.0, 0.0, 0.0, 0.0, 0.0, 0.0, 0.0, 1.6635928821209607E9, 0.0, 2022-09-19 18:08:02.120
180.0, -103961.07035411244, -23830.222944047804, -62305.21944823497, -20944.52332788984, -187500.02235174447, 187500.0, -46392.25261119039, -14439.875118717566, 0.652, -0.558, 0.55, 192.0, 20.0, 96.0, 238.0, 144.0, 17.0, 48.0, 0.0, 0.0, 0.0, 1.6635928821258144E9, 0.0, 2022-09-19 18:08:02.125
181.0, -103665.2673679909, -23808.653510648433, -62392.905341733145, -20998.033404115846, -187500.02235174447, 187500.0, -46491.15908040513, -14424.318304576673, 0.652, -0.558, 0.55, 192.0, 0.0, 0.0, 0.0, 0.0, 0.0, 0.0, 0.0, 0.0, 0.0, 1.663592882128833E9, 0.0, 2022-09-19 18:08:02.128
182.0, -103867.5730070559, -23885.565863319145, -62266.5956338162, -20993.25013080241, -187500.02235174447, 187500.0, -46563.042290573394, -14451.900357234521, 0.652, -0.558, 0.55, 192.0, 0.0, 0.0, 0.0, 0.0, 0.0, 0.0, 0.0, 0.0, 0.0, 1.6635928821327753E9, 0.0, 2022-09-19 18:08:02.132
183.0, -104196.16600229335, -23909.25871244177, -62178.149781006556, -20946.602040124184, -187500.02235174447, 187500.0, -46456.804449177325, -14475.324985423684, 0.652, -0.558, 0.55, 192.0, 0.0, 0.0, 0.0, 0.0, 0.0, 0.0, 0.0, 0.0, 0.0, 1.6635928821359103E9, 0.0, 2022-09-19 18:08:02.135
184.0, -104255.95691871131, -23863.459988052844, -62212.14678432308, -20922.61861832364, -187500.02235174447, 187500.0, -46389.86097453368, -14463.746781795835, 0.652, -0.558, 0.55, 192.0, 0.0, 0.0, 0.0, 0.0, 0.0, 0.0, 0.0, 0.0, 0.0, 1.6635928821398387E9, 0.0, 2022-09-19 18:08:02.139
185.0, -104048.53273016606, -23800.740993111252, -62314.22720125046, -20927.133670703613, -187500.02235174447, 187500.0, -46375.82407901574, -14426.62053425557, 0.652, -0.558, 0.55, 192.0, 0.0, 0.0, 0.0, 0.0, 0.0, 0.0, 0.0, 0.0, 0.0, 1.6635928821438384E9, 0.0, 2022-09-19 18:08:02.143
186.0, -103750.40516262117, -23799.064612277107, -62419.10158623476, -20985.33761326523, -187500.02235174447, 187500.0, -46485.30292335784, -14415.221144583362, 0.652, -0.558, 0.55, 192.0, 0.0, 0.0, 0.0, 0.0, 0.0, 0.0, 0.0, 0.0, 0.0, 1.663592882148811E9, 0.0, 2022-09-19 18:08:02.148
187.0, -103954.14131333129, -23888.516293587243, -62301.84433482222, -20993.96538662498, -187500.02235174447, 187500.0, -46570.17249705464, -14456.370706125583, 0.652, -0.558, 0.55, 192.0, 0.0, 0.0, 0.0, 0.0, 0.0, 0.0, 0.0, 0.0, 0.0, 1.6635928821529973E9, 0.0, 2022-09-19 18:08:02.152
188.0, -104277.50400036621, -23915.003110766782, -62211.476231989414, -20947.361999435663, -187500.02235174447, 187500.0, -46474.551734274835, -14481.762287826812, 0.652, -0.558, 0.55, 192.0, 0.0, 0.0, 0.0, 0.0, 0.0, 0.0, 0.0, 0.0, 0.0, 1.6635928821558323E9, 0.0, 2022-09-19 18:08:02.155
189.0, -104330.45528298084, -23880.11203767205, -62239.55002302528, -20924.004426479867, -187500.02235174447, 187500.0, -46403.80846307379, -14468.8653312761, 0.652, -0.558, 0.55, 192.0, 0.0, 0.0, 0.0, 0.0, 0.0, 0.0, 0.0, 0.0, 0.0, 1.663592882159921E9, 0.0, 2022-09-19 18:08:02.159
190.0, -104125.64624853687, -23824.255028278236, -62341.04929459683, -20935.00148475188, -187500.02235174447, 187500.0, -46388.85514603319, -14436.120025649076, 0.644, -0.5660000000000001, 0.55, 192.0, 20.0, 32.0, 238.0, 80.0, 17.0, 48.0, 0.0, 0.0, 0.0, 1.6635928821639197E9, 0.0, 2022-09-19 18:08:02.163
191.0, -103823.38360826774, -23811.04514730515, -62438.8381765888, -20987.63984294413, -187500.02235174447, 187500.0, -46489.929734460085, -14419.356217307595, 0.644, -0.5660000000000001, 0.55, 192.0, 0.0, 0.0, 0.0, 0.0, 0.0, 0.0, 0.0, 0.0, 0.0, 1.6635928821678677E9, 0.0, 2022-09-19 18:08:02.167
192.0, -104025.10810197689, -23897.52404660273, -62314.89775358412, -20992.512523235386, -187500.02235174447, 187500.0, -46572.742947667, -14452.414447356994, 0.644, -0.5660000000000001, 0.55, 192.0, 0.0, 0.0, 0.0, 0.0, 0.0, 0.0, 0.0, 0.0, 0.0, 1.6635928821719005E9, 0.0, 2022-09-19 18:08:02.171
193.0, -104357.65735598296, -23931.968084808363, -62223.367360039636, -20947.451406413486, -187500.02235174447, 187500.0, -46471.0201586509, -14477.493104635849, 0.644, -0.5660000000000001, 0.55, 192.0, 0.0, 0.0, 0.0, 0.0, 0.0, 0.0, 0.0, 0.0, 0.0, 1.6635928821759124E9, 0.0, 2022-09-19 18:08:02.175
194.0, -104415.88365028902, -23891.4890755998, -62245.60734577267, -20917.209496165455, -187500.02235174447, 187500.0, -46400.23218396094, -14460.841055016645, 0.644, -0.5660000000000001, 0.55, 192.0, 0.0, 0.0, 0.0, 0.0, 0.0, 0.0, 0.0, 0.0, 0.0, 1.6635928821809893E9, 0.0, 2022-09-19 18:08:02.180
195.0, -104218.6518572154, -23838.448386007356, -62344.96084987651, -20932.654551584073, -187500.02235174447, 187500.0, -46383.55778259728, -14431.940249435933, 0.644, -0.5660000000000001, 0.55, 192.0, 0.0, 0.0, 0.0, 0.0, 0.0, 0.0, 0.0, 0.0, 0.0, 1.66359288218395E9, 0.0, 2022-09-19 18:08:02.183
196.0, -103919.89844082577, -23825.886705623474, -62442.325048723826, -20987.39397375512, -187500.02235174447, 187500.0, -46485.83936522477, -14415.623475983559, 0.644, -0.5660000000000001, 0.55, 192.0, 0.0, 0.0, 0.0, 0.0, 0.0, 0.0, 0.0, 0.0, 0.0, 1.663592882188943E9, 0.0, 2022-09-19 18:08:02.188
197.0, -104123.7239985137, -23902.01674723825, -62316.75294837391, -20986.455200487995, -187500.02235174447, 187500.0, -46567.08795631981, -14448.52524382177, 0.644, -0.5660000000000001, 0.55, 192.0, 0.0, 0.0, 0.0, 0.0, 0.0, 0.0, 0.0, 0.0, 0.0, 1.6635928821919415E9, 0.0, 2022-09-19 18:08:02.191
198.0, -104464.90102587952, -23931.58810515262, -62220.37222628263, -20944.791548823305, -187500.02235174447, 187500.0, -46463.88995216965, -14476.8672557911, 0.644, -0.5660000000000001, 0.55, 192.0, 0.0, 0.0, 0.0, 0.0, 0.0, 0.0, 0.0, 0.0, 0.0, 1.6635928821958787E9, 0.0, 2022-09-19 18:08:02.195
199.0, -104537.36538140362, -23903.603721094576, -62246.63552601761, -20928.67594107103, -187500.02235174447, 187500.0, -46396.72296008145, -14470.228787687873, 0.644, -0.5660000000000001, 0.55, 192.0, 0.0, 0.0, 0.0, 0.0, 0.0, 0.0, 0.0, 0.0, 0.0, 1.6635928822000265E9, 0.0, 2022-09-19 18:08:02.200
200.0, -104358.30555657216, -23849.311333812635, -62350.63819296816, -20947.116130246657, -187500.02235174447, 187500.0, -46386.77643379885, -14446.982973454355, 0.644, -0.5640000000000001, 0.55, 192.0, 20.0, 32.0, 238.0, 96.0, 17.0, 48.0, 0.0, 0.0, 0.0, 1.6635928822039733E9, 0.0, 2022-09-19 18:08:02.203
201.0, -104065.07302106298, -23820.164659042915, -62441.475682434524, -20993.76422092488, -187500.02235174447, 187500.0, -46490.19795539355, -14429.749778479312, 0.644, -0.5640000000000001, 0.55, 192.0, 0.0, 0.0, 0.0, 0.0, 0.0, 0.0, 0.0, 0.0, 0.0, 1.6635928822089655E9, 0.0, 2022-09-19 18:08:02.208
202.0, -104271.53608459665, -23892.316090144646, -62302.4031284336, -20990.34440402322, -187500.02235174447, 187500.0, -46556.51558119245, -14460.43872361645, 0.644, -0.5640000000000001, 0.55, 192.0, 0.0, 0.0, 0.0, 0.0, 0.0, 0.0, 0.0, 0.0, 0.0, 1.6635928822119308E9, 0.0, 2022-09-19 18:08:02.211
203.0, -104622.27965858932, -23922.490945159312, -62199.71921440592, -20947.58551688022, -187500.02235174447, 187500.0, -46432.955137843506, -14489.00425303033, 0.644, -0.5640000000000001, 0.55, 192.0, 0.0, 0.0, 0.0, 0.0, 0.0, 0.0, 0.0, 0.0, 0.0, 1.6635928822159617E9, 0.0, 2022-09-19 18:08:02.215
204.0, -104696.55450541431, -23884.5376830742, -62218.29351404829, -20910.77219376233, -187500.02235174447, 187500.0, -46354.656977016566, -14474.587377856658, 0.644, -0.5640000000000001, 0.55, 192.0, 0.0, 0.0, 0.0, 0.0, 0.0, 0.0, 0.0, 0.0, 0.0, 1.6635928822200537E9, 0.0, 2022-09-19 18:08:02.220
205.0, -104533.76675054632, -23837.643723206966, -62325.26896301138, -20926.57487709223, -187500.02235174447, 187500.0, -46346.476238545925, -14458.00238347082, 0.644, -0.5640000000000001, 0.55, 192.0, 0.0, 0.0, 0.0, 0.0, 0.0, 0.0, 0.0, 0.0, 0.0, 1.6635928822239892E9, 0.0, 2022-09-19 18:08:02.223
206.0, -104255.82280824457, -23813.593246173055, -62414.87710653271, -20976.687488161027, -187500.02235174447, 187500.0, -46444.5109897269, -14446.021848442775, 0.644, -0.5640000000000001, 0.55, 192.0, 0.0, 0.0, 0.0, 0.0, 0.0, 0.0, 0.0, 0.0, 0.0, 1.6635928822280188E9, 0.0, 2022-09-19 18:08:02.228
207.0, -104481.41896503199, -23888.06925869814, -62278.7996862888, -20974.988755582424, -187500.02235174447, 187500.0, -46513.08614171579, -14479.460058147915, 0.644, -0.5640000000000001, 0.55, 192.0, 0.0, 0.0, 0.0, 0.0, 0.0, 0.0, 0.0, 0.0, 0.0, 1.66359288223195E9, 0.0, 2022-09-19 18:08:02.231
208.0, -104850.26745203345, -23913.706709588376, -62178.909740318035, -20927.536002103807, -187500.02235174447, 187500.0, -46399.33811418273, -14509.277285251295, 0.644, -0.5640000000000001, 0.55, 192.0, 0.0, 0.0, 0.0, 0.0, 0.0, 0.0, 0.0, 0.0, 0.0, 1.6635928822370586E9, 0.0, 2022-09-19 18:08:02.237
209.0, -104953.44310443915, -23880.20144464987, -62214.9854558689, -20910.168696662033, -187500.02235174447, 187500.0, -46336.64147098559, -14511.691273652468, 0.644, -0.5640000000000001, 0.55, 192.0, 0.0, 0.0, 0.0, 0.0, 0.0, 0.0, 0.0, 0.0, 0.0, 1.6635928822400298E9, 0.0, 2022-09-19 18:08:02.240
210.0, -104793.67283507262, -23827.786603902176, -62316.75294837391, -20926.731339303416, -187500.02235174447, 187500.0, -46323.69981094597, -14491.351186198139, 0.636, -0.5660000000000001, 0.552, 192.0, 19.0, 224.0, 238.0, 80.0, 17.0, 64.0, 0.0, 0.0, 0.0, 1.6635928822430327E9, 0.0, 2022-09-19 18:08:02.243
211.0, -104508.08459616717, -23800.85275183353, -62397.71096679103, -20968.57380492375, -187500.02235174447, 187500.0, -46412.79386434482, -14464.909072507511, 0.636, -0.5660000000000001, 0.552, 192.0, 0.0, 0.0, 0.0, 0.0, 0.0, 0.0, 0.0, 0.0, 0.0, 1.663592882247999E9, 0.0, 2022-09-19 18:08:02.247
212.0, -104726.52819472887, -23878.39095334899, -62266.88620649412, -20963.611717654672, -187500.02235174447, 187500.0, -46492.20961239453, -14489.317177452705, 0.636, -0.5660000000000001, 0.552, 192.0, 0.0, 0.0, 0.0, 0.0, 0.0, 0.0, 0.0, 0.0, 0.0, 1.6635928822520547E9, 0.0, 2022-09-19 18:08:02.252
213.0, -105085.07252753647, -23910.06337524216, -62176.76397285033, -20914.61669380864, -187500.02235174447, 187500.0, -46390.19625070051, -14511.91479109702, 0.636, -0.5660000000000001, 0.552, 192.0, 0.0, 0.0, 0.0, 0.0, 0.0, 0.0, 0.0, 0.0, 0.0, 1.6635928822560728E9, 0.0, 2022-09-19 18:08:02.256
214.0, -105165.2258831532, -23876.692220770386, -62216.50537449186, -20895.662414510538, -187500.02235174447, 187500.0, -46324.12449409062, -14501.789450858767, 0.636, -0.5660000000000001, 0.552, 192.0, 0.0, 0.0, 0.0, 0.0, 0.0, 0.0, 0.0, 0.0, 0.0, 1.6635928822600775E9, 0.0, 2022-09-19 18:08:02.260
215.0, -104972.26327327052, -23819.158830542427, -62327.213564779, -20911.979187962912, -187500.02235174447, 187500.0, -46316.614307953634, -14465.847845774633, 0.636, -0.5660000000000001, 0.552, 192.0, 0.0, 0.0, 0.0, 0.0, 0.0, 0.0, 0.0, 0.0, 0.0, 1.6635928822651007E9, 0.0, 2022-09-19 18:08:02.265
216.0, -104658.9588712405, -23798.99755704374, -62429.383388684204, -20966.159816522577, -187500.02235174447, 187500.0, -46420.594623159726, -14441.842072229634, 0.636, -0.5660000000000001, 0.552, 192.0, 0.0, 0.0, 0.0, 0.0, 0.0, 0.0, 0.0, 0.0, 0.0, 1.663592882268086E9, 0.0, 2022-09-19 18:08:02.268
217.0, -104841.90789960718, -23870.031400922704, -62300.212657476986, -20961.890633331615, -187500.02235174447, 187500.0, -46503.63135381119, -14462.875063762078, 0.636, -0.5660000000000001, 0.552, 192.0, 0.0, 0.0, 0.0, 0.0, 0.0, 0.0, 0.0, 0.0, 0.0, 1.6635928822731016E9, 0.0, 2022-09-19 18:08:02.273
218.0, -105165.4270488533, -23896.317052402148, -62203.92134236352, -20910.548676317772, -187500.02235174447, 187500.0, -46398.555803126794, -14474.319156923195, 0.636, -0.5660000000000001, 0.552, 192.0, 0.0, 0.0, 0.0, 0.0, 0.0, 0.0, 0.0, 0.0, 0.0, 1.6635928822760386E9, 0.0, 2022-09-19 18:08:02.276
219.0, -105220.16647102433, -23860.867185696028, -62238.521842780334, -20891.013251663837, -187500.02235174447, 187500.0, -46335.54623550728, -14455.253118902818, 0.636, -0.5660000000000001, 0.552, 192.0, 0.0, 0.0, 0.0, 0.0, 0.0, 0.0, 0.0, 0.0, 0.0, 1.6635928822801645E9, 0.0, 2022-09-19 18:08:02.280
220.0, -105018.12905289282, -23813.28032175068, -62356.3155360598, -20913.52145833033, -187500.02235174447, 187500.0, -46338.76488670884, -14422.99955165381, 0.638, -0.56, 0.55, 192.0, 19.0, 240.0, 238.0, 128.0, 17.0, 48.0, 0.0, 0.0, 0.0, 1.6635928822841036E9, 0.0, 2022-09-19 18:08:02.284
221.0, -104690.8101070893, -23801.500952422735, -62454.55145294088, -20963.969345565958, -187500.02235174447, 187500.0, -46440.24180653594, -14393.450545483893, 0.638, -0.56, 0.55, 192.0, 0.0, 0.0, 0.0, 0.0, 0.0, 0.0, 0.0, 0.0, 0.0, 1.6635928822880874E9, 0.0, 2022-09-19 18:08:02.288
222.0, -104865.17606558515, -23891.35496513307, -62343.73150393147, -20975.324031749253, -187500.02235174447, 187500.0, -46540.69054611809, -14424.072435387665, 0.638, -0.56, 0.55, 192.0, 0.0, 0.0, 0.0, 0.0, 0.0, 0.0, 0.0, 0.0, 0.0, 1.6635928822910852E9, 0.0, 2022-09-19 18:08:02.291
223.0, -105188.2258281977, -23909.281064186223, -62244.44505506099, -20930.32997016072, -187500.02235174447, 187500.0, -46438.63248093516, -14449.642831044535, 0.638, -0.56, 0.55, 192.0, 0.0, 0.0, 0.0, 0.0, 0.0, 0.0, 0.0, 0.0, 0.0, 1.6635928822951078E9, 0.0, 2022-09-19 18:08:02.295
224.0, -105242.18293931281, -23864.376409575514, -62272.76471528587, -20904.401946592563, -187500.02235174447, 187500.0, -46372.42661385854, -14438.645772772525, 0.638, -0.56, 0.55, 192.0, 0.0, 0.0, 0.0, 0.0, 0.0, 0.0, 0.0, 0.0, 0.0, 1.6635928822991533E9, 0.0, 2022-09-19 18:08:02.299
225.0, -105036.41277985726, -23814.643778162455, -62385.26104512943, -20921.85865901216, -187500.02235174447, 187500.0, -46373.47714584794, -14407.062757857175, 0.638, -0.56, 0.55, 192.0, 0.0, 0.0, 0.0, 0.0, 0.0, 0.0, 0.0, 0.0, 0.0, 1.6635928823031151E9, 0.0, 2022-09-19 18:08:02.303
226.0, -104701.89657233913, -23795.689498864354, -62485.866246922764, -20967.277403745342, -187500.02235174447, 187500.0, -46478.329179087785, -14379.234836010319, 0.638, -0.56, 0.55, 192.0, 0.0, 0.0, 0.0, 0.0, 0.0, 0.0, 0.0, 0.0, 0.0, 1.663592882308129E9, 0.0, 2022-09-19 18:08:02.308
227.0, -104871.52396101046, -23871.05958116765, -62363.49044602996, -20967.52327293435, -187500.02235174447, 187500.0, -46567.82556388683, -14407.688606701924, 0.638, -0.56, 0.55, 192.0, 0.0, 0.0, 0.0, 0.0, 0.0, 0.0, 0.0, 0.0, 0.0, 1.6635928823152475E9, 0.0, 2022-09-19 18:08:02.315
228.0, -105191.19861021027, -23901.07797397113, -62258.48195057893, -20920.47285085593, -187500.02235174447, 187500.0, -46469.81316445031, -14429.459205801393, 0.638, -0.56, 0.55, 192.0, 0.0, 0.0, 0.0, 0.0, 0.0, 0.0, 0.0, 0.0, 0.0, 1.6635928823181632E9, 0.0, 2022-09-19 18:08:02.318
229.0, -105238.9866398557, -23867.885633454996, -62293.46243065148, -20901.920902958027, -187500.02235174447, 187500.0, -46414.47024517897, -14420.362045808084, 0.638, -0.56, 0.55, 192.0, 0.0, 0.0, 0.0, 0.0, 0.0, 0.0, 0.0, 0.0, 0.0, 1.6635928823211765E9, 0.0, 2022-09-19 18:08:02.321
230.0, -105016.18445112521, -23814.263798506716, -62406.51755410642, -20920.80812702276, -187500.02235174447, 187500.0, -46420.81814060428, -14387.594388436602, 0.65, -0.5680000000000001, 0.554, 192.0, 20.0, 80.0, 238.0, 64.0, 17.0, 80.0, 0.0, 0.0, 0.0, 1.6635928823242111E9, 0.0, 2022-09-19 18:08:02.324
231.0, -104684.03752851934, -23801.7691733562, -62516.46578508208, -20985.427020243053, -187500.02235174447, 187500.0, -46529.17939772361, -14371.434077195416, 0.65, -0.5680000000000001, 0.554, 192.0, 0.0, 0.0, 0.0, 0.0, 0.0, 0.0, 0.0, 0.0, 0.0, 1.6635928823281968E9, 0.0, 2022-09-19 18:08:02.328
232.0, -104846.17708279814, -23883.39774410698, -62389.5749318093, -20990.34440402322, -187500.02235174447, 187500.0, -46615.03244817644, -14398.926722875443, 0.65, -0.5680000000000001, 0.554, 192.0, 0.0, 0.0, 0.0, 0.0, 0.0, 0.0, 0.0, 0.0, 0.0, 1.6635928823312461E9, 0.0, 2022-09-19 18:08:02.331
233.0, -105161.42608659579, -23910.465706642357, -62287.58392185974, -20943.76336857836, -187500.02235174447, 187500.0, -46517.31062141784, -14422.463109786882, 0.65, -0.5680000000000001, 0.554, 192.0, 0.0, 0.0, 0.0, 0.0, 0.0, 0.0, 0.0, 0.0, 0.0, 1.663592882336151E9, 0.0, 2022-09-19 18:08:02.336
234.0, -105202.59799988246, -23867.885633454996, -62311.321474471275, -20918.99763572188, -187500.02235174447, 187500.0, -46445.740335671944, -14410.057891614188, 0.65, -0.5680000000000001, 0.554, 192.0, 0.0, 0.0, 0.0, 0.0, 0.0, 0.0, 0.0, 0.0, 0.0, 1.6635928823401685E9, 0.0, 2022-09-19 18:08:02.340
235.0, -104988.781212423, -23818.063595064115, -62423.035493258896, -20941.729359832927, -187500.02235174447, 187500.0, -46435.99497508943, -14386.588559936114, 0.65, -0.5680000000000001, 0.554, 192.0, 0.0, 0.0, 0.0, 0.0, 0.0, 0.0, 0.0, 0.0, 0.0, 1.663592882344208E9, 0.0, 2022-09-19 18:08:02.344
236.0, -104655.11437119417, -23817.61656017501, -62542.72908481707, -21014.931322924058, -187500.02235174447, 187500.0, -46550.14533402269, -14385.292158757706, 0.65, -0.5680000000000001, 0.554, 192.0, 0.0, 0.0, 0.0, 0.0, 0.0, 0.0, 0.0, 0.0, 0.0, 1.6635928823482049E9, 0.0, 2022-09-19 18:08:02.348
237.0, -104812.49300390399, -23896.004127979773, -62414.139498965684, -21018.976988670467, -187500.02235174447, 187500.0, -46637.31713739838, -14417.344560306617, 0.65, -0.5680000000000001, 0.554, 192.0, 0.0, 0.0, 0.0, 0.0, 0.0, 0.0, 0.0, 0.0, 0.0, 1.6635928823521516E9, 0.0, 2022-09-19 18:08:02.352
238.0, -105127.58554549045, -23924.25673297128, -62317.02116930737, -20975.659307916085, -187500.02235174447, 187500.0, -46543.149238008176, -14446.982973454355, 0.65, -0.5680000000000001, 0.554, 192.0, 0.0, 0.0, 0.0, 0.0, 0.0, 0.0, 0.0, 0.0, 0.0, 1.663592882355183E9, 0.0, 2022-09-19 18:08:02.355
239.0, -105170.2773774001, -23885.34234587459, -62340.78107366337, -20949.37365643664, -187500.02235174447, 187500.0, -46466.88508592667, -14435.13654889304, 0.65, -0.5680000000000001, 0.554, 192.0, 0.0, 0.0, 0.0, 0.0, 0.0, 0.0, 0.0, 0.0, 0.0, 1.66359288236124E9, 0.0, 2022-09-19 18:08:02.361
240.0, -104957.80169460794, -23831.34053127057, -62440.78277835641, -20965.24339499991, -187500.02235174447, 187500.0, -46449.875408396176, -14404.939342133921, 0.64, -0.56, 0.556, 192.0, 20.0, 0.0, 238.0, 128.0, 17.0, 96.0, 0.0, 0.0, 0.0, 1.6635928823642175E9, 0.0, 2022-09-19 18:08:02.364
241.0, -104613.47307127394, -23817.884781108474, -62558.017678024495, -21024.520221295385, -187500.02235174447, 187500.0, -46562.841124873295, -14388.667272170458, 0.64, -0.56, 0.556, 192.0, 0.0, 0.0, 0.0, 0.0, 0.0, 0.0, 0.0, 0.0, 0.0, 1.6635928823692093E9, 0.0, 2022-09-19 18:08:02.369
242.0, -104771.25403538396, -23905.011880995262, -62450.8410633613, -21037.663047035105, -187500.02235174447, 187500.0, -46663.11105049981, -14427.67106624497, 0.64, -0.56, 0.556, 192.0, 0.0, 0.0, 0.0, 0.0, 0.0, 0.0, 0.0, 0.0, 0.0, 1.663592882373222E9, 0.0, 2022-09-19 18:08:02.373
243.0, -105091.24160900613, -23943.658047158486, -62349.29708830084, -20990.858494145694, -187500.02235174447, 187500.0, -46558.102555048776, -14456.460113103405, 0.64, -0.56, 0.556, 192.0, 0.0, 0.0, 0.0, 0.0, 0.0, 0.0, 0.0, 0.0, 0.0, 1.663592882376206E9, 0.0, 2022-09-19 18:08:02.376
244.0, -105128.72548445768, -23902.26261642726, -62378.44376307056, -20959.72251411945, -187500.02235174447, 187500.0, -46489.370940848705, -14441.506796062804, 0.64, -0.56, 0.556, 192.0, 0.0, 0.0, 0.0, 0.0, 0.0, 0.0, 0.0, 0.0, 0.0, 1.6635928823792276E9, 0.0, 2022-09-19 18:08:02.379
245.0, -104912.53941208594, -23842.963438387327, -62488.23553183503, -20979.369697495666, -187500.02235174447, 187500.0, -46483.62654252369, -14415.735234705835, 0.64, -0.56, 0.556, 192.0, 0.0, 0.0, 0.0, 0.0, 0.0, 0.0, 0.0, 0.0, 0.0, 1.663592882383268E9, 0.0, 2022-09-19 18:08:02.383
246.0, -104564.58980615018, -23814.822592118097, -62575.854370099834, -21026.755395740915, -187500.02235174447, 187500.0, -46576.69920643559, -14394.769298406756, 0.64, -0.56, 0.556, 192.0, 0.0, 0.0, 0.0, 0.0, 0.0, 0.0, 0.0, 0.0, 0.0, 1.663592882387202E9, 0.0, 2022-09-19 18:08:02.387
247.0, -104718.34745625824, -23897.702860558376, -62446.996563314984, -21028.74470099744, -187500.02235174447, 187500.0, -46668.72133835809, -14426.754644722301, 0.64, -0.56, 0.556, 192.0, 0.0, 0.0, 0.0, 0.0, 0.0, 0.0, 0.0, 0.0, 0.0, 1.6635928823922207E9, 0.0, 2022-09-19 18:08:02.392
248.0, -105036.41277985726, -23924.949637049394, -62342.368047519696, -20986.075220832256, -187500.02235174447, 187500.0, -46580.02961635943, -14452.302688634718, 0.64, -0.56, 0.556, 192.0, 0.0, 0.0, 0.0, 0.0, 0.0, 0.0, 0.0, 0.0, 0.0, 1.6635928823963575E9, 0.0, 2022-09-19 18:08:02.396
249.0, -105083.5526089135, -23887.91279648695, -62367.22318735399, -20964.416380455063, -187500.02235174447, 187500.0, -46510.627449825704, -14441.216223384885, 0.64, -0.56, 0.556, 192.0, 0.0, 0.0, 0.0, 0.0, 0.0, 0.0, 0.0, 0.0, 0.0, 1.6635928824002523E9, 0.0, 2022-09-19 18:08:02.400
250.0, -104871.18868484363, -23842.203479075848, -62474.53391248392, -20981.8507411302, -187500.02235174447, 187500.0, -46505.374789878704, -14414.125909105052, 0.652, -0.5720000000000001, 0.55, 192.0, 20.0, 96.0, 238.0, 32.0, 17.0, 48.0, 0.0, 0.0, 0.0, 1.6635928824032695E9, 0.0, 2022-09-19 18:08:02.403
251.0, -104519.26046839482, -23807.647682147945, -62570.06526828591, -21023.939075939546, -187500.02235174447, 187500.0, -46602.828395703844, -14385.113344802065, 0.652, -0.5720000000000001, 0.55, 192.0, 0.0, 0.0, 0.0, 0.0, 0.0, 0.0, 0.0, 0.0, 0.0, 1.6635928824072466E9, 0.0, 2022-09-19 18:08:02.407
252.0, -104663.87625502066, -23881.207273150358, -62449.56701392735, -21024.92255269558, -187500.02235174447, 187500.0, -46699.81261489542, -14413.365949793571, 0.652, -0.5720000000000001, 0.55, 192.0, 0.0, 0.0, 0.0, 0.0, 0.0, 0.0, 0.0, 0.0, 0.0, 1.6635928824113045E9, 0.0, 2022-09-19 18:08:02.411
253.0, -104983.7297181761, -23917.35004393459, -62345.18436732106, -20985.359965009688, -187500.02235174447, 187500.0, -46602.31430558137, -14446.848862987623, 0.652, -0.5720000000000001, 0.55, 192.0, 0.0, 0.0, 0.0, 0.0, 0.0, 0.0, 0.0, 0.0, 0.0, 1.663592882415344E9, 0.0, 2022-09-19 18:08:02.415
254.0, -105033.88703273381, -23889.320956387637, -62378.3767078372, -20967.970307823456, -187500.02235174447, 187500.0, -46532.3309936918, -14445.32894436466, 0.652, -0.5720000000000001, 0.55, 192.0, 0.0, 0.0, 0.0, 0.0, 0.0, 0.0, 0.0, 0.0, 0.0, 1.663592882419284E9, 0.0, 2022-09-19 18:08:02.419
255.0, -104822.08190227531, -23828.211287046826, -62477.283177051926, -20980.509636462884, -187500.02235174447, 187500.0, -46522.76444706493, -14417.23280158434, 0.652, -0.5720000000000001, 0.55, 192.0, 0.0, 0.0, 0.0, 0.0, 0.0, 0.0, 0.0, 0.0, 0.0, 1.6635928824242752E9, 0.0, 2022-09-19 18:08:02.424
0.0, -104469.63959570404, -23797.365879698504, -62582.04580331395, -21027.940038197048, -187500.02235174447, 187500.0, -46621.4026953462, -14393.22702803934, 0.652, -0.5720000000000001, 0.55, 192.0, 0.0, 0.0, 0.0, 0.0, 0.0, 0.0, 0.0, 0.0, 0.0, 1.6635928824283051E9, 0.0, 2022-09-19 18:08:02.428
1.0, -104614.83652768571, -23876.96044170385, -62459.535891954416, -21028.096500408235, -187500.02235174447, 187500.0, -46703.90298413074, -14425.458243543893, 0.652, -0.5720000000000001, 0.55, 192.0, 0.0, 0.0, 0.0, 0.0, 0.0, 0.0, 0.0, 0.0, 0.0, 1.663592882431324E9, 0.0, 2022-09-19 18:08:02.431
2.0, -104937.34984843133, -23914.421965410944, -62352.78396043587, -20984.28708127583, -187500.02235174447, 187500.0, -46603.65541024869, -14458.136493937553, 0.652, -0.5720000000000001, 0.55, 192.0, 0.0, 0.0, 0.0, 0.0, 0.0, 0.0, 0.0, 0.0, 0.0, 1.6635928824363225E9, 0.0, 2022-09-19 18:08:02.436
3.0, -104984.60143620985, -23874.233528880304, -62375.71685024701, -20956.459159428974, -187500.02235174447, 187500.0, -46533.560339636846, -14445.798330998223, 0.652, -0.5720000000000001, 0.55, 192.0, 0.0, 0.0, 0.0, 0.0, 0.0, 0.0, 0.0, 0.0, 0.0, 1.663592882440336E9, 0.0, 2022-09-19 18:08:02.440
4.0, -104773.10923017374, -23816.47662120779, -62476.76908692945, -20974.832293371237, -187500.02235174447, 187500.0, -46523.569109865326, -14419.535031263236, 0.648, -0.5720000000000001, 0.552, 192.0, 20.0, 64.0, 238.0, 32.0, 17.0, 64.0, 0.0, 0.0, 0.0, 1.6635928824433072E9, 0.0, 2022-09-19 18:08:02.443
5.0, -104422.34330443661, -23794.013118030205, -62580.123553290796, -21032.07511092128, -187500.02235174447, 187500.0, -46627.75059077151, -14399.70903393138, 0.648, -0.5720000000000001, 0.552, 192.0, 0.0, 0.0, 0.0, 0.0, 0.0, 0.0, 0.0, 0.0, 0.0, 1.6635928824473498E9, 0.0, 2022-09-19 18:08:02.447
6.0, -104573.19522776548, -23877.899214970974, -62462.6427844337, -21044.145052927142, -187500.02235174447, 187500.0, -46723.77368495151, -14433.862499459088, 0.648, -0.5720000000000001, 0.552, 192.0, 0.0, 0.0, 0.0, 0.0, 0.0, 0.0, 0.0, 0.0, 0.0, 1.6635928824523387E9, 0.0, 2022-09-19 18:08:02.452
7.0, -104893.24985662101, -23909.973968264338, -62356.87432967119, -21001.0061861284, -187500.02235174447, 187500.0, -46622.207358146596, -14459.38819162705, 0.648, -0.5720000000000001, 0.552, 192.0, 0.0, 0.0, 0.0, 0.0, 0.0, 0.0, 0.0, 0.0, 0.0, 1.6635928824563596E9, 0.0, 2022-09-19 18:08:02.456
8.0, -104939.0709327544, -23873.71943875783, -62382.78000149489, -20978.43092422854, -187500.02235174447, 187500.0, -46550.39120321169, -14446.021848442775, 0.648, -0.5720000000000001, 0.552, 192.0, 0.0, 0.0, 0.0, 0.0, 0.0, 0.0, 0.0, 0.0, 0.0, 1.6635928824593704E9, 0.0, 2022-09-19 18:08:02.459
9.0, -104722.88486038266, -23819.985845087274, -62486.022709133955, -20989.04800284481, -187500.02235174447, 187500.0, -46547.99956655497, -14408.113289846575, 0.648, -0.5720000000000001, 0.552, 192.0, 0.0, 0.0, 0.0, 0.0, 0.0, 0.0, 0.0, 0.0, 0.0, 1.6635928824633965E9, 0.0, 2022-09-19 18:08:02.463
10.0, -104368.27443459923, -23791.129742995472, -62586.15852429373, -21029.661122520105, -187500.02235174447, 187500.0, -46643.35210840131, -14377.334937731617, 0.648, -0.5720000000000001, 0.552, 192.0, 0.0, 0.0, 0.0, 0.0, 0.0, 0.0, 0.0, 0.0, 0.0, 1.6635928824674993E9, 0.0, 2022-09-19 18:08:02.467
11.0, -104509.17983164548, -23869.5843660336, -62469.19184555911, -21033.036235932857, -187500.02235174447, 187500.0, -46733.228472856106, -14405.207563067384, 0.648, -0.5720000000000001, 0.552, 192.0, 0.0, 0.0, 0.0, 0.0, 0.0, 0.0, 0.0, 0.0, 0.0, 1.6635928824713452E9, 0.0, 2022-09-19 18:08:02.471
12.0, -104835.76116988197, -23915.718366589354, -62371.93940543407, -20998.323976793763, -187500.02235174447, 187500.0, -46642.16746594518, -14442.557328052204, 0.648, -0.5720000000000001, 0.552, 192.0, 0.0, 0.0, 0.0, 0.0, 0.0, 0.0, 0.0, 0.0, 0.0, 1.6635928824754114E9, 0.0, 2022-09-19 18:08:02.475
13.0, -104886.0525949064, -23882.68248828441, -62399.677920303104, -20979.503807962396, -187500.02235174447, 187500.0, -46578.53204948093, -14436.678819260458, 0.648, -0.5720000000000001, 0.552, 192.0, 0.0, 0.0, 0.0, 0.0, 0.0, 0.0, 0.0, 0.0, 0.0, 1.6635928824794476E9, 0.0, 2022-09-19 18:08:02.479
14.0, -104677.33200518275, -23827.116051568515, -62500.01490116298, -20996.044098859322, -187500.02235174447, 187500.0, -46567.08795631981, -14407.196868323908, 0.65, -0.5680000000000001, 0.55, 192.0, 20.0, 80.0, 238.0, 64.0, 17.0, 48.0, 0.0, 0.0, 0.0, 1.663592882484475E9, 0.0, 2022-09-19 18:08:02.484
15.0, -104317.1783467744, -23800.428068688878, -62602.899980890754, -21045.799082016838, -187500.02235174447, 187500.0, -46659.57947487587, -14377.625510409536, 0.65, -0.5680000000000001, 0.55, 192.0, 0.0, 0.0, 0.0, 0.0, 0.0, 0.0, 0.0, 0.0, 0.0, 1.663592882487392E9, 0.0, 2022-09-19 18:08:02.487
16.0, -104458.55313045421, -23878.837988238098, -62488.12377311275, -21054.2703931654, -187500.02235174447, 187500.0, -46757.07778418992, -14408.336807291129, 0.65, -0.5680000000000001, 0.55, 192.0, 0.0, 0.0, 0.0, 0.0, 0.0, 0.0, 0.0, 0.0, 0.0, 1.663592882491433E9, 0.0, 2022-09-19 18:08:02.491
17.0, -104775.43381159709, -23907.291758929703, -62376.7226787475, -21006.236494330944, -187500.02235174447, 187500.0, -46650.03527999345, -14432.208470369396, 0.65, -0.5680000000000001, 0.55, 192.0, 0.0, 0.0, 0.0, 0.0, 0.0, 0.0, 0.0, 0.0, 0.0, 1.663592882495449E9, 0.0, 2022-09-19 18:08:02.495
18.0, -104828.25098374499, -23875.842854481085, -62397.91213249113, -20987.282215032843, -187500.02235174447, 187500.0, -46574.77695641243, -14427.961638922889, 0.65, -0.5680000000000001, 0.55, 192.0, 0.0, 0.0, 0.0, 0.0, 0.0, 0.0, 0.0, 0.0, 0.0, 1.6635928824995067E9, 0.0, 2022-09-19 18:08:02.499
19.0, -104622.72669347844, -23818.130650297484, -62498.07029939536, -20999.888598905636, -187500.02235174447, 187500.0, -46570.239552288, -14401.497173487804, 0.65, -0.5680000000000001, 0.55, 192.0, 0.0, 0.0, 0.0, 0.0, 0.0, 0.0, 0.0, 0.0, 0.0, 1.663592882503496E9, 0.0, 2022-09-19 18:08:02.503
20.0, -104272.09487820804, -23792.7167168518, -62601.69298669016, -21053.44337862055, -187500.02235174447, 187500.0, -46665.56974238989, -14380.821809866646, 0.65, -0.5680000000000001, 0.55, 192.0, 0.0, 0.0, 0.0, 0.0, 0.0, 0.0, 0.0, 0.0, 0.0, 1.6635928825074368E9, 0.0, 2022-09-19 18:08:02.507
21.0, -104410.87685953104, -23877.720401015333, -62478.467819508056, -21057.51139611142, -187500.02235174447, 187500.0, -46754.12735392182, -14409.789670680722, 0.65, -0.5680000000000001, 0.55, 192.0, 0.0, 0.0, 0.0, 0.0, 0.0, 0.0, 0.0, 0.0, 0.0, 1.663592882512486E9, 0.0, 2022-09-19 18:08:02.512
22.0, -104732.74197968746, -23913.930227032928, -62361.25527158443, -21002.570808240274, -187500.02235174447, 187500.0, -46647.17425670317, -14438.24344137233, 0.65, -0.5680000000000001, 0.55, 192.0, 0.0, 0.0, 0.0, 0.0, 0.0, 0.0, 0.0, 0.0, 0.0, 1.6635928825165591E9, 0.0, 2022-09-19 18:08:02.516
23.0, -104785.29093090189, -23875.641688780986, -62377.46028631453, -20968.90908109058, -187500.02235174447, 187500.0, -46563.91400860716, -14429.302743590206, 0.65, -0.5680000000000001, 0.55, 192.0, 0.0, 0.0, 0.0, 0.0, 0.0, 0.0, 0.0, 0.0, 0.0, 1.6635928825194952E9, 0.0, 2022-09-19 18:08:02.519
24.0, -104579.27490225731, -23820.119955554004, -62476.67967995163, -20980.286119018332, -187500.02235174447, 187500.0, -46550.07827878932, -14400.334882776127, 0.65, -0.5680000000000001, 0.55, 192.0, 0.0, 0.0, 0.0, 0.0, 0.0, 0.0, 0.0, 0.0, 0.0, 1.6635928825234847E9, 0.0, 2022-09-19 18:08:02.523
25.0, -104223.52453750666, -23794.013118030205, -62577.307233489424, -21025.235477117956, -187500.02235174447, 187500.0, -46641.631024078255, -14372.931644073922, 0.648, -0.5680000000000001, 0.548, 192.0, 20.0, 64.0, 238.0, 64.0, 17.0, 32.0, 0.0, 0.0, 0.0, 1.663592882527492E9, 0.0, 2022-09-19 18:08:02.527
26.0, -104362.77590546322, -23871.953650945863, -62461.63695593321, -21027.604762030216, -187500.02235174447, 187500.0, -46740.559845037445, -14401.094842087608, 0.648, -0.5680000000000001, 0.548, 192.0, 0.0, 0.0, 0.0, 0.0, 0.0, 0.0, 0.0, 0.0, 0.0, 1.6635928825335796E9, 0.0, 2022-09-19 18:08:02.533
27.0, -104693.13468851265, -23913.192619465903, -62359.221262839, -20983.080087075246, -187500.02235174447, 187500.0, -46650.14703871573, -14431.783787224746, 0.648, -0.5680000000000001, 0.548, 192.0, 0.0, 0.0, 0.0, 0.0, 0.0, 0.0, 0.0, 0.0, 0.0, 1.6635928825365276E9, 0.0, 2022-09-19 18:08:02.536
28.0, -104751.31627932981, -23886.88461624201, -62385.30574861834, -20959.47664493044, -187500.02235174447, 187500.0, -46579.85080240379, -14425.122967377063, 0.648, -0.5680000000000001, 0.548, 192.0, 0.0, 0.0, 0.0, 0.0, 0.0, 0.0, 0.0, 0.0, 0.0, 1.6635928825405173E9, 0.0, 2022-09-19 18:08:02.540
29.0, -104546.79781756375, -23829.127708569493, -62487.18499984563, -20974.407610226586, -187500.02235174447, 187500.0, -46578.33088378083, -14393.383490250528, 0.648, -0.5680000000000001, 0.548, 192.0, 0.0, 0.0, 0.0, 0.0, 0.0, 0.0, 0.0, 0.0, 0.0, 1.6635928825435529E9, 0.0, 2022-09-19 18:08:02.543
30.0, -104201.06103432906, -23803.84788559054, -62593.80282089744, -21026.50952655191, -187500.02235174447, 187500.0, -46678.533754173965, -14371.791705106702, 0.648, -0.5680000000000001, 0.548, 192.0, 0.0, 0.0, 0.0, 0.0, 0.0, 0.0, 0.0, 0.0, 0.0, 1.66359288254651E9, 0.0, 2022-09-19 18:08:02.546
31.0, -104346.25796631075, -23875.596985292075, -62468.83421764782, -21029.705826009016, -187500.02235174447, 187500.0, -46765.32557789393, -14402.212429310373, 0.648, -0.5680000000000001, 0.548, 192.0, 0.0, 0.0, 0.0, 0.0, 0.0, 0.0, 0.0, 0.0, 0.0, 1.6635928825516217E9, 0.0, 2022-09-19 18:08:02.551
32.0, -104688.82080183279, -23914.22079971085, -62357.41077153812, -20986.790476654827, -187500.02235174447, 187500.0, -46665.055652267416, -14437.818758227679, 0.648, -0.5680000000000001, 0.548, 192.0, 0.0, 0.0, 0.0, 0.0, 0.0, 0.0, 0.0, 0.0, 0.0, 1.6635928825555325E9, 0.0, 2022-09-19 18:08:02.555
33.0, -104753.46204679753, -23880.91670047244, -62365.72562047549, -20956.414455940063, -187500.02235174447, 187500.0, -46584.522316994946, -14427.983990667342, 0.648, -0.5680000000000001, 0.548, 192.0, 0.0, 0.0, 0.0, 0.0, 0.0, 0.0, 0.0, 0.0, 0.0, 1.6635928825595827E9, 0.0, 2022-09-19 18:08:02.559
34.0, -104565.95326256196, -23829.932371369883, -62471.42702000464, -20975.033459071336, -187500.02235174447, 187500.0, -46581.61659021576, -14409.029711369243, 0.648, -0.5680000000000001, 0.548, 192.0, 0.0, 0.0, 0.0, 0.0, 0.0, 0.0, 0.0, 0.0, 0.0, 1.6635928825636282E9, 0.0, 2022-09-19 18:08:02.563
35.0, -104220.32823804954, -23805.680728635878, -62582.068155058405, -21030.44343357604, -187500.02235174447, 187500.0, -46681.28301874197, -14388.264940770263, 0.652, -0.5680000000000001, 0.542, 192.0, 20.0, 96.0, 238.0, 64.0, 16.0, 240.0, 0.0, 0.0, 0.0, 1.6635928825686152E9, 0.0, 2022-09-19 18:08:02.568
36.0, -104357.36678330503, -23884.984717963307, -62469.527121725936, -21034.9137824671, -187500.02235174447, 187500.0, -46778.02136874454, -14416.875173673056, 0.652, -0.5680000000000001, 0.542, 192.0, 0.0, 0.0, 0.0, 0.0, 0.0, 0.0, 0.0, 0.0, 0.0, 1.6635928825716183E9, 0.0, 2022-09-19 18:08:02.571
37.0, -104688.19495298804, -23922.937980048417, -62357.38841979366, -20983.05773533079, -187500.02235174447, 187500.0, -46679.09254778535, -14445.86538623159, 0.652, -0.5680000000000001, 0.542, 192.0, 0.0, 0.0, 0.0, 0.0, 0.0, 0.0, 0.0, 0.0, 0.0, 1.663592882575572E9, 0.0, 2022-09-19 18:08:02.575
38.0, -104746.51065427193, -23890.371488377034, -62389.50787657594, -20956.280345473333, -187500.02235174447, 187500.0, -46615.16655864317, -14435.605935526602, 0.652, -0.5680000000000001, 0.542, 192.0, 0.0, 0.0, 0.0, 0.0, 0.0, 0.0, 0.0, 0.0, 0.0, 1.6635928825795927E9, 0.0, 2022-09-19 18:08:02.579
39.0, -104548.74241933136, -23842.516403498223, -62486.06741262286, -20972.01597356987, -187500.02235174447, 187500.0, -46599.29682007991, -14407.196868323908, 0.652, -0.5680000000000001, 0.542, 192.0, 0.0, 0.0, 0.0, 0.0, 0.0, 0.0, 0.0, 0.0, 0.0, 1.6635928825836663E9, 0.0, 2022-09-19 18:08:02.583
40.0, -104194.33315924802, -23810.19578101585, -62593.24402728606, -21021.72625323847, -187500.02235174447, 187500.0, -46688.748501390044, -14377.17847552043, 0.652, -0.5680000000000001, 0.542, 192.0, 0.0, 0.0, 0.0, 0.0, 0.0, 0.0, 0.0, 0.0, 0.0, 1.6635928825876014E9, 0.0, 2022-09-19 18:08:02.587
41.0, -104319.90525959793, -23878.21213939335, -62482.111153854275, -21023.44733756153, -187500.02235174447, 187500.0, -46785.643313603796, -14398.099708330597, 0.652, -0.5680000000000001, 0.542, 192.0, 0.0, 0.0, 0.0, 0.0, 0.0, 0.0, 0.0, 0.0, 0.0, 1.6635928825916417E9, 0.0, 2022-09-19 18:08:02.591
42.0, -104653.81797001576, -23922.245075970302, -62371.090039144765, -20980.599043440707, -187500.02235174447, 187500.0, -46689.08377755687, -14430.263868601784, 0.652, -0.5680000000000001, 0.542, 192.0, 0.0, 0.0, 0.0, 0.0, 0.0, 0.0, 0.0, 0.0, 0.0, 1.6635928825956044E9, 0.0, 2022-09-19 18:08:02.595
43.0, -104719.48739522546, -23896.16059019096, -62398.694443547065, -20960.370714708653, -187500.02235174447, 187500.0, -46619.45809357859, -14423.84891794311, 0.652, -0.5680000000000001, 0.542, 192.0, 0.0, 0.0, 0.0, 0.0, 0.0, 0.0, 0.0, 0.0, 0.0, 1.6635928825986803E9, 0.0, 2022-09-19 18:08:02.598
44.0, -104522.50147134085, -23828.837135891576, -62489.710746969075, -20969.490226446418, -187500.02235174447, 187500.0, -46595.87700317824, -14394.724594917847, 0.652, -0.5680000000000001, 0.542, 192.0, 0.0, 0.0, 0.0, 0.0, 0.0, 0.0, 0.0, 0.0, 0.0, 1.6635928826026697E9, 0.0, 2022-09-19 18:08:02.602
45.0, -104175.7365078612, -23792.89553080744, -62592.61817844131, -21019.602837515216, -187500.02235174447, 187500.0, -46686.84860311134, -14376.329109231128, 0.646, -0.5740000000000001, 0.546, 192.0, 20.0, 48.0, 238.0, 16.0, 17.0, 16.0, 0.0, 0.0, 0.0, 1.6635928826076066E9, 0.0, 2022-09-19 18:08:02.607
46.0, -104320.75462588723, -23875.887557969996, -62487.31911031236, -21032.119814410187, -187500.02235174447, 187500.0, -46793.39936892979, -14415.914048661478, 0.646, -0.5740000000000001, 0.546, 192.0, 0.0, 0.0, 0.0, 0.0, 0.0, 0.0, 0.0, 0.0, 0.0, 1.6635928826116908E9, 0.0, 2022-09-19 18:08:02.611
47.0, -104660.0094032299, -23913.77376482174, -62371.04533565585, -20982.409534741586, -187500.02235174447, 187500.0, -46696.45985322713, -14445.731275764856, 0.646, -0.5740000000000001, 0.546, 192.0, 0.0, 0.0, 0.0, 0.0, 0.0, 0.0, 0.0, 0.0, 0.0, 1.6635928826157036E9, 0.0, 2022-09-19 18:08:02.615
48.0, -104722.30371502684, -23868.466778810835, -62391.094850432266, -20945.193880223498, -187500.02235174447, 187500.0, -46620.307459867894, -14431.76143548029, 0.646, -0.5740000000000001, 0.546, 192.0, 0.0, 0.0, 0.0, 0.0, 0.0, 0.0, 0.0, 0.0, 0.0, 1.6635928826196983E9, 0.0, 2022-09-19 18:08:02.619
49.0, -104534.92904125799, -23815.13551654047, -62479.875979408745, -20947.317295946756, -187500.02235174447, 187500.0, -46606.382323072234, -14400.580751965137, 0.646, -0.5740000000000001, 0.546, 192.0, 0.0, 0.0, 0.0, 0.0, 0.0, 0.0, 0.0, 0.0, 0.0, 1.6635928826236832E9, 0.0, 2022-09-19 18:08:02.623
50.0, -104209.55469722209, -23800.606882644523, -62585.04093707096, -21001.87790416216, -187500.02235174447, 187500.0, -46695.52107996, -14386.409745980473, 0.646, -0.5740000000000001, 0.546, 192.0, 0.0, 0.0, 0.0, 0.0, 0.0, 0.0, 0.0, 0.0, 0.0, 1.6635928826266673E9, 0.0, 2022-09-19 18:08:02.626
51.0, -104363.58056826361, -23871.908947456952, -62459.06650532085, -21009.745718210426, -187500.02235174447, 187500.0, -46785.285685692514, -14420.13852836353, 0.646, -0.5740000000000001, 0.546, 192.0, 0.0, 0.0, 0.0, 0.0, 0.0, 0.0, 0.0, 0.0, 0.0, 1.663592882631726E9, 0.0, 2022-09-19 18:08:02.631
52.0, -104727.4222645071, -23907.15764846297, -62340.177576563074, -20964.103456032688, -187500.02235174447, 187500.0, -46685.95453333313, -14452.257985145807, 0.646, -0.5740000000000001, 0.546, 192.0, 0.0, 0.0, 0.0, 0.0, 0.0, 0.0, 0.0, 0.0, 0.0, 1.663592882635681E9, 0.0, 2022-09-19 18:08:02.635
53.0, -104822.8418615868, -23879.843816738587, -62364.026887896885, -20946.020894768346, -187500.02235174447, 187500.0, -46613.82545397586, -14452.235633401351, 0.646, -0.5740000000000001, 0.546, 192.0, 0.0, 0.0, 0.0, 0.0, 0.0, 0.0, 0.0, 0.0, 0.0, 1.6635928826397152E9, 0.0, 2022-09-19 18:08:02.639
54.0, -104657.59541482871, -23825.75259515674, -62456.07137156384, -20957.01795304036, -187500.02235174447, 187500.0, -46591.18313684263, -14426.307609833195, 0.646, -0.5740000000000001, 0.546, 192.0, 0.0, 0.0, 0.0, 0.0, 0.0, 0.0, 0.0, 0.0, 0.0, 1.663592882643748E9, 0.0, 2022-09-19 18:08:02.643
55.0, -104329.09182656907, -23794.28133896367, -62556.274241956984, -20999.77684018336, -187500.02235174447, 187500.0, -46672.252913982025, -14401.675987443447, 0.64, -0.5660000000000001, 0.548, 192.0, 20.0, 0.0, 238.0, 80.0, 17.0, 32.0, 0.0, 0.0, 0.0, 1.66359288264778E9, 0.0, 2022-09-19 18:08:02.647
56.0, -104481.41896503199, -23868.556185788657, -62445.051961547375, -21000.96148263949, -187500.02235174447, 187500.0, -46774.57920009842, -14428.766301723279, 0.64, -0.5660000000000001, 0.548, 192.0, 0.0, 0.0, 0.0, 0.0, 0.0, 0.0, 0.0, 0.0, 0.0, 1.6635928826506813E9, 0.0, 2022-09-19 18:08:02.650
57.0, -104836.63288791572, -23908.565808363655, -62328.55466944631, -20956.593269895708, -187500.02235174447, 187500.0, -46672.09645177084, -14456.81774101469, 0.64, -0.5660000000000001, 0.548, 192.0, 0.0, 0.0, 0.0, 0.0, 0.0, 0.0, 0.0, 0.0, 0.0, 1.6635928826547663E9, 0.0, 2022-09-19 18:08:02.654
58.0, -104918.12734819978, -23869.092627655584, -62346.748989432934, -20930.10645271617, -187500.02235174447, 187500.0, -46586.4445670181, -14443.518453063782, 0.64, -0.5660000000000001, 0.548, 192.0, 0.0, 0.0, 0.0, 0.0, 0.0, 0.0, 0.0, 0.0, 0.0, 1.663592882658729E9, 0.0, 2022-09-19 18:08:02.658
59.0, -104744.7225147155, -23815.00140607374, -62450.37167672774, -20945.61856336815, -187500.02235174447, 187500.0, -46575.51456397946, -14416.025807383754, 0.64, -0.5660000000000001, 0.548, 192.0, 0.0, 0.0, 0.0, 0.0, 0.0, 0.0, 0.0, 0.0, 0.0, 1.6635928826637826E9, 0.0, 2022-09-19 18:08:02.663
60.0, -104409.87103103055, -23793.61078663001, -62559.224672225086, -20998.72630819396, -187500.02235174447, 187500.0, -46654.97501551807, -14395.305740273685, 0.64, -0.5660000000000001, 0.548, 192.0, 0.0, 0.0, 0.0, 0.0, 0.0, 0.0, 0.0, 0.0, 0.0, 1.6635928826677604E9, 0.0, 2022-09-19 18:08:02.667
61.0, -104549.81530306522, -23876.602813792564, -62446.75069412598, -21005.92356990857, -187500.02235174447, 187500.0, -46752.56273180994, -14425.793519710724, 0.64, -0.5660000000000001, 0.548, 192.0, 0.0, 0.0, 0.0, 0.0, 0.0, 0.0, 0.0, 0.0, 0.0, 1.6635928826717615E9, 0.0, 2022-09-19 18:08:02.671
62.0, -104894.34509209932, -23908.766974063754, -62322.51969844338, -20954.022819283346, -187500.02235174447, 187500.0, -46650.63877709374, -14450.738066522845, 0.64, -0.5660000000000001, 0.548, 192.0, 0.0, 0.0, 0.0, 0.0, 0.0, 0.0, 0.0, 0.0, 0.0, 1.663592882675774E9, 0.0, 2022-09-19 18:08:02.675
63.0, -104967.94938659066, -23868.35502008856, -62352.426332524585, -20926.910153259058, -187500.02235174447, 187500.0, -46577.816793658356, -14440.880947218055, 0.64, -0.5660000000000001, 0.548, 192.0, 0.0, 0.0, 0.0, 0.0, 0.0, 0.0, 0.0, 0.0, 0.0, 1.663592882678848E9, 0.0, 2022-09-19 18:08:02.678
64.0, -104786.78849778039, -23817.19187703036, -62453.50092095148, -20940.94704877699, -187500.02235174447, 187500.0, -46571.78182265542, -14414.036502127232, 0.64, -0.5660000000000001, 0.548, 192.0, 0.0, 0.0, 0.0, 0.0, 0.0, 0.0, 0.0, 0.0, 0.0, 1.6635928826827557E9, 0.0, 2022-09-19 18:08:02.682
65.0, -104443.5998134136, -23785.050068503628, -62558.04002976895, -20987.081049332744, -187500.02235174447, 187500.0, -46659.0653847534, -14390.99185359381, 0.654, -0.5640000000000001, 0.546, 192.0, 20.0, 112.0, 238.0, 96.0, 17.0, 16.0, 0.0, 0.0, 0.0, 1.663592882688779E9, 0.0, 2022-09-19 18:08:02.688
66.0, -104583.27586451481, -23855.61452574903, -62443.75556036897, -20995.038270358833, -187500.02235174447, 187500.0, -46751.91453122074, -14421.926667919955, 0.654, -0.5640000000000001, 0.546, 192.0, 0.0, 0.0, 0.0, 0.0, 0.0, 0.0, 0.0, 0.0, 0.0, 1.6635928826917703E9, 0.0, 2022-09-19 18:08:02.691
67.0, -104930.73373207256, -23895.2888721572, -62329.18051829106, -20955.00629603938, -187500.02235174447, 187500.0, -46655.265588195994, -14454.29199389124, 0.654, -0.5640000000000001, 0.546, 192.0, 0.0, 0.0, 0.0, 0.0, 0.0, 0.0, 0.0, 0.0, 0.0, 1.6635928826958444E9, 0.0, 2022-09-19 18:08:02.695
68.0, -105003.44395678568, -23860.39779906247, -62357.90250991613, -20935.18029870752, -187500.02235174447, 187500.0, -46581.728348938035, -14447.675877532469, 0.654, -0.5640000000000001, 0.546, 192.0, 0.0, 0.0, 0.0, 0.0, 0.0, 0.0, 0.0, 0.0, 0.0, 1.6635928826998136E9, 0.0, 2022-09-19 18:08:02.699
69.0, -104821.94779180859, -23807.871199592497, -62457.41247623116, -20948.747807591895, -187500.02235174447, 187500.0, -46567.62439818674, -14417.411615539982, 0.654, -0.5640000000000001, 0.546, 192.0, 0.0, 0.0, 0.0, 0.0, 0.0, 0.0, 0.0, 0.0, 0.0, 1.6635928827037783E9, 0.0, 2022-09-19 18:08:02.703
70.0, -104466.89033113603, -23772.153111952917, -62566.846617084346, -20998.39103202713, -187500.02235174447, 187500.0, -46653.164524217194, -14390.187190793418, 0.654, -0.5640000000000001, 0.546, 192.0, 0.0, 0.0, 0.0, 0.0, 0.0, 0.0, 0.0, 0.0, 0.0, 1.6635928827067792E9, 0.0, 2022-09-19 18:08:02.706
71.0, -104589.19907679547, -23843.365769787524, -62451.31044999486, -21010.01393914389, -187500.02235174447, 187500.0, -46749.58994979739, -14417.47867077335, 0.654, -0.5640000000000001, 0.546, 192.0, 0.0, 0.0, 0.0, 0.0, 0.0, 0.0, 0.0, 0.0, 0.0, 1.6635928827108953E9, 0.0, 2022-09-19 18:08:02.710
72.0, -104925.43636863666, -23877.496883570777, -62328.59937293523, -20963.63406939913, -187500.02235174447, 187500.0, -46649.36472765979, -14441.216223384885, 0.654, -0.5640000000000001, 0.546, 192.0, 0.0, 0.0, 0.0, 0.0, 0.0, 0.0, 0.0, 0.0, 0.0, 1.6635928827148485E9, 0.0, 2022-09-19 18:08:02.714
73.0, -104994.16798283673, -23841.86820290902, -62348.67123945609, -20936.566106863753, -187500.02235174447, 187500.0, -46571.580656955324, -14431.292048846728, 0.654, -0.5640000000000001, 0.546, 192.0, 0.0, 0.0, 0.0, 0.0, 0.0, 0.0, 0.0, 0.0, 0.0, 1.66359288271883E9, 0.0, 2022-09-19 18:08:02.718
74.0, -104813.45412891557, -23794.70602210832, -62456.27253726394, -20956.39210419561, -187500.02235174447, 187500.0, -46568.47376447604, -14410.19200208092, 0.654, -0.5640000000000001, 0.546, 192.0, 0.0, 0.0, 0.0, 0.0, 0.0, 0.0, 0.0, 0.0, 0.0, 1.663592882723842E9, 0.0, 2022-09-19 18:08:02.723
75.0, -104462.48703747833, -23767.593356084035, -62574.40150671024, -21009.87982867716, -187500.02235174447, 187500.0, -46668.63193138027, -14389.114307059564, 0.648, -0.5640000000000001, 0.548, 192.0, 20.0, 64.0, 238.0, 96.0, 17.0, 32.0, 0.0, 0.0, 0.0, 1.6635928827278595E9, 0.0, 2022-09-19 18:08:02.727
76.0, -104585.2875215158, -23845.355075044048, -62456.89838610869, -21017.278256091864, -187500.02235174447, 187500.0, -46765.54909533848, -14418.171574851463, 0.648, -0.5640000000000001, 0.548, 192.0, 0.0, 0.0, 0.0, 0.0, 0.0, 0.0, 0.0, 0.0, 0.0, 1.663592882731932E9, 0.0, 2022-09-19 18:08:02.731
77.0, -104925.3693134033, -23885.43175285241, -62337.98710560645, -20970.496054946907, -187500.02235174447, 187500.0, -46666.039129023455, -14447.564118810193, 0.648, -0.5640000000000001, 0.548, 192.0, 0.0, 0.0, 0.0, 0.0, 0.0, 0.0, 0.0, 0.0, 0.0, 1.6635928827349424E9, 0.0, 2022-09-19 18:08:02.734
78.0, -104990.97168337963, -23850.317162313124, -62366.66439374261, -20945.171528479044, -187500.02235174447, 187500.0, -46594.379436299736, -14437.014095427287, 0.648, -0.5640000000000001, 0.548, 192.0, 0.0, 0.0, 0.0, 0.0, 0.0, 0.0, 0.0, 0.0, 0.0, 1.6635928827388873E9, 0.0, 2022-09-19 18:08:02.738
79.0, -104797.02559674092, -23798.394059943446, -62472.254034549485, -20961.398894953596, -187500.02235174447, 187500.0, -46582.19773557159, -14409.499098002803, 0.648, -0.5640000000000001, 0.548, 192.0, 0.0, 0.0, 0.0, 0.0, 0.0, 0.0, 0.0, 0.0, 0.0, 1.66359288274294E9, 0.0, 2022-09-19 18:08:02.742
80.0, -104430.97107779636, -23763.055951959606, -62584.9738818376, -21009.075165876766, -187500.02235174447, 187500.0, -46668.22959998007, -14381.09003080011, 0.648, -0.5640000000000001, 0.548, 192.0, 0.0, 0.0, 0.0, 0.0, 0.0, 0.0, 0.0, 0.0, 0.0, 1.6635928827469463E9, 0.0, 2022-09-19 18:08:02.746
81.0, -104538.46061688193, -23834.022740605207, -62476.3444037848, -21012.24911358942, -187500.02235174447, 187500.0, -46768.70069130668, -14402.212429310373, 0.648, -0.5640000000000001, 0.548, 192.0, 0.0, 0.0, 0.0, 0.0, 0.0, 0.0, 0.0, 0.0, 0.0, 1.6635928827519407E9, 0.0, 2022-09-19 18:08:02.751
82.0, -104870.38402204323, -23875.39581959198, -62358.95304190553, -20967.81384561227, -187500.02235174447, 187500.0, -46676.18682100616, -14431.113234891087, 0.648, -0.5640000000000001, 0.548, 192.0, 0.0, 0.0, 0.0, 0.0, 0.0, 0.0, 0.0, 0.0, 0.0, 1.6635928827559347E9, 0.0, 2022-09-19 18:08:02.755
83.0, -104927.40332214873, -23838.96247612983, -62379.91897820461, -20939.58359236522, -187500.02235174447, 187500.0, -46595.78759620042, -14419.08799637413, 0.648, -0.5640000000000001, 0.548, 192.0, 0.0, 0.0, 0.0, 0.0, 0.0, 0.0, 0.0, 0.0, 0.0, 1.663592882759962E9, 0.0, 2022-09-19 18:08:02.759
84.0, -104726.21527030651, -23787.821684816085, -62483.11698235476, -20950.021857025848, -187500.02235174447, 187500.0, -46590.89256416471, -14390.969501849355, 0.648, -0.5640000000000001, 0.548, 192.0, 0.0, 0.0, 0.0, 0.0, 0.0, 0.0, 0.0, 0.0, 0.0, 1.6635928827640605E9, 0.0, 2022-09-19 18:08:02.764
85.0, -104352.71762045832, -23761.334867636546, -62600.64245470077, -21004.180133841055, -187500.02235174447, 187500.0, -46691.00602758003, -14368.394239949494, 0.646, -0.562, 0.548, 192.0, 20.0, 48.0, 238.0, 112.0, 17.0, 32.0, 0.0, 0.0, 0.0, 1.6635928827679443E9, 0.0, 2022-09-19 18:08:02.767
86.0, -104445.76793262576, -23839.18599357438, -62496.32686332785, -21020.899238693626, -187500.02235174447, 187500.0, -46804.105854523885, -14396.46803098536, 0.646, -0.562, 0.548, 192.0, 0.0, 0.0, 0.0, 0.0, 0.0, 0.0, 0.0, 0.0, 0.0, 1.6635928827719083E9, 0.0, 2022-09-19 18:08:02.771
87.0, -104760.4804945565, -23887.510465086754, -62384.925768962596, -20985.2035027985, -187500.02235174447, 187500.0, -46713.44717901316, -14427.514604033782, 0.646, -0.562, 0.548, 192.0, 0.0, 0.0, 0.0, 0.0, 0.0, 0.0, 0.0, 0.0, 0.0, 1.6635928827749596E9, 0.0, 2022-09-19 18:08:02.774
88.0, -104798.36670140825, -23841.711740697832, -62411.92667626461, -20962.807054854282, -187500.02235174447, 187500.0, -46644.760268302, -14417.27750507325, 0.646, -0.562, 0.548, 192.0, 0.0, 0.0, 0.0, 0.0, 0.0, 0.0, 0.0, 0.0, 0.0, 1.6635928827790587E9, 0.0, 2022-09-19 18:08:02.779
89.0, -104584.2816930153, -23788.827513316573, -62513.001264691506, -20975.704011404992, -187500.02235174447, 187500.0, -46637.49595135402, -14387.303815758683, 0.646, -0.562, 0.548, 192.0, 0.0, 0.0, 0.0, 0.0, 0.0, 0.0, 0.0, 0.0, 0.0, 1.663592882783991E9, 0.0, 2022-09-19 18:08:02.783
90.0, -104189.68399640132, -23756.909222234397, -62629.4315015592, -21025.749567240426, -187500.02235174447, 187500.0, -46728.467551287125, -14354.714972342847, 0.646, -0.562, 0.548, 192.0, 0.0, 0.0, 0.0, 0.0, 0.0, 0.0, 0.0, 0.0, 0.0, 1.6635928827889965E9, 0.0, 2022-09-19 18:08:02.788
91.0, -104258.63912804594, -23823.115089311017, -62535.017732979984, -21042.379265115174, -187500.02235174447, 187500.0, -46839.3545555299, -14378.027841809731, 0.646, -0.562, 0.548, 192.0, 0.0, 0.0, 0.0, 0.0, 0.0, 0.0, 0.0, 0.0, 0.0, 1.6635928827929628E9, 0.0, 2022-09-19 18:08:02.792
92.0, -104554.75503858985, -23860.7330752293, -62429.7857200844, -21004.91774140808, -187500.02235174447, 187500.0, -46760.94463598068, -14406.772185179256, 0.646, -0.562, 0.548, 192.0, 0.0, 0.0, 0.0, 0.0, 0.0, 0.0, 0.0, 0.0, 0.0, 1.6635928827960851E9, 0.0, 2022-09-19 18:08:02.796
93.0, -104577.5314661898, -23823.606827689033, -62445.543699925394, -20980.375525996154, -187500.02235174447, 187500.0, -46678.73491987406, -14393.85287688409, 0.646, -0.562, 0.548, 192.0, 0.0, 0.0, 0.0, 0.0, 0.0, 0.0, 0.0, 0.0, 0.0, 1.663592882799022E9, 0.0, 2022-09-19 18:08:02.799
94.0, -104367.380364821, -23781.294975435136, -62536.73881730304, -20999.173343083068, -187500.02235174447, 187500.0, -46662.97694003308, -14371.32231847314, 0.646, -0.562, 0.548, 192.0, 0.0, 0.0, 0.0, 0.0, 0.0, 0.0, 0.0, 0.0, 0.0, 1.66359288280302E9, 0.0, 2022-09-19 18:08:02.803
95.0, -103988.45124107019, -23760.396094369426, -62644.429522088714, -21053.309268153822, -187500.02235174447, 187500.0, -46750.52872306451, -14350.088161240597, 0.644, -0.5640000000000001, 0.554, 192.0, 20.0, 32.0, 238.0, 96.0, 17.0, 80.0, 0.0, 0.0, 0.0, 1.6635928828069572E9, 0.0, 2022-09-19 18:08:02.806
96.0, -104078.57347471398, -23835.34149352807, -62530.413273622195, -21065.06628573731, -187500.02235174447, 187500.0, -46848.67523296776, -14384.599254679591, 0.644, -0.5640000000000001, 0.554, 192.0, 0.0, 0.0, 0.0, 0.0, 0.0, 0.0, 0.0, 0.0, 0.0, 1.6635928828120239E9, 0.0, 2022-09-19 18:08:02.812
97.0, -104402.51730710475, -23882.324860373123, -62410.56321985283, -21021.905067194115, -187500.02235174447, 187500.0, -46750.975757953616, -14421.367874308573, 0.644, -0.5640000000000001, 0.554, 192.0, 0.0, 0.0, 0.0, 0.0, 0.0, 0.0, 0.0, 0.0, 0.0, 1.6635928828160849E9, 0.0, 2022-09-19 18:08:02.816
98.0, -104472.97000562788, -23867.840929966085, -62443.33087722432, -21008.82929668776, -187500.02235174447, 187500.0, -46689.39670197925, -14427.626362756058, 0.644, -0.5640000000000001, 0.554, 192.0, 0.0, 0.0, 0.0, 0.0, 0.0, 0.0, 0.0, 0.0, 0.0, 1.6635928828189824E9, 0.0, 2022-09-19 18:08:02.818
99.0, -104283.78484055816, -23813.682653150878, -62526.211145664594, -21016.808869458302, -187500.02235174447, 187500.0, -46668.14019300225, -14405.274618300751, 0.644, -0.5640000000000001, 0.554, 192.0, 0.0, 0.0, 0.0, 0.0, 0.0, 0.0, 0.0, 0.0, 0.0, 1.663592882823026E9, 0.0, 2022-09-19 18:08:02.823
100.0, -103917.30563846894, -23782.613728358, -62637.522833052026, -21063.993402003456, -187500.02235174447, 187500.0, -46753.769726010534, -14388.17553379244, 0.644, -0.5640000000000001, 0.554, 192.0, 0.0, 0.0, 0.0, 0.0, 0.0, 0.0, 0.0, 0.0, 0.0, 1.6635928828270519E9, 0.0, 2022-09-19 18:08:02.827
101.0, -104016.79325303952, -23857.87205193902, -62532.13435794525, -21071.011849762424, -187500.02235174447, 187500.0, -46859.046442395025, -14419.222106840863, 0.644, -0.5640000000000001, 0.554, 192.0, 0.0, 0.0, 0.0, 0.0, 0.0, 0.0, 0.0, 0.0, 0.0, 1.6635928828310652E9, 0.0, 2022-09-19 18:08:02.831
102.0, -104344.9839168768, -23894.48420935681, -62400.48258310349, -21018.284084592353, -187500.02235174447, 187500.0, -46755.021423700025, -14448.391133355039, 0.644, -0.5640000000000001, 0.554, 192.0, 0.0, 0.0, 0.0, 0.0, 0.0, 0.0, 0.0, 0.0, 0.0, 1.6635928828350396E9, 0.0, 2022-09-19 18:08:02.835
103.0, -104409.46869963035, -23862.454159552355, -62418.02870250091, -20988.19863655551, -187500.02235174447, 187500.0, -46675.78448960597, -14441.439740829437, 0.644, -0.5640000000000001, 0.554, 192.0, 0.0, 0.0, 0.0, 0.0, 0.0, 0.0, 0.0, 0.0, 0.0, 1.6635928828400133E9, 0.0, 2022-09-19 18:08:02.840
104.0, -104225.11151136298, -23809.882856593475, -62518.589200805334, -21002.839029173738, -187500.02235174447, 187500.0, -46672.3646727043, -14418.685664973935, 0.644, -0.5640000000000001, 0.554, 192.0, 0.0, 0.0, 0.0, 0.0, 0.0, 0.0, 0.0, 0.0, 0.0, 1.663592882844096E9, 0.0, 2022-09-19 18:08:02.844
105.0, -103861.35922209731, -23778.07632423357, -62627.46454804714, -21049.621230318695, -187500.02235174447, 187500.0, -46751.735717265095, -14392.981158850333, 0.636, -0.562, 0.55, 192.0, 19.0, 224.0, 238.0, 112.0, 17.0, 48.0, 0.0, 0.0, 0.0, 1.6635928828471248E9, 0.0, 2022-09-19 18:08:02.847
106.0, -103961.29387155699, -23854.184014103892, -62522.88073574076, -21060.059494979323, -187500.02235174447, 187500.0, -46855.67132898228, -14419.356217307595, 0.636, -0.562, 0.55, 192.0, 0.0, 0.0, 0.0, 0.0, 0.0, 0.0, 0.0, 0.0, 0.0, 1.663592882852071E9, 0.0, 2022-09-19 18:08:02.852
107.0, -104293.82077381859, -23884.425924351923, -62402.15896393764, -21014.059604890303, -187500.02235174447, 187500.0, -46762.62101681483, -14449.53107232226, 0.636, -0.562, 0.55, 192.0, 0.0, 0.0, 0.0, 0.0, 0.0, 0.0, 0.0, 0.0, 0.0, 1.6635928828560543E9, 0.0, 2022-09-19 18:08:02.856
108.0, -104359.89253042848, -23846.71853145582, -62425.82946131581, -20990.702031934507, -187500.02235174447, 187500.0, -46694.49289971506, -14447.586470554646, 0.636, -0.562, 0.55, 192.0, 0.0, 0.0, 0.0, 0.0, 0.0, 0.0, 0.0, 0.0, 0.0, 1.6635928828590639E9, 0.0, 2022-09-19 18:08:02.859
109.0, -104170.81912408104, -23793.454324418824, -62508.12858440025, -21002.86138091819, -187500.02235174447, 187500.0, -46679.42782395218, -14421.949019664411, 0.636, -0.562, 0.55, 192.0, 0.0, 0.0, 0.0, 0.0, 0.0, 0.0, 0.0, 0.0, 0.0, 1.663592882863131E9, 0.0, 2022-09-19 18:08:02.863
110.0, -103806.5527446929, -23773.918899764885, -62634.81827197293, -21061.422951391098, -187500.02235174447, 187500.0, -46780.323598423434, -14404.291141544718, 0.636, -0.562, 0.55, 192.0, 0.0, 0.0, 0.0, 0.0, 0.0, 0.0, 0.0, 0.0, 0.0, 1.6635928828690956E9, 0.0, 2022-09-19 18:08:02.869
111.0, -103896.09383298086, -23840.48239475279, -62516.286971126436, -21066.0721142378, -187500.02235174447, 187500.0, -46873.12804140187, -14427.201679611408, 0.636, -0.562, 0.55, 192.0, 0.0, 0.0, 0.0, 0.0, 0.0, 0.0, 0.0, 0.0, 0.0, 1.6635928828730774E9, 0.0, 2022-09-19 18:08:02.873
112.0, -104226.65378173039, -23875.73109575881, -62390.98309170999, -21014.39488105713, -187500.02235174447, 187500.0, -46771.56171459696, -14452.012115956799, 0.636, -0.562, 0.55, 192.0, 0.0, 0.0, 0.0, 0.0, 0.0, 0.0, 0.0, 0.0, 0.0, 1.663592882876068E9, 0.0, 2022-09-19 18:08:02.876
113.0, -104285.50592488122, -23837.867240651518, -62413.46894663203, -20979.34734575121, -187500.02235174447, 187500.0, -46688.055597311926, -14443.786673997245, 0.636, -0.562, 0.55, 192.0, 0.0, 0.0, 0.0, 0.0, 0.0, 0.0, 0.0, 0.0, 0.0, 1.6635928828801491E9, 0.0, 2022-09-19 18:08:02.880
114.0, -104101.23814359166, -23795.04129827515, -62509.89437221222, -20989.606796456195, -187500.02235174447, 187500.0, -46678.15377451823, -14420.898487675011, 0.636, -0.562, 0.55, 192.0, 0.0, 0.0, 0.0, 0.0, 0.0, 0.0, 0.0, 0.0, 0.0, 1.6635928828831017E9, 0.0, 2022-09-19 18:08:02.883
115.0, -103736.25650838096, -23765.715809549787, -62620.379045054804, -21036.83603249026, -187500.02235174447, 187500.0, -46761.2352086586, -14393.94228386191, 0.638, -0.5640000000000001, 0.548, 192.0, 19.0, 240.0, 238.0, 96.0, 17.0, 32.0, 0.0, 0.0, 0.0, 1.6635928828871963E9, 0.0, 2022-09-19 18:08:02.887
116.0, -103830.91614614919, -23843.589287232076, -62516.912819971185, -21049.464768107508, -187500.02235174447, 187500.0, -46872.345730345936, -14423.491290031827, 0.638, -0.5640000000000001, 0.548, 192.0, 0.0, 0.0, 0.0, 0.0, 0.0, 0.0, 0.0, 0.0, 0.0, 1.6635928828911648E9, 0.0, 2022-09-19 18:08:02.891
117.0, -104167.1310862459, -23883.4871510848, -62396.392213868174, -21004.224837329966, -187500.02235174447, 187500.0, -46781.865868790854, -14455.43193285846, 0.638, -0.5640000000000001, 0.548, 192.0, 0.0, 0.0, 0.0, 0.0, 0.0, 0.0, 0.0, 0.0, 0.0, 1.6635928828951604E9, 0.0, 2022-09-19 18:08:02.895
118.0, -104236.84617720201, -23846.58442098909, -62422.99078976999, -20981.53781670783, -187500.02235174447, 187500.0, -46704.841757397866, -14452.43679910145, 0.638, -0.5640000000000001, 0.548, 192.0, 0.0, 0.0, 0.0, 0.0, 0.0, 0.0, 0.0, 0.0, 0.0, 1.663592882899161E9, 0.0, 2022-09-19 18:08:02.899
119.0, -104051.46080868969, -23788.42518191638, -62517.31515137138, -20990.277348789856, -187500.02235174447, 187500.0, -46688.23441126757, -14429.258040101295, 0.638, -0.5640000000000001, 0.548, 192.0, 0.0, 0.0, 0.0, 0.0, 0.0, 0.0, 0.0, 0.0, 0.0, 1.6635928829022171E9, 0.0, 2022-09-19 18:08:02.902
120.0, -103686.25565603444, -23757.60212631251, -62631.286696348994, -21037.39482610164, -187500.02235174447, 187500.0, -46771.91934250824, -14404.380548522538, 0.638, -0.5640000000000001, 0.548, 192.0, 0.0, 0.0, 0.0, 0.0, 0.0, 0.0, 0.0, 0.0, 0.0, 1.6635928829071689E9, 0.0, 2022-09-19 18:08:02.907
121.0, -103783.93277930413, -23830.245295792258, -62527.64165730974, -21048.30247739583, -187500.02235174447, 187500.0, -46873.79859373553, -14433.504871547804, 0.638, -0.5640000000000001, 0.548, 192.0, 0.0, 0.0, 0.0, 0.0, 0.0, 0.0, 0.0, 0.0, 0.0, 1.6635928829111564E9, 0.0, 2022-09-19 18:08:02.911
122.0, -104124.81923399202, -23871.6854300124, -62397.42039411311, -20996.53583723734, -187500.02235174447, 187500.0, -46775.585028598915, -14464.886720763056, 0.638, -0.5640000000000001, 0.548, 192.0, 0.0, 0.0, 0.0, 0.0, 0.0, 0.0, 0.0, 0.0, 0.0, 1.663592882915171E9, 0.0, 2022-09-19 18:08:02.915
123.0, -104206.51485997616, -23844.259839565737, -62414.40771989915, -20966.763313622872, -187500.02235174447, 187500.0, -46699.09735907285, -14462.785656784255, 0.638, -0.5640000000000001, 0.548, 192.0, 0.0, 0.0, 0.0, 0.0, 0.0, 0.0, 0.0, 0.0, 0.0, 1.663592882919214E9, 0.0, 2022-09-19 18:08:02.919
124.0, -104032.7076950917, -23789.60982437251, -62498.807906962385, -20967.0985897897, -187500.02235174447, 187500.0, -46681.70770188662, -14433.102540147609, 0.638, -0.5640000000000001, 0.548, 192.0, 0.0, 0.0, 0.0, 0.0, 0.0, 0.0, 0.0, 0.0, 0.0, 1.6635928829241903E9, 0.0, 2022-09-19 18:08:02.924
125.0, -103677.15849604113, -23754.294068133124, -62613.51705950702, -21012.852610689715, -187500.02235174447, 187500.0, -46764.744432538086, -14411.868382915067, 0.638, -0.5640000000000001, 0.548, 192.0, 0.0, 0.0, 0.0, 0.0, 0.0, 0.0, 0.0, 0.0, 0.0, 1.663592882927188E9, 0.0, 2022-09-19 18:08:02.927
126.0, -103780.31179670237, -23829.28417078068, -62510.699035012614, -21031.471613820984, -187500.02235174447, 187500.0, -46876.27963737007, -14450.58160431166, 0.642, -0.5640000000000001, 0.556, 192.0, 20.0, 16.0, 238.0, 96.0, 17.0, 96.0, 0.0, 0.0, 0.0, 1.6635928829302335E9, 0.0, 2022-09-19 18:08:02.930
127.0, -104135.12338818591, -23878.905043471463, -62382.24355962796, -20989.830313900748, -187500.02235174447, 187500.0, -46789.554868883475, -14489.518343152804, 0.642, -0.5640000000000001, 0.556, 192.0, 0.0, 0.0, 0.0, 0.0, 0.0, 0.0, 0.0, 0.0, 0.0, 1.663592882935174E9, 0.0, 2022-09-19 18:08:02.935
128.0, -104224.79858694061, -23852.060598380638, -62398.269760402414, -20964.595194410707, -187500.02235174447, 187500.0, -46703.67946668619, -14486.031471017775, 0.642, -0.5640000000000001, 0.556, 192.0, 0.0, 0.0, 0.0, 0.0, 0.0, 0.0, 0.0, 0.0, 0.0, 1.6635928829402833E9, 0.0, 2022-09-19 18:08:02.940
129.0, -104057.40637271482, -23804.876065835484, -62486.46974402306, -20969.803150868793, -187500.02235174447, 187500.0, -46688.5696874344, -14457.220072414884, 0.642, -0.5640000000000001, 0.556, 192.0, 0.0, 0.0, 0.0, 0.0, 0.0, 0.0, 0.0, 0.0, 0.0, 1.6635928829442415E9, 0.0, 2022-09-19 18:08:02.944
130.0, -103703.06416786482, -23766.609879328, -62598.69785293315, -21015.82539270227, -187500.02235174447, 187500.0, -46772.567543097444, -14431.604973269103, 0.642, -0.5640000000000001, 0.556, 192.0, 0.0, 0.0, 0.0, 0.0, 0.0, 0.0, 0.0, 0.0, 0.0, 1.6635928829472256E9, 0.0, 2022-09-19 18:08:02.947
131.0, -103801.54595393491, -23826.132574812484, -62491.32007256986, -21019.78165147086, -187500.02235174447, 187500.0, -46863.740308730645, -14458.091790448641, 0.642, -0.5640000000000001, 0.556, 192.0, 0.0, 0.0, 0.0, 0.0, 0.0, 0.0, 0.0, 0.0, 0.0, 1.6635928829532158E9, 0.0, 2022-09-19 18:08:02.953
132.0, -104159.4867896422, -23873.942956202383, -62372.11821938971, -20970.496054946907, -187500.02235174447, 187500.0, -46775.67443557673, -14492.15584899853, 0.642, -0.5640000000000001, 0.556, 192.0, 0.0, 0.0, 0.0, 0.0, 0.0, 0.0, 0.0, 0.0, 0.0, 1.6635928829562483E9, 0.0, 2022-09-19 18:08:02.956
133.0, -104252.53710180963, -23849.400740790457, -62394.29114988937, -20944.65743835657, -187500.02235174447, 187500.0, -46695.29756251545, -14489.026604774786, 0.642, -0.5640000000000001, 0.556, 192.0, 0.0, 0.0, 0.0, 0.0, 0.0, 0.0, 0.0, 0.0, 0.0, 1.6635928829604337E9, 0.0, 2022-09-19 18:08:02.960
134.0, -104089.07879460798, -23792.672013362888, -62491.543590014415, -20959.90132807509, -187500.02235174447, 187500.0, -46683.361730976314, -14466.205473685917, 0.642, -0.5640000000000001, 0.556, 192.0, 0.0, 0.0, 0.0, 0.0, 0.0, 0.0, 0.0, 0.0, 0.0, 1.66359288296329E9, 0.0, 2022-09-19 18:08:02.963
135.0, -103739.34104911578, -23758.876175746464, -62596.66384418772, -21008.87400017667, -187500.02235174447, 187500.0, -46753.769726010534, -14441.171519895974, 0.642, -0.5640000000000001, 0.556, 192.0, 0.0, 0.0, 0.0, 0.0, 0.0, 0.0, 0.0, 0.0, 0.0, 1.66359288296726E9, 0.0, 2022-09-19 18:08:02.967
136.0, -103843.76839921098, -23822.690406166366, -62490.202485347094, -21021.838011960746, -187500.02235174447, 187500.0, -46854.37492780387, -14469.647642332035, 0.65, -0.5680000000000001, 0.556, 192.0, 20.0, 80.0, 238.0, 64.0, 17.0, 96.0, 0.0, 0.0, 0.0, 1.6635928829713616E9, 0.0, 2022-09-19 18:08:02.971
137.0, -104201.91040061836, -23860.509557784746, -62362.23874834046, -20973.24531951491, -187500.02235174447, 187500.0, -46763.0904034484, -14503.555238670737, 0.65, -0.5680000000000001, 0.556, 192.0, 0.0, 0.0, 0.0, 0.0, 0.0, 0.0, 0.0, 0.0, 0.0, 1.6635928829752827E9, 0.0, 2022-09-19 18:08:02.975
138.0, -104292.34555868454, -23817.035414819173, -62375.850960713746, -20941.61760111065, -187500.02235174447, 187500.0, -46680.09837628584, -14498.7719653573, 0.65, -0.5680000000000001, 0.556, 192.0, 0.0, 0.0, 0.0, 0.0, 0.0, 0.0, 0.0, 0.0, 0.0, 1.6635928829803703E9, 0.0, 2022-09-19 18:08:02.980
139.0, -104129.11076892744, -23757.266850145683, -62455.44552271909, -20944.568031378752, -187500.02235174447, 187500.0, -46660.026509764975, -14468.194778942441, 0.65, -0.5680000000000001, 0.556, 192.0, 0.0, 0.0, 0.0, 0.0, 0.0, 0.0, 0.0, 0.0, 0.0, 1.6635928829833498E9, 0.0, 2022-09-19 18:08:02.983
140.0, -103780.26709321346, -23723.336902062525, -62572.23338749807, -20993.048965102313, -187500.02235174447, 187500.0, -46743.59968228337, -14442.825548985667, 0.65, -0.5680000000000001, 0.556, 192.0, 0.0, 0.0, 0.0, 0.0, 0.0, 0.0, 0.0, 0.0, 0.0, 1.6635928829863603E9, 0.0, 2022-09-19 18:08:02.986
141.0, -103886.72845205409, -23802.32796696758, -62479.36188928627, -21011.82443044477, -187500.02235174447, 187500.0, -46856.99008190514, -14478.275415691784, 0.65, -0.5680000000000001, 0.556, 192.0, 0.0, 0.0, 0.0, 0.0, 0.0, 0.0, 0.0, 0.0, 0.0, 1.6635928829913397E9, 0.0, 2022-09-19 18:08:02.991
142.0, -104245.2057296283, -23846.472662266813, -62344.804387665325, -20960.05779028628, -187500.02235174447, 187500.0, -46760.05056620247, -14504.851639849145, 0.65, -0.5680000000000001, 0.556, 192.0, 0.0, 0.0, 0.0, 0.0, 0.0, 0.0, 0.0, 0.0, 0.0, 1.6635928829954083E9, 0.0, 2022-09-19 18:08:02.995
143.0, -104339.93242262989, -23820.27641776519, -62360.96469890651, -20929.815880038248, -187500.02235174447, 187500.0, -46678.42199545169, -14496.983825800877, 0.65, -0.5680000000000001, 0.556, 192.0, 0.0, 0.0, 0.0, 0.0, 0.0, 0.0, 0.0, 0.0, 0.0, 1.6635928829993668E9, 0.0, 2022-09-19 18:08:02.999
144.0, -104186.64415915539, -23769.984992740752, -62455.22200527454, -20942.176394722035, -187500.02235174447, 187500.0, -46676.52209717299, -14474.63208134557, 0.65, -0.5680000000000001, 0.556, 192.0, 0.0, 0.0, 0.0, 0.0, 0.0, 0.0, 0.0, 0.0, 0.0, 1.6635928830033367E9, 0.0, 2022-09-19 18:08:03.003
