%OpenBCI Raw EEG Data
%Number of channels = 8
%Sample Rate = 250 Hz
%Board = OpenBCI_GUI$BoardCytonSerial
Sample Index, EXG Channel 0, EXG Channel 1, EXG Channel 2, EXG Channel 3, EXG Channel 4, EXG Channel 5, EXG Channel 6, EXG Channel 7, Accel Channel 0, Accel Channel 1, Accel Channel 2, Other, Other, Other, Other, Other, Other, Other, Analog Channel 0, Analog Channel 1, Analog Channel 2, Timestamp, Other, Timestamp (Formatted)
56.0, -19756.505758345815, -27189.53367346927, -33251.81850812656, -16242.230384615706, -13304.652369576976, 187500.0, -47241.5518452587, -9113.454415017894, 0.0, 0.0, 0.0, 192.0, 0.0, 0.0, 0.0, 0.0, 0.0, 0.0, 0.0, 0.0, 0.0, 1.6635893245528717E9, 0.0, 2022-09-19 17:08:44.552
57.0, -19748.81675825319, -27174.602708173123, -33271.264525802675, -16259.463579590749, -13313.660122592464, 187500.0, -47255.02994716525, -9120.606973243592, 0.0, 0.0, 0.0, 192.0, 0.0, 0.0, 0.0, 0.0, 0.0, 0.0, 0.0, 0.0, 0.0, 1.663589324552904E9, 0.0, 2022-09-19 17:08:44.552
58.0, -19724.207487607895, -27152.206260228904, -33276.025447371656, -16265.65501280487, -13317.325808683136, 187500.0, -47255.87931345455, -9123.646810489514, 0.0, 0.0, 0.0, 192.0, 0.0, 0.0, 0.0, 0.0, 0.0, 0.0, 0.0, 0.0, 0.0, 1.663589324552928E9, 0.0, 2022-09-19 17:08:44.552
0.0, -27137.99055075533, -33272.29270604762, -16261.810512758555, -13318.10811973907, 187500.0, -47252.75006923081, -9121.18811859943, 0.0, 0.586, -0.682, 0.47000000000000003, 192.0, 18.0, 80.0, 234.0, 176.0, 14.0, 176.0, 0.0, 0.0, 0.0, 1.6635893246455772E9, 0.0, 2022-09-19 17:08:44.645
1.0, -17248.103588593436, -24504.66448124224, -34031.9837965946, -16782.5614550783, -15041.181748054238, 187500.0, -46863.539143030546, -9976.522323670664, 0.586, -0.682, 0.47000000000000003, 192.0, 0.0, 0.0, 0.0, 0.0, 0.0, 0.0, 0.0, 0.0, 0.0, 1.6635893246625972E9, 0.0, 2022-09-19 17:08:44.662
2.0, -17293.276464137612, -24520.914199461247, -34029.18982853768, -16774.80539975231, -15049.563652224977, 187500.0, -46855.87249468237, -9981.864390595483, 0.586, -0.682, 0.47000000000000003, 192.0, 0.0, 0.0, 0.0, 0.0, 0.0, 0.0, 0.0, 0.0, 0.0, 1.6635893246686394E9, 0.0, 2022-09-19 17:08:44.668
3.0, -17333.129624501424, -24533.185307167212, -34020.49499994457, -16752.99009716393, -15051.664716203775, 187500.0, -46849.72576495716, -9970.263835223179, 0.586, -0.682, 0.47000000000000003, 192.0, 0.0, 0.0, 0.0, 0.0, 0.0, 0.0, 0.0, 0.0, 0.0, 1.6635893246716323E9, 0.0, 2022-09-19 17:08:44.671
4.0, -17350.34046773201, -24532.157126922266, -34020.36088947784, -16751.470178540967, -15048.379009768845, 187500.0, -46848.96580564568, -9972.253140479701, 0.586, -0.682, 0.47000000000000003, 192.0, 0.0, 0.0, 0.0, 0.0, 0.0, 0.0, 0.0, 0.0, 0.0, 1.6635893246746073E9, 0.0, 2022-09-19 17:08:44.674
5.0, -17384.851561171003, -24545.881098017824, -34023.73600289059, -16759.047419911316, -15058.414943029278, 187500.0, -46850.731593457655, -9985.485373197243, 0.586, -0.682, 0.47000000000000003, 192.0, 0.0, 0.0, 0.0, 0.0, 0.0, 0.0, 0.0, 0.0, 0.0, 1.6635893246786203E9, 0.0, 2022-09-19 17:08:44.678
6.0, -17457.74059983976, -24579.207549000686, -34022.39489822327, -16763.562472291287, -15072.250672847114, 187500.0, -46851.80447719151, -10018.588306735553, 0.586, -0.682, 0.47000000000000003, 192.0, 0.0, 0.0, 0.0, 0.0, 0.0, 0.0, 0.0, 0.0, 0.0, 1.663589324681682E9, 0.0, 2022-09-19 17:08:44.681
7.0, -17515.050472623167, -24597.49127596513, -34027.200523281164, -16769.955071205506, -15066.975661155662, 187500.0, -46857.41476504979, -10029.495958029742, 0.586, -0.682, 0.47000000000000003, 192.0, 0.0, 0.0, 0.0, 0.0, 0.0, 0.0, 0.0, 0.0, 0.0, 1.6635893246847951E9, 0.0, 2022-09-19 17:08:44.684
8.0, -17530.160251874953, -24583.499083936105, -34021.14320053378, -16772.95020496252, -15053.698724949209, 187500.0, -46840.85212240841, -10014.855565411517, 0.594, -0.6880000000000001, 0.45, 192.0, 18.0, 144.0, 234.0, 128.0, 14.0, 16.0, 0.0, 0.0, 0.0, 1.6635893246876123E9, 0.0, 2022-09-19 17:08:44.687
9.0, -17501.773536416717, -24540.941362493202, -34020.629110411304, -16762.064905412783, -15036.331419507434, 187500.0, -46838.88516889634, -9969.190951489325, 0.594, -0.6880000000000001, 0.45, 192.0, 0.0, 0.0, 0.0, 0.0, 0.0, 0.0, 0.0, 0.0, 0.0, 1.6635893246926453E9, 0.0, 2022-09-19 17:08:44.692
10.0, -17470.525797668197, -24500.84233294038, -34032.34142450588, -16755.85112045421, -15036.331419507434, 187500.0, -46866.109593642905, -9925.4932910792, 0.594, -0.6880000000000001, 0.45, 192.0, 0.0, 0.0, 0.0, 0.0, 0.0, 0.0, 0.0, 0.0, 0.0, 1.663589324696674E9, 0.0, 2022-09-19 17:08:44.696
11.0, -17476.292547737667, -24493.399202036766, -34028.58633143739, -16754.666477998075, -15046.5014632346, 187500.0, -46865.37198607588, -9925.761512012663, 0.594, -0.6880000000000001, 0.45, 192.0, 0.0, 0.0, 0.0, 0.0, 0.0, 0.0, 0.0, 0.0, 0.0, 1.6635893247006466E9, 0.0, 2022-09-19 17:08:44.700
12.0, -17513.03881562219, -24512.532295290508, -34027.35698549235, -16760.79085597883, -15056.537396495032, 187500.0, -46860.588712762445, -9960.049088007103, 0.594, -0.6880000000000001, 0.45, 192.0, 0.0, 0.0, 0.0, 0.0, 0.0, 0.0, 0.0, 0.0, 0.0, 1.6635893247036192E9, 0.0, 2022-09-19 17:08:44.703
13.0, -17554.1436736755, -24539.756720037072, -34032.989625095084, -16767.74224850443, -15065.388687299335, 187500.0, -46858.88998018384, -9995.834230880051, 0.594, -0.6880000000000001, 0.45, 192.0, 0.0, 0.0, 0.0, 0.0, 0.0, 0.0, 0.0, 0.0, 0.0, 1.6635893247076576E9, 0.0, 2022-09-19 17:08:44.707
14.0, -17575.042554741212, -24553.592449854907, -34038.68931993119, -16778.739306776442, -15073.770591470075, 187500.0, -46858.88998018384, -10017.35896079051, 0.594, -0.6880000000000001, 0.45, 192.0, 0.0, 0.0, 0.0, 0.0, 0.0, 0.0, 0.0, 0.0, 0.0, 1.663589324711716E9, 0.0, 2022-09-19 17:08:44.711
15.0, -17598.355424208097, -24564.76832208256, -34037.124697819316, -16786.741231291442, -15076.564559526989, 187500.0, -46865.2602273536, -10032.2675743422, 0.594, -0.6880000000000001, 0.45, 192.0, 0.0, 0.0, 0.0, 0.0, 0.0, 0.0, 0.0, 0.0, 0.0, 1.6635893247156916E9, 0.0, 2022-09-19 17:08:44.715
16.0, -17637.225107815877, -24578.53699666703, -34017.54456967647, -16765.238853125436, -15061.208911086193, 187500.0, -46852.98911964764, -10024.712684716307, 0.594, -0.6880000000000001, 0.45, 192.0, 0.0, 0.0, 0.0, 0.0, 0.0, 0.0, 0.0, 0.0, 0.0, 1.6635893247196996E9, 0.0, 2022-09-19 17:08:44.719
17.0, -17678.151151913542, -24592.86446486288, -34002.05481076894, -16746.016352893872, -15050.077742347448, 187500.0, -46848.22819807866, -10010.69814094283, 0.594, -0.6880000000000001, 0.45, 192.0, 0.0, 0.0, 0.0, 0.0, 0.0, 0.0, 0.0, 0.0, 0.0, 1.663589324724661E9, 0.0, 2022-09-19 17:08:44.724
18.0, -17691.338681142173, -24586.225996759655, -34002.12186600231, -16750.062018640285, -15047.306126034991, 187500.0, -46839.37690727436, -10013.939143888849, 0.594, -0.704, 0.446, 192.0, 18.0, 144.0, 234.0, 0.0, 13.0, 240.0, 0.0, 0.0, 0.0, 1.6635893247287157E9, 0.0, 2022-09-19 17:08:44.728
19.0, -17686.64481480656, -24567.517586650563, -34009.76616260602, -16757.102818143703, -15046.076780089948, 187500.0, -46833.252529293604, -10021.784606192661, 0.594, -0.704, 0.446, 192.0, 0.0, 0.0, 0.0, 0.0, 0.0, 0.0, 0.0, 0.0, 0.0, 1.66358932473171E9, 0.0, 2022-09-19 17:08:44.731
20.0, -17704.45915513744, -24573.53020590904, -34001.92070030221, -16756.476969298958, -15048.222547557658, 187500.0, -46835.979442117154, -10025.69616147234, 0.594, -0.704, 0.446, 192.0, 0.0, 0.0, 0.0, 0.0, 0.0, 0.0, 0.0, 0.0, 0.0, 1.6635893247357247E9, 0.0, 2022-09-19 17:08:44.735
21.0, -17758.550376719282, -24604.733241168648, -34006.45810442664, -16756.678134999052, -15047.954326624194, 187500.0, -46845.501285255115, -10031.082931886069, 0.594, -0.704, 0.446, 192.0, 0.0, 0.0, 0.0, 0.0, 0.0, 0.0, 0.0, 0.0, 0.0, 1.663589324739706E9, 0.0, 2022-09-19 17:08:44.739
22.0, -17798.247074871906, -24621.720566954682, -34019.73504063309, -16762.310774601792, -15048.960155124683, 187500.0, -46857.571227260974, -10032.2675743422, 0.594, -0.704, 0.446, 192.0, 0.0, 0.0, 0.0, 0.0, 0.0, 0.0, 0.0, 0.0, 0.0, 1.6635893247437608E9, 0.0, 2022-09-19 17:08:44.743
23.0, -17813.267447145874, -24621.11706985439, -34017.29870048746, -16771.31852761728, -15044.869785889363, 187500.0, -46839.689831696734, -10036.737923233262, 0.594, -0.704, 0.446, 192.0, 0.0, 0.0, 0.0, 0.0, 0.0, 0.0, 0.0, 0.0, 0.0, 1.6635893247477398E9, 0.0, 2022-09-19 17:08:44.747
24.0, -17817.11194719219, -24616.199686074222, -34018.05865979894, -16778.64989979862, -15040.622954442855, 187500.0, -46839.28750029654, -10045.924490204394, 0.594, -0.704, 0.446, 192.0, 0.0, 0.0, 0.0, 0.0, 0.0, 0.0, 0.0, 0.0, 0.0, 1.6635893247526932E9, 0.0, 2022-09-19 17:08:44.752
25.0, -17824.376264140163, -24614.210380817698, -34010.906101573244, -16790.831600526762, -15040.712361420676, 187500.0, -46833.78897116053, -10062.08480144558, 0.594, -0.704, 0.446, 192.0, 0.0, 0.0, 0.0, 0.0, 0.0, 0.0, 0.0, 0.0, 0.0, 1.6635893247567632E9, 0.0, 2022-09-19 17:08:44.756
26.0, -17863.96120357051, -24635.89157293935, -34002.34538344686, -16766.445847326024, -15044.087474833426, 187500.0, -46833.40899150479, -10072.120734706014, 0.594, -0.704, 0.446, 192.0, 0.0, 0.0, 0.0, 0.0, 0.0, 0.0, 0.0, 0.0, 0.0, 1.6635893247597468E9, 0.0, 2022-09-19 17:08:44.759
27.0, -17908.575285503302, -24660.992581962655, -33992.55531937544, -16750.374943062656, -15032.196346783203, 187500.0, -46826.52465421255, -10069.147952693458, 0.594, -0.704, 0.446, 192.0, 0.0, 0.0, 0.0, 0.0, 0.0, 0.0, 0.0, 0.0, 0.0, 1.6635893247637448E9, 0.0, 2022-09-19 17:08:44.763
28.0, -17928.982428191, -24668.59217507746, -34008.13448526079, -16763.987155435938, -15024.082663545927, 187500.0, -46833.185474060236, -10076.814601041628, 0.594, -0.7020000000000001, 0.438, 192.0, 18.0, 144.0, 234.0, 16.0, 13.0, 176.0, 0.0, 0.0, 0.0, 1.6635893247677076E9, 0.0, 2022-09-19 17:08:44.767
29.0, -17924.869707211223, -24661.327858129487, -34012.00133705155, -16763.338954846735, -15014.40435819678, 187500.0, -46831.3526310149, -10066.89042650347, 0.594, -0.7020000000000001, 0.438, 192.0, 0.0, 0.0, 0.0, 0.0, 0.0, 0.0, 0.0, 0.0, 0.0, 1.6635893247718556E9, 0.0, 2022-09-19 17:08:44.771
30.0, -17941.924088230622, -24672.347268145953, -34015.42115395322, -16762.64605076862, -15027.725997892143, 187500.0, -46834.41482000528, -10075.406441140944, 0.594, -0.7020000000000001, 0.438, 192.0, 0.0, 0.0, 0.0, 0.0, 0.0, 0.0, 0.0, 0.0, 0.0, 1.6635893247757983E9, 0.0, 2022-09-19 17:08:44.775
31.0, -17988.482771931027, -24695.906006801848, -34002.30067995795, -16750.26318434038, -15036.040846829517, 187500.0, -46826.748171657106, -10084.19067671188, 0.594, -0.7020000000000001, 0.438, 192.0, 0.0, 0.0, 0.0, 0.0, 0.0, 0.0, 0.0, 0.0, 0.0, 1.6635893247798371E9, 0.0, 2022-09-19 17:08:44.779
32.0, -18021.697464191613, -24705.159629006343, -33980.6194878363, -16735.48868125542, -15026.16137578027, 187500.0, -46807.816244103466, -10088.638673858486, 0.594, -0.7020000000000001, 0.438, 192.0, 0.0, 0.0, 0.0, 0.0, 0.0, 0.0, 0.0, 0.0, 0.0, 1.6635893247848885E9, 0.0, 2022-09-19 17:08:44.784
33.0, -18058.42138033168, -24719.062414057546, -33983.9722495046, -16749.212652350983, -15029.02239907055, 187500.0, -46819.14857854231, -10116.600706172074, 0.594, -0.7020000000000001, 0.438, 192.0, 0.0, 0.0, 0.0, 0.0, 0.0, 0.0, 0.0, 0.0, 0.0, 1.6635893247879016E9, 0.0, 2022-09-19 17:08:44.787
34.0, -18096.91108428372, -24737.636713699903, -33995.01401126552, -16762.82486472426, -15043.103998077393, 187500.0, -46827.44107573522, -10142.48402625132, 0.594, -0.7020000000000001, 0.438, 192.0, 0.0, 0.0, 0.0, 0.0, 0.0, 0.0, 0.0, 0.0, 0.0, 1.6635893247918115E9, 0.0, 2022-09-19 17:08:44.791
35.0, -18160.658259470256, -24773.265394361664, -33982.25116518154, -16738.863794668174, -15040.69000967622, 187500.0, -46811.794854616506, -10140.628831461529, 0.594, -0.7020000000000001, 0.438, 192.0, 0.0, 0.0, 0.0, 0.0, 0.0, 0.0, 0.0, 0.0, 0.0, 1.6635893247958047E9, 0.0, 2022-09-19 17:08:44.795
36.0, -18257.95540308421, -24826.10491825401, -33973.84690926634, -16734.16992833256, -15036.711399163176, 187500.0, -46805.49166268011, -10167.093296896614, 0.594, -0.7020000000000001, 0.438, 192.0, 0.0, 0.0, 0.0, 0.0, 0.0, 0.0, 0.0, 0.0, 0.0, 1.6635893247998972E9, 0.0, 2022-09-19 17:08:44.799
37.0, -18340.321581402015, -24860.146625059442, -33969.309505141915, -16731.84534690921, -15031.078759560438, 187500.0, -46801.82597658944, -10177.576265046151, 0.594, -0.7020000000000001, 0.438, 192.0, 0.0, 0.0, 0.0, 0.0, 0.0, 0.0, 0.0, 0.0, 0.0, 1.6635893248038406E9, 0.0, 2022-09-19 17:08:44.803
38.0, -18410.50605899168, -24885.292337571664, -33975.59034533386, -16746.128111616148, -15033.78332063953, 187500.0, -46802.697694623195, -10197.379910633554, 0.594, -0.7000000000000001, 0.438, 192.0, 18.0, 144.0, 234.0, 32.0, 13.0, 176.0, 0.0, 0.0, 0.0, 1.663589324807835E9, 0.0, 2022-09-19 17:08:44.807
39.0, -18461.378629371957, -24893.16015161993, -33973.60104007734, -16749.994963406916, -15026.83192811393, 187500.0, -46794.941639297205, -10191.546105330719, 0.594, -0.7000000000000001, 0.438, 192.0, 0.0, 0.0, 0.0, 0.0, 0.0, 0.0, 0.0, 0.0, 0.0, 1.663589324811892E9, 0.0, 2022-09-19 17:08:44.811
40.0, -18517.056824810126, -24902.346718591063, -33973.55633658842, -16749.659687240088, -15029.514137448567, 187500.0, -46793.958162541174, -10189.713262285384, 0.594, -0.7000000000000001, 0.438, 192.0, 0.0, 0.0, 0.0, 0.0, 0.0, 0.0, 0.0, 0.0, 0.0, 1.6635893248148646E9, 0.0, 2022-09-19 17:08:44.814
41.0, -18588.828276256118, -24918.30586413215, -33967.78958651896, -16750.911384929586, -15035.504404962589, 187500.0, -46791.79004332901, -10205.605352593107, 0.594, -0.7000000000000001, 0.438, 192.0, 0.0, 0.0, 0.0, 0.0, 0.0, 0.0, 0.0, 0.0, 0.0, 1.6635893248198593E9, 0.0, 2022-09-19 17:08:44.819
42.0, -18643.321829238157, -24918.88700948799, -33960.05588293742, -16746.575146505256, -15028.396550225802, 187500.0, -46792.21472647366, -10200.889134513038, 0.594, -0.7000000000000001, 0.438, 192.0, 0.0, 0.0, 0.0, 0.0, 0.0, 0.0, 0.0, 0.0, 0.0, 1.663589324823836E9, 0.0, 2022-09-19 17:08:44.823
43.0, -18690.394603061035, -24918.84230599908, -33963.47569983908, -16754.107684386694, -15019.433500699222, 187500.0, -46801.15542425578, -10185.511134327786, 0.594, -0.7000000000000001, 0.438, 192.0, 0.0, 0.0, 0.0, 0.0, 0.0, 0.0, 0.0, 0.0, 0.0, 1.6635893248279853E9, 0.0, 2022-09-19 17:08:44.827
44.0, -18732.03590298127, -24920.652797299957, -33978.02668547949, -16765.46237056999, -15027.435425214224, 187500.0, -46810.76667437157, -10184.035919193735, 0.594, -0.7000000000000001, 0.438, 192.0, 0.0, 0.0, 0.0, 0.0, 0.0, 0.0, 0.0, 0.0, 0.0, 1.6635893248318608E9, 0.0, 2022-09-19 17:08:44.831
45.0, -18773.744258134873, -24918.864657743536, -33977.490243612556, -16762.668402513078, -15032.330457249935, 187500.0, -46809.73849412662, -10193.289541398233, 0.594, -0.7000000000000001, 0.438, 192.0, 0.0, 0.0, 0.0, 0.0, 0.0, 0.0, 0.0, 0.0, 0.0, 1.663589324835904E9, 0.0, 2022-09-19 17:08:44.835
46.0, -18838.363151355166, -24933.147422450475, -33977.37848489028, -16769.910367716595, -15034.990314840117, 187500.0, -46808.93383132623, -10213.093186985634, 0.594, -0.7000000000000001, 0.438, 192.0, 0.0, 0.0, 0.0, 0.0, 0.0, 0.0, 0.0, 0.0, 0.0, 1.663589324840999E9, 0.0, 2022-09-19 17:08:44.840
47.0, -18884.586558888743, -24932.8344980281, -33975.03155172247, -16763.137789146636, -15022.87566934534, 187500.0, -46791.56652588445, -10199.056291467703, 0.594, -0.7000000000000001, 0.438, 192.0, 0.0, 0.0, 0.0, 0.0, 0.0, 0.0, 0.0, 0.0, 0.0, 1.663589324843949E9, 0.0, 2022-09-19 17:08:44.843
48.0, -18902.624416664174, -24914.79664025267, -33974.58451683337, -16769.999774694417, -15015.097262274894, 187500.0, -46786.44797640419, -10192.998968720314, 0.594, -0.7020000000000001, 0.432, 192.0, 18.0, 144.0, 234.0, 16.0, 13.0, 128.0, 0.0, 0.0, 0.0, 1.6635893248478682E9, 0.0, 2022-09-19 17:08:44.847
49.0, -18905.50779169891, -24893.40602080894, -33985.045133238455, -16780.616853310687, -15020.461680944167, 187500.0, -46794.8969358083, -10192.283712897744, 0.594, -0.7020000000000001, 0.432, 192.0, 0.0, 0.0, 0.0, 0.0, 0.0, 0.0, 0.0, 0.0, 0.0, 1.663589324851942E9, 0.0, 2022-09-19 17:08:44.851
50.0, -18937.247268825446, -24898.88219820049, -33963.498051583534, -16769.440981083033, -15022.450986200689, 187500.0, -46788.77255782754, -10176.369270845566, 0.594, -0.7020000000000001, 0.432, 192.0, 0.0, 0.0, 0.0, 0.0, 0.0, 0.0, 0.0, 0.0, 0.0, 1.6635893248570085E9, 0.0, 2022-09-19 17:08:44.857
51.0, -19002.24614170148, -24927.93946599239, -33963.87803123928, -16768.16693164908, -15024.01560831256, 187500.0, -46796.64037187581, -10179.96790170287, 0.594, -0.7020000000000001, 0.432, 192.0, 0.0, 0.0, 0.0, 0.0, 0.0, 0.0, 0.0, 0.0, 0.0, 1.663589324860939E9, 0.0, 2022-09-19 17:08:44.860
52.0, -19041.115825309258, -24929.21351542634, -33973.39987437724, -16753.75005647541, -15021.06517804446, 187500.0, -46794.315790452456, -10167.227407363345, 0.594, -0.7020000000000001, 0.432, 192.0, 0.0, 0.0, 0.0, 0.0, 0.0, 0.0, 0.0, 0.0, 0.0, 1.6635893248659499E9, 0.0, 2022-09-19 17:08:44.865
53.0, -19043.887441621715, -24903.06197441363, -33986.56505186141, -16758.466274555478, -15026.340189735913, 187500.0, -46796.72977885363, -10156.833846191626, 0.594, -0.7020000000000001, 0.432, 192.0, 0.0, 0.0, 0.0, 0.0, 0.0, 0.0, 0.0, 0.0, 0.0, 1.6635893248690069E9, 0.0, 2022-09-19 17:08:44.869
54.0, -19017.66884537564, -24859.811348892614, -34001.2277962241, -16766.915233959586, -15026.183727524725, 187500.0, -46806.38573245832, -10142.86400590706, 0.594, -0.7020000000000001, 0.432, 192.0, 0.0, 0.0, 0.0, 0.0, 0.0, 0.0, 0.0, 0.0, 0.0, 1.6635893248719428E9, 0.0, 2022-09-19 17:08:44.871
55.0, -18996.613502098742, -24828.764775844193, -34022.75252613456, -16780.92977773306, -15037.627820685842, 187500.0, -46830.0562298365, -10135.33146802562, 0.594, -0.7020000000000001, 0.432, 192.0, 0.0, 0.0, 0.0, 0.0, 0.0, 0.0, 0.0, 0.0, 0.0, 1.6635893248759668E9, 0.0, 2022-09-19 17:08:44.875
56.0, -19009.510458649453, -24825.322607198075, -34028.27340701502, -16786.182437680058, -15043.528681222044, 187500.0, -46839.08633459644, -10125.29553476519, 0.594, -0.7020000000000001, 0.432, 192.0, 0.0, 0.0, 0.0, 0.0, 0.0, 0.0, 0.0, 0.0, 0.0, 1.6635893248799856E9, 0.0, 2022-09-19 17:08:44.879
57.0, -18998.37928991071, -24805.742479055225, -34021.34436623387, -16779.163989921093, -15037.672524174754, 187500.0, -46824.55770070049, -10092.37141518252, 0.594, -0.7020000000000001, 0.432, 192.0, 0.0, 0.0, 0.0, 0.0, 0.0, 0.0, 0.0, 0.0, 0.0, 1.6635893248840127E9, 0.0, 2022-09-19 17:08:44.884
58.0, -18945.919745674106, -24757.28389707612, -34018.01395631003, -16781.957957978007, -15025.490823446611, 187500.0, -46817.20397677469, -10066.018708469714, 0.592, -0.704, 0.436, 192.0, 18.0, 128.0, 234.0, 0.0, 13.0, 160.0, 0.0, 0.0, 0.0, 1.6635893248880312E9, 0.0, 2022-09-19 17:08:44.888
59.0, -18877.67986985205, -24702.566826649527, -34037.70584317516, -16800.33109192027, -15035.88438461833, 187500.0, -46837.61111946239, -10066.152818936447, 0.592, -0.704, 0.436, 192.0, 0.0, 0.0, 0.0, 0.0, 0.0, 0.0, 0.0, 0.0, 0.0, 1.663589324891997E9, 0.0, 2022-09-19 17:08:44.891
60.0, -18826.852002960684, -24668.614526821915, -34031.73792740559, -16794.966673250994, -15040.801768398496, 187500.0, -46837.253491551106, -10048.249071627746, 0.592, -0.704, 0.436, 192.0, 0.0, 0.0, 0.0, 0.0, 0.0, 0.0, 0.0, 0.0, 0.0, 1.6635893248960364E9, 0.0, 2022-09-19 17:08:44.896
61.0, -18802.53330499331, -24662.60190756344, -34026.77584013651, -16791.27863541587, -15035.16912879576, 187500.0, -46841.63443346434, -10040.51536804621, 0.592, -0.704, 0.436, 192.0, 0.0, 0.0, 0.0, 0.0, 0.0, 0.0, 0.0, 0.0, 0.0, 1.6635893248990722E9, 0.0, 2022-09-19 17:08:44.899
62.0, -18759.08151377219, -24645.1675468883, -34034.48719197359, -16791.03276622686, -15032.084588060927, 187500.0, -46847.1553143448, -10037.788455222662, 0.592, -0.704, 0.436, 192.0, 0.0, 0.0, 0.0, 0.0, 0.0, 0.0, 0.0, 0.0, 0.0, 1.6635893249030693E9, 0.0, 2022-09-19 17:08:44.903
63.0, -18703.336263100657, -24627.19674434623, -34052.234477071106, -16806.23195245647, -15044.534509722533, 187500.0, -46861.75100347412, -10049.925452461894, 0.592, -0.704, 0.436, 192.0, 0.0, 0.0, 0.0, 0.0, 0.0, 0.0, 0.0, 0.0, 0.0, 1.663589324908002E9, 0.0, 2022-09-19 17:08:44.908
64.0, -18643.41123621598, -24612.086965094444, -34069.490023790604, -16822.302856719834, -15053.989297627128, 187500.0, -46875.00558793612, -10054.507560075232, 0.592, -0.704, 0.436, 192.0, 0.0, 0.0, 0.0, 0.0, 0.0, 0.0, 0.0, 0.0, 0.0, 1.663589324912076E9, 0.0, 2022-09-19 17:08:44.912
65.0, -18584.514389576245, -24596.99953758711, -34066.65135224478, -16828.695455634053, -15058.951384896207, 187500.0, -46885.399149107834, -10055.781609509184, 0.592, -0.704, 0.436, 192.0, 0.0, 0.0, 0.0, 0.0, 0.0, 0.0, 0.0, 0.0, 0.0, 1.6635893249160376E9, 0.0, 2022-09-19 17:08:44.916
66.0, -18538.536851231678, -24591.00927007309, -34054.35789279436, -16829.969505068006, -15065.947480910718, 187500.0, -46876.458451325714, -10064.56584508012, 0.592, -0.704, 0.436, 192.0, 0.0, 0.0, 0.0, 0.0, 0.0, 0.0, 0.0, 0.0, 0.0, 1.6635893249200523E9, 0.0, 2022-09-19 17:08:44.920
67.0, -18502.170563002892, -24594.58554918594, -34051.85449741536, -16824.873307332196, -15063.757009954097, 187500.0, -46865.14846863133, -10052.965289707816, 0.592, -0.704, 0.436, 192.0, 0.0, 0.0, 0.0, 0.0, 0.0, 0.0, 0.0, 0.0, 0.0, 1.6635893249240155E9, 0.0, 2022-09-19 17:08:44.924
68.0, -18438.624553516456, -24579.229900745144, -34054.536706750005, -16823.196926498047, -15053.02817261555, 187500.0, -46863.22621860817, -10036.648516255442, 0.594, -0.714, 0.432, 192.0, 18.0, 144.0, 233.0, 176.0, 13.0, 128.0, 0.0, 0.0, 0.0, 1.6635893249271088E9, 0.0, 2022-09-19 17:08:44.927
69.0, -18358.515901388633, -24555.827624300437, -34063.65621848777, -16833.99281906996, -15061.41007678629, 187500.0, -46871.02697742307, -10040.917699446405, 0.594, -0.714, 0.432, 192.0, 0.0, 0.0, 0.0, 0.0, 0.0, 0.0, 0.0, 0.0, 0.0, 1.6635893249310648E9, 0.0, 2022-09-19 17:08:44.931
70.0, -18305.989301918664, -24556.297010934, -34073.334523836915, -16849.639040188675, -15080.856094462408, 187500.0, -46887.27669564208, -10050.953632706838, 0.594, -0.714, 0.432, 192.0, 0.0, 0.0, 0.0, 0.0, 0.0, 0.0, 0.0, 0.0, 0.0, 1.66358932493603E9, 0.0, 2022-09-19 17:08:44.936
71.0, -18273.869845136385, -24571.987935541623, -34072.641619758804, -16861.597223472265, -15093.395423101834, 187500.0, -46887.164936919806, -10063.85058925755, 0.594, -0.714, 0.432, 192.0, 0.0, 0.0, 0.0, 0.0, 0.0, 0.0, 0.0, 0.0, 0.0, 1.6635893249401073E9, 0.0, 2022-09-19 17:08:44.940
72.0, -18210.726167050143, -24556.38641791182, -34078.47542506164, -16872.52722651091, -15091.696690523231, 187500.0, -46888.975428220685, -10071.092554461069, 0.594, -0.714, 0.432, 192.0, 0.0, 0.0, 0.0, 0.0, 0.0, 0.0, 0.0, 0.0, 0.0, 1.6635893249441073E9, 0.0, 2022-09-19 17:08:44.944
73.0, -18138.95471560415, -24537.61095256936, -34085.82914898743, -16885.3347760838, -15087.159286398804, 187500.0, -46898.98900973666, -10071.584292839087, 0.594, -0.714, 0.432, 192.0, 0.0, 0.0, 0.0, 0.0, 0.0, 0.0, 0.0, 0.0, 0.0, 1.6635893249470985E9, 0.0, 2022-09-19 17:08:44.947
74.0, -18080.01316547551, -24534.504060090076, -34085.80679724298, -16889.022813918928, -15077.07864964946, 187500.0, -46902.76645454961, -10061.548359578654, 0.594, -0.714, 0.432, 192.0, 0.0, 0.0, 0.0, 0.0, 0.0, 0.0, 0.0, 0.0, 0.0, 1.6635893249510336E9, 0.0, 2022-09-19 17:08:44.951
75.0, -18030.23583057354, -24534.302894389977, -34069.11004413486, -16873.153075355658, -15082.107792151905, 187500.0, -46890.33888463246, -10048.204368138835, 0.594, -0.714, 0.432, 192.0, 0.0, 0.0, 0.0, 0.0, 0.0, 0.0, 0.0, 0.0, 0.0, 1.6635893249551287E9, 0.0, 2022-09-19 17:08:44.955
76.0, -18000.306844747884, -24542.014246227056, -34064.72910222162, -16864.77117118492, -15089.975606200172, 187500.0, -46893.311666645015, -10054.015821697214, 0.594, -0.714, 0.432, 192.0, 0.0, 0.0, 0.0, 0.0, 0.0, 0.0, 0.0, 0.0, 0.0, 1.663589324959123E9, 0.0, 2022-09-19 17:08:44.959
77.0, -17970.0425827554, -24548.876231774837, -34080.2412128736, -16876.595244001775, -15096.79288825904, 187500.0, -46902.36412314941, -10076.747545808263, 0.594, -0.714, 0.432, 192.0, 0.0, 0.0, 0.0, 0.0, 0.0, 0.0, 0.0, 0.0, 0.0, 1.6635893249641168E9, 0.0, 2022-09-19 17:08:44.964
78.0, -17908.463526781026, -24533.1406036783, -34073.71450349266, -16874.85180793426, -15089.08153642196, 187500.0, -46891.59058232196, -10073.908874262437, 0.598, -0.714, 0.432, 192.0, 18.0, 176.0, 233.0, 176.0, 13.0, 128.0, 0.0, 0.0, 0.0, 1.663589324968155E9, 0.0, 2022-09-19 17:08:44.968
79.0, -17851.980668542466, -24527.99970245358, -34060.10229111937, -16858.04329610387, -15085.661719520298, 187500.0, -46881.0182071946, -10036.581461022075, 0.598, -0.714, 0.432, 192.0, 0.0, 0.0, 0.0, 0.0, 0.0, 0.0, 0.0, 0.0, 0.0, 1.663589324972288E9, 0.0, 2022-09-19 17:08:44.972
80.0, -17821.537592594337, -24540.784900282015, -34066.87486968933, -16863.6312322177, -15095.027100447072, 187500.0, -46888.23782065366, -10039.062504656615, 0.598, -0.714, 0.432, 192.0, 0.0, 0.0, 0.0, 0.0, 0.0, 0.0, 0.0, 0.0, 0.0, 1.6635893249751878E9, 0.0, 2022-09-19 17:08:44.975
81.0, -17799.163496394576, -24555.022961500046, -34072.015770914055, -16858.84795890426, -15098.916303982294, 187500.0, -46891.90350674433, -10047.869091972005, 0.598, -0.714, 0.432, 192.0, 0.0, 0.0, 0.0, 0.0, 0.0, 0.0, 0.0, 0.0, 0.0, 1.663589324979151E9, 0.0, 2022-09-19 17:08:44.979
82.0, -17761.769027920847, -24555.604106855884, -34075.18971862671, -16856.881005392195, -15093.931864968761, 187500.0, -46893.42342536729, -10057.726211276795, 0.598, -0.714, 0.432, 192.0, 0.0, 0.0, 0.0, 0.0, 0.0, 0.0, 0.0, 0.0, 0.0, 1.6635893249831476E9, 0.0, 2022-09-19 17:08:44.983
83.0, -17706.69432958297, -24546.149318951288, -34076.15084363829, -16855.38343851369, -15090.489696322644, 187500.0, -46892.752873033634, -10055.356926364533, 0.598, -0.714, 0.432, 192.0, 0.0, 0.0, 0.0, 0.0, 0.0, 0.0, 0.0, 0.0, 0.0, 1.663589324987249E9, 0.0, 2022-09-19 17:08:44.987
84.0, -17655.017096402302, -24544.04825497249, -34074.76503548206, -16844.699304664053, -15096.301149881025, 187500.0, -46889.13189043187, -10042.191748880357, 0.598, -0.714, 0.432, 192.0, 0.0, 0.0, 0.0, 0.0, 0.0, 0.0, 0.0, 0.0, 0.0, 1.6635893249921303E9, 0.0, 2022-09-19 17:08:44.992
85.0, -17622.763529153293, -24552.98895275461, -34075.34618083789, -16846.845072131764, -15108.214629675704, 187500.0, -46898.63138182538, -10055.982775209282, 0.598, -0.714, 0.432, 192.0, 0.0, 0.0, 0.0, 0.0, 0.0, 0.0, 0.0, 0.0, 0.0, 1.6635893249961765E9, 0.0, 2022-09-19 17:08:44.996
86.0, -17597.90838931899, -24564.790673827014, -34075.16736688225, -16844.341676752767, -15110.606266332421, 187500.0, -46891.59058232196, -10060.430772355887, 0.598, -0.714, 0.432, 192.0, 0.0, 0.0, 0.0, 0.0, 0.0, 0.0, 0.0, 0.0, 0.0, 1.6635893250001173E9, 0.0, 2022-09-19 17:08:45.000
87.0, -17558.23404291082, -24570.356258196385, -34071.524032536036, -16839.46899646151, -15105.621827318888, 187500.0, -46874.37973909137, -10054.954594964338, 0.598, -0.714, 0.432, 192.0, 0.0, 0.0, 0.0, 0.0, 0.0, 0.0, 0.0, 0.0, 0.0, 1.6635893250031679E9, 0.0, 2022-09-19 17:08:45.003
88.0, -17508.143783586478, -24573.641964631315, -34078.587183783915, -16845.30280176435, -15104.75010928513, 187500.0, -46868.36711983289, -10057.770914765706, 0.598, -0.714, 0.432, 192.0, 0.0, 0.0, 0.0, 0.0, 0.0, 0.0, 0.0, 0.0, 0.0, 1.6635893250072196E9, 0.0, 2022-09-19 17:08:45.007
89.0, -17439.054541475125, -24564.187176726722, -34082.40933208577, -16841.95004009605, -15100.525629583077, 187500.0, -46868.903561699815, -10052.2723856297, 0.588, -0.71, 0.43, 192.0, 18.0, 96.0, 233.0, 208.0, 13.0, 112.0, 0.0, 0.0, 0.0, 1.6635893250112307E9, 0.0, 2022-09-19 17:08:45.011
90.0, -17386.796162938615, -24568.81398782897, -34080.08475066242, -16833.61283941422, -15104.32542614048, 187500.0, -46872.613951279396, -10052.406496096433, 0.588, -0.71, 0.43, 192.0, 0.0, 0.0, 0.0, 0.0, 0.0, 0.0, 0.0, 0.0, 0.0, 1.6635893250152311E9, 0.0, 2022-09-19 17:08:45.015
91.0, -17337.935249559316, -24571.51854890806, -34076.21789887165, -16824.359217209723, -15100.816202260996, 187500.0, -46872.36808209039, -10058.106190932536, 0.588, -0.71, 0.43, 192.0, 0.0, 0.0, 0.0, 0.0, 0.0, 0.0, 0.0, 0.0, 0.0, 1.6635893250192688E9, 0.0, 2022-09-19 17:08:45.019
92.0, -17286.41447858983, -24575.899490821303, -34079.45890181767, -16826.19206025506, -15104.79481277404, 187500.0, -46868.12125064388, -10056.94390022086, 0.588, -0.71, 0.43, 192.0, 0.0, 0.0, 0.0, 0.0, 0.0, 0.0, 0.0, 0.0, 0.0, 1.663589325024213E9, 0.0, 2022-09-19 17:08:45.024
93.0, -17205.322349705977, -24558.800406312992, -34074.89914594879, -16820.402958441133, -15094.602417302422, 187500.0, -46858.778221461565, -10031.977001664281, 0.588, -0.71, 0.43, 192.0, 0.0, 0.0, 0.0, 0.0, 0.0, 0.0, 0.0, 0.0, 0.0, 1.6635893250282319E9, 0.0, 2022-09-19 17:08:45.028
94.0, -17130.39930229179, -24556.54288012301, -34084.4433408312, -16828.494289933955, -15094.602417302422, 187500.0, -46869.14943088883, -10021.672847470385, 0.588, -0.71, 0.43, 192.0, 0.0, 0.0, 0.0, 0.0, 0.0, 0.0, 0.0, 0.0, 0.0, 1.6635893250312507E9, 0.0, 2022-09-19 17:08:45.031
95.0, -17079.79495284497, -24567.517586650563, -34088.89133797781, -16832.89758359165, -15103.27489415108, 187500.0, -46873.396262335336, -10034.189824365358, 0.588, -0.71, 0.43, 192.0, 0.0, 0.0, 0.0, 0.0, 0.0, 0.0, 0.0, 0.0, 0.0, 1.6635893250352855E9, 0.0, 2022-09-19 17:08:45.035
96.0, -17027.581277797377, -24573.82077858696, -34100.6483555613, -16849.504929721945, -15120.150461214836, 187500.0, -46881.39818685033, -10052.22768214079, 0.588, -0.71, 0.43, 192.0, 0.0, 0.0, 0.0, 0.0, 0.0, 0.0, 0.0, 0.0, 0.0, 1.6635893250392573E9, 0.0, 2022-09-19 17:08:45.039
97.0, -16941.01297152197, -24557.10167373439, -34088.46665483316, -16857.640964703674, -15117.959990258216, 187500.0, -46875.31851235849, -10055.222815897801, 0.588, -0.71, 0.43, 192.0, 0.0, 0.0, 0.0, 0.0, 0.0, 0.0, 0.0, 0.0, 0.0, 1.663589325043241E9, 0.0, 2022-09-19 17:08:45.043
98.0, -16847.314458765326, -24540.650789815285, -34077.51430005006, -16851.226014045, -15106.22532441918, 187500.0, -46855.80543944901, -10021.203460836823, 0.588, -0.71, 0.43, 192.0, 0.0, 0.0, 0.0, 0.0, 0.0, 0.0, 0.0, 0.0, 0.0, 1.663589325047238E9, 0.0, 2022-09-19 17:08:45.047
99.0, -16740.428416780047, -24517.963769193146, -34096.89326249281, -16852.365953012224, -15106.404138374823, 187500.0, -46865.03670990905, -9992.637931422942, 0.59, -0.71, 0.428, 192.0, 18.0, 112.0, 233.0, 208.0, 13.0, 96.0, 0.0, 0.0, 0.0, 1.6635893250522888E9, 0.0, 2022-09-19 17:08:45.052
100.0, -16650.954383725453, -24505.111516131346, -34104.04582071851, -16861.418409516624, -15116.238905935159, 187500.0, -46868.903561699815, -10001.131594315959, 0.59, -0.71, 0.428, 192.0, 0.0, 0.0, 0.0, 0.0, 0.0, 0.0, 0.0, 0.0, 0.0, 1.663589325056284E9, 0.0, 2022-09-19 17:08:45.056
101.0, -16575.47254269988, -24500.685870729194, -34096.55798632598, -16860.747857182963, -15106.068862207994, 187500.0, -46870.19996287823, -10007.010103107703, 0.59, -0.71, 0.428, 192.0, 0.0, 0.0, 0.0, 0.0, 0.0, 0.0, 0.0, 0.0, 0.0, 1.6635893250592616E9, 0.0, 2022-09-19 17:08:45.059
102.0, -16492.033480648217, -24490.13584734629, -34115.08758247943, -16869.800313687363, -15108.594609331443, 187500.0, -46888.349579375936, -9999.589323948541, 0.59, -0.71, 0.428, 192.0, 0.0, 0.0, 0.0, 0.0, 0.0, 0.0, 0.0, 0.0, 0.0, 1.6635893250632963E9, 0.0, 2022-09-19 17:08:45.063
103.0, -16393.66345330041, -24467.024143579503, -34126.062289006986, -16874.47182827852, -15122.050359493538, 187500.0, -46894.18338467877, -9990.02277732167, 0.59, -0.71, 0.428, 192.0, 0.0, 0.0, 0.0, 0.0, 0.0, 0.0, 0.0, 0.0, 0.0, 1.6635893250672383E9, 0.0, 2022-09-19 17:08:45.067
104.0, -16275.802704787578, -24427.528611126974, -34140.881495580856, -16887.949930185074, -15138.300077712545, 187500.0, -46905.672181328795, -9987.07234705357, 0.59, -0.71, 0.428, 192.0, 0.0, 0.0, 0.0, 0.0, 0.0, 0.0, 0.0, 0.0, 0.0, 1.6635893250724874E9, 0.0, 2022-09-19 17:08:45.072
105.0, -16183.422944953794, -24406.853247505816, -34133.48306816615, -16886.83234296231, -15138.85887132393, 187500.0, -46893.13285268937, -9989.106355799004, 0.59, -0.71, 0.428, 192.0, 0.0, 0.0, 0.0, 0.0, 0.0, 0.0, 0.0, 0.0, 0.0, 1.6635893250753016E9, 0.0, 2022-09-19 17:08:45.075
106.0, -16070.770152899046, -24363.15558709569, -34124.56472212848, -16872.281357321903, -15112.774385544586, 187500.0, -46885.823832252485, -9952.225977447746, 0.59, -0.71, 0.428, 192.0, 0.0, 0.0, 0.0, 0.0, 0.0, 0.0, 0.0, 0.0, 0.0, 1.663589325079347E9, 0.0, 2022-09-19 17:08:45.079
107.0, -15955.882186398769, -24327.370444222743, -34143.20607700421, -16880.506799281455, -15120.888068781862, 187500.0, -46912.44475989875, -9936.959735984772, 0.59, -0.71, 0.428, 192.0, 0.0, 0.0, 0.0, 0.0, 0.0, 0.0, 0.0, 0.0, 0.0, 1.6635893250832708E9, 0.0, 2022-09-19 17:08:45.083
108.0, -15914.419700434173, -24362.887366162227, -34148.838716606944, -16896.465944822543, -15156.583804676988, 187500.0, -46918.94911753525, -9993.107318056504, 0.59, -0.71, 0.428, 192.0, 0.0, 0.0, 0.0, 0.0, 0.0, 0.0, 0.0, 0.0, 0.0, 1.6635893250873392E9, 0.0, 2022-09-19 17:08:45.087
109.0, -15885.76476404247, -24400.862979991794, -34124.788239573034, -16890.386270330702, -15159.780104134095, 187500.0, -46887.83548925346, -10025.159719605414, 0.598, -0.706, 0.426, 192.0, 18.0, 176.0, 233.0, 240.0, 13.0, 80.0, 0.0, 0.0, 0.0, 1.6635893250913384E9, 0.0, 2022-09-19 17:08:45.091
110.0, -15880.556807584384, -24438.59272463235, -34118.12741972535, -16890.453325564067, -15155.980307576694, 187500.0, -46888.88602124286, -10051.55712980713, 0.598, -0.706, 0.426, 192.0, 0.0, 0.0, 0.0, 0.0, 0.0, 0.0, 0.0, 0.0, 0.0, 1.6635893250963304E9, 0.0, 2022-09-19 17:08:45.096
111.0, -15868.486865578518, -24457.63641090827, -34120.876684293355, -16884.35129932777, -15147.486644683677, 187500.0, -46893.71399804521, -10053.74760076375, 0.598, -0.706, 0.426, 192.0, 0.0, 0.0, 0.0, 0.0, 0.0, 0.0, 0.0, 0.0, 0.0, 1.6635893250993412E9, 0.0, 2022-09-19 17:08:45.099
112.0, -15821.32468477782, -24445.901745069237, -34122.37425117186, -16877.95870041355, -15135.461406166722, 187500.0, -46892.05996895552, -10031.887594686461, 0.598, -0.706, 0.426, 192.0, 0.0, 0.0, 0.0, 0.0, 0.0, 0.0, 0.0, 0.0, 0.0, 1.663589325103329E9, 0.0, 2022-09-19 17:08:45.103
113.0, -15747.586279819761, -24415.525724354473, -34139.02630079106, -16888.26285460745, -15133.337990443468, 187500.0, -46895.23391666817, -10016.420187523388, 0.598, -0.706, 0.426, 192.0, 0.0, 0.0, 0.0, 0.0, 0.0, 0.0, 0.0, 0.0, 0.0, 1.6635893251073396E9, 0.0, 2022-09-19 17:08:45.107
114.0, -15646.042304759301, -24369.190558098624, -34148.59284741794, -16902.076232680825, -15138.769464346107, 187500.0, -46901.71592256021, -10007.144213574436, 0.598, -0.706, 0.426, 192.0, 0.0, 0.0, 0.0, 0.0, 0.0, 0.0, 0.0, 0.0, 0.0, 1.6635893251113043E9, 0.0, 2022-09-19 17:08:45.111
115.0, -15621.611848069651, -24389.083610663845, -34127.13517274084, -16899.170505901635, -15140.37878994689, 187500.0, -46898.832547525475, -10041.454141313332, 0.598, -0.706, 0.426, 192.0, 0.0, 0.0, 0.0, 0.0, 0.0, 0.0, 0.0, 0.0, 0.0, 1.663589325115378E9, 0.0, 2022-09-19 17:08:45.115
116.0, -15672.283252749832, -24461.458559210132, -34093.38403861332, -16876.77405795742, -15134.723798599696, 187500.0, -46879.43123333827, -10089.041005258681, 0.598, -0.706, 0.426, 192.0, 0.0, 0.0, 0.0, 0.0, 0.0, 0.0, 0.0, 0.0, 0.0, 1.6635893251193817E9, 0.0, 2022-09-19 17:08:45.119
117.0, -15735.49398606944, -24535.778109524028, -34096.11095143687, -16873.91303466714, -15141.89870856985, 187500.0, -46882.269904884095, -10114.879621849015, 0.598, -0.706, 0.426, 192.0, 0.0, 0.0, 0.0, 0.0, 0.0, 0.0, 0.0, 0.0, 0.0, 1.663589325124435E9, 0.0, 2022-09-19 17:08:45.124
118.0, -15762.964280005013, -24570.065685518468, -34103.93406199623, -16874.583587000798, -15148.827749350996, 187500.0, -46882.58282930647, -10112.130357281012, 0.598, -0.706, 0.426, 192.0, 0.0, 0.0, 0.0, 0.0, 0.0, 0.0, 0.0, 0.0, 0.0, 1.6635893251274328E9, 0.0, 2022-09-19 17:08:45.127
119.0, -15752.570718833294, -24565.885909305325, -34112.22655918915, -16872.77309569992, -15153.923947086805, 187500.0, -46883.74512001814, -10093.176077982913, 0.604, -0.704, 0.43, 192.0, 18.0, 224.0, 234.0, 0.0, 13.0, 112.0, 0.0, 0.0, 0.0, 1.6635893251314476E9, 0.0, 2022-09-19 17:08:45.131
120.0, -15754.73883804546, -24565.125949993846, -34105.431628874736, -16868.973299142515, -15155.019182565116, 187500.0, -46875.206753636216, -10082.76016506674, 0.604, -0.704, 0.43, 192.0, 0.0, 0.0, 0.0, 0.0, 0.0, 0.0, 0.0, 0.0, 0.0, 1.6635893251354408E9, 0.0, 2022-09-19 17:08:45.135
121.0, -15762.427838138085, -24568.165787239766, -34104.49285560761, -16870.00147938746, -15146.726685372198, 187500.0, -46876.57021004799, -10080.99437725477, 0.604, -0.704, 0.43, 192.0, 0.0, 0.0, 0.0, 0.0, 0.0, 0.0, 0.0, 0.0, 0.0, 1.6635893251404607E9, 0.0, 2022-09-19 17:08:45.140
122.0, -15753.509492100418, -24562.130816236833, -34112.40537314479, -16870.13558985419, -15141.943412058761, 187500.0, -46878.24659088214, -10072.61247308403, 0.604, -0.704, 0.43, 192.0, 0.0, 0.0, 0.0, 0.0, 0.0, 0.0, 0.0, 0.0, 0.0, 1.663589325145429E9, 0.0, 2022-09-19 17:08:45.145
123.0, -15735.49398606944, -24551.513737620564, -34109.23142543214, -16860.747857182963, -15137.338952700968, 187500.0, -46872.479840812666, -10042.214100624813, 0.604, -0.704, 0.43, 192.0, 0.0, 0.0, 0.0, 0.0, 0.0, 0.0, 0.0, 0.0, 0.0, 1.6635893251484387E9, 0.0, 2022-09-19 17:08:45.148
124.0, -15745.39580886314, -24564.656563360284, -34107.06330621998, -16870.33675555429, -15146.190243505269, 187500.0, -46875.25145712512, -10062.665946801419, 0.604, -0.704, 0.43, 192.0, 0.0, 0.0, 0.0, 0.0, 0.0, 0.0, 0.0, 0.0, 0.0, 1.6635893251514628E9, 0.0, 2022-09-19 17:08:45.151
125.0, -15782.879684314692, -24589.310537494486, -34087.9972681996, -16854.891700135675, -15141.943412058761, 187500.0, -46866.80249772102, -10079.56386560963, 0.604, -0.704, 0.43, 192.0, 0.0, 0.0, 0.0, 0.0, 0.0, 0.0, 0.0, 0.0, 0.0, 1.6635893251554403E9, 0.0, 2022-09-19 17:08:45.155
126.0, -15825.571516224327, -24609.3600522709, -34085.20330014268, -16852.969450112516, -15131.95218228724, 187500.0, -46858.86762843939, -10096.774708840217, 0.604, -0.704, 0.43, 192.0, 0.0, 0.0, 0.0, 0.0, 0.0, 0.0, 0.0, 0.0, 0.0, 1.6635893251595123E9, 0.0, 2022-09-19 17:08:45.159
127.0, -15846.984487412512, -24610.34352902693, -34095.9991927146, -16855.94223212507, -15124.352589172435, 187500.0, -46867.47305005468, -10097.087633262592, 0.604, -0.704, 0.43, 192.0, 0.0, 0.0, 0.0, 0.0, 0.0, 0.0, 0.0, 0.0, 0.0, 1.6635893251635075E9, 0.0, 2022-09-19 17:08:45.163
128.0, -15845.889251934203, -24593.19974102971, -34087.885509477324, -16855.986935613982, -15117.870583280395, 187500.0, -46859.51582902859, -10085.37531916801, 0.604, -0.704, 0.43, 192.0, 0.0, 0.0, 0.0, 0.0, 0.0, 0.0, 0.0, 0.0, 0.0, 1.663589325167482E9, 0.0, 2022-09-19 17:08:45.167
129.0, -15854.628784016228, -24585.95777582619, -34067.56777376745, -16849.348467510757, -15111.768557044097, 187500.0, -46846.14948584432, -10078.848609787061, 0.604, -0.706, 0.432, 192.0, 18.0, 224.0, 233.0, 240.0, 13.0, 128.0, 0.0, 0.0, 0.0, 1.663589325171528E9, 0.0, 2022-09-19 17:08:45.171
130.0, -15901.38863341673, -24606.342566769432, -34059.05175912997, -16839.67016216161, -15110.248638421135, 187500.0, -46838.79576191852, -10079.876790032005, 0.604, -0.706, 0.432, 192.0, 0.0, 0.0, 0.0, 0.0, 0.0, 0.0, 0.0, 0.0, 0.0, 1.6635893251754932E9, 0.0, 2022-09-19 17:08:45.175
131.0, -15933.753959388014, -24611.550523227517, -34059.94582890819, -16844.766359897418, -15108.08051920897, 187500.0, -46836.00179386161, -10093.310188449645, 0.604, -0.706, 0.432, 192.0, 0.0, 0.0, 0.0, 0.0, 0.0, 0.0, 0.0, 0.0, 0.0, 1.6635893251795096E9, 0.0, 2022-09-19 17:08:45.179
132.0, -15951.009506107512, -24608.77890691506, -34070.7417214801, -16850.42135124461, -15108.70636805372, 187500.0, -46847.17766608926, -10090.672682603918, 0.604, -0.706, 0.432, 192.0, 0.0, 0.0, 0.0, 0.0, 0.0, 0.0, 0.0, 0.0, 0.0, 1.6635893251825144E9, 0.0, 2022-09-19 17:08:45.182
133.0, -15960.196073078641, -24606.655491191807, -34083.03518093052, -16855.986935613982, -15112.103833210926, 187500.0, -46853.23498883665, -10085.464726145832, 0.604, -0.706, 0.432, 192.0, 0.0, 0.0, 0.0, 0.0, 0.0, 0.0, 0.0, 0.0, 0.0, 1.6635893251864777E9, 0.0, 2022-09-19 17:08:45.186
134.0, -15967.438038282162, -24603.97328185717, -34076.26260236056, -16858.44562750407, -15115.478946623678, 187500.0, -46853.99494814813, -10085.37531916801, 0.604, -0.706, 0.432, 192.0, 0.0, 0.0, 0.0, 0.0, 0.0, 0.0, 0.0, 0.0, 0.0, 1.6635893251915104E9, 0.0, 2022-09-19 17:08:45.191
135.0, -15992.471992072105, -24605.67201443577, -34061.91278242025, -16838.48551970548, -15113.266123922602, 187500.0, -46852.36327080289, -10081.955502266348, 0.604, -0.706, 0.432, 192.0, 0.0, 0.0, 0.0, 0.0, 0.0, 0.0, 0.0, 0.0, 0.0, 1.663589325195506E9, 0.0, 2022-09-19 17:08:45.195
136.0, -16020.0316929855, -24611.99755811662, -34049.97695088112, -16834.95394408154, -15108.818126775996, 187500.0, -46832.26905253757, -10088.549266880664, 0.604, -0.706, 0.432, 192.0, 0.0, 0.0, 0.0, 0.0, 0.0, 0.0, 0.0, 0.0, 0.0, 1.663589325199527E9, 0.0, 2022-09-19 17:08:45.199
137.0, -16030.537012879493, -24609.427107504263, -34046.490078746094, -16831.66823764661, -15101.218533661191, 187500.0, -46822.23311927714, -10078.267464431223, 0.604, -0.706, 0.432, 192.0, 0.0, 0.0, 0.0, 0.0, 0.0, 0.0, 0.0, 0.0, 0.0, 1.6635893252035701E9, 0.0, 2022-09-19 17:08:45.203
138.0, -16036.259059460052, -24612.891627894835, -34053.0391398715, -16828.6731038896, -15097.262274892602, 187500.0, -46823.37305824436, -10061.66011830093, 0.604, -0.706, 0.432, 192.0, 0.0, 0.0, 0.0, 0.0, 0.0, 0.0, 0.0, 0.0, 0.0, 1.663589325207543E9, 0.0, 2022-09-19 17:08:45.207
139.0, -16052.397018956784, -24627.73318621316, -34067.120738878344, -16836.362103982225, -15108.013463975605, 187500.0, -46829.966822858674, -10065.974004980804, 0.596, -0.704, 0.432, 192.0, 18.0, 160.0, 234.0, 0.0, 13.0, 128.0, 0.0, 0.0, 0.0, 1.6635893252115486E9, 0.0, 2022-09-19 17:08:45.211
140.0, -16092.674862465246, -24657.25984063862, -34074.183890126216, -16848.543804710367, -15126.18543221777, 187500.0, -46838.97457587416, -10100.529801908708, 0.596, -0.704, 0.432, 192.0, 0.0, 0.0, 0.0, 0.0, 0.0, 0.0, 0.0, 0.0, 0.0, 1.6635893252145925E9, 0.0, 2022-09-19 17:08:45.214
141.0, -16114.445461564716, -24667.02755296559, -34082.141111152305, -16853.796464657364, -15130.789891575563, 187500.0, -46848.74228820113, -10121.115758552047, 0.596, -0.704, 0.432, 192.0, 0.0, 0.0, 0.0, 0.0, 0.0, 0.0, 0.0, 0.0, 0.0, 1.6635893252206347E9, 0.0, 2022-09-19 17:08:45.220
142.0, -16112.143231885819, -24659.74088427316, -34077.84957621689, -16846.75566515394, -15119.412853647811, 187500.0, -46836.337070028436, -10109.202278757368, 0.596, -0.704, 0.432, 192.0, 0.0, 0.0, 0.0, 0.0, 0.0, 0.0, 0.0, 0.0, 0.0, 1.6635893252236056E9, 0.0, 2022-09-19 17:08:45.223
143.0, -16100.945007913711, -24645.838099221957, -34061.84572718689, -16826.303818977336, -15091.473173078677, 187500.0, -46814.655877906785, -10081.597874355064, 0.596, -0.704, 0.432, 192.0, 0.0, 0.0, 0.0, 0.0, 0.0, 0.0, 0.0, 0.0, 0.0, 1.6635893252295508E9, 0.0, 2022-09-19 17:08:45.229
144.0, -16101.23558059163, -24640.384273574862, -34051.049834614976, -16806.343711178746, -15076.385745571346, 187500.0, -46822.18841578822, -10051.89240597396, 0.596, -0.704, 0.432, 192.0, 0.0, 0.0, 0.0, 0.0, 0.0, 0.0, 0.0, 0.0, 0.0, 1.6635893252325685E9, 0.0, 2022-09-19 17:08:45.232
145.0, -16148.375409647871, -24667.854567510436, -34060.79519519749, -16818.927743307086, -15095.60824580291, 187500.0, -46842.66261370929, -10062.88946424597, 0.596, -0.704, 0.432, 192.0, 0.0, 0.0, 0.0, 0.0, 0.0, 0.0, 0.0, 0.0, 0.0, 1.663589325235597E9, 0.0, 2022-09-19 17:08:45.235
146.0, -16172.20236923723, -24671.341439645465, -34051.45216601517, -16817.81015608432, -15092.79192600154, 187500.0, -46834.19130256073, -10060.408420611433, 0.596, -0.704, 0.432, 192.0, 0.0, 0.0, 0.0, 0.0, 0.0, 0.0, 0.0, 0.0, 0.0, 1.6635893252385893E9, 0.0, 2022-09-19 17:08:45.238
147.0, -16188.563846178515, -24670.559128589528, -34050.69220670369, -16818.99479854045, -15090.690862022742, 187500.0, -46827.61988969087, -10062.241263656768, 0.596, -0.704, 0.432, 192.0, 0.0, 0.0, 0.0, 0.0, 0.0, 0.0, 0.0, 0.0, 0.0, 1.6635893252426136E9, 0.0, 2022-09-19 17:08:45.242
148.0, -16198.644482927857, -24666.06642795401, -34064.75145396608, -16831.690589391066, -15102.246713906135, 187500.0, -46839.37690727436, -10077.99924349776, 0.596, -0.704, 0.432, 192.0, 0.0, 0.0, 0.0, 0.0, 0.0, 0.0, 0.0, 0.0, 0.0, 1.663589325247619E9, 0.0, 2022-09-19 17:08:45.247
149.0, -16207.898105132355, -24660.657305795827, -34065.66787548875, -16845.66042967563, -15117.870583280395, 187500.0, -46832.85019789341, -10101.557982153652, 0.596, -0.708, 0.436, 192.0, 18.0, 160.0, 233.0, 224.0, 13.0, 160.0, 0.0, 0.0, 0.0, 1.6635893252516863E9, 0.0, 2022-09-19 17:08:45.251
150.0, -16241.671591004324, -24672.50373035714, -34033.19079079518, -16820.00062704094, -15110.807432032518, 187500.0, -46798.78613934352, -10081.754336566251, 0.596, -0.708, 0.436, 192.0, 0.0, 0.0, 0.0, 0.0, 0.0, 0.0, 0.0, 0.0, 0.0, 1.6635893252555852E9, 0.0, 2022-09-19 17:08:45.255
151.0, -16288.297329938094, -24692.620300366914, -34027.267578514526, -16814.85972581622, -15106.739414541653, 187500.0, -46789.86779330585, -10073.126563206502, 0.596, -0.708, 0.436, 192.0, 0.0, 0.0, 0.0, 0.0, 0.0, 0.0, 0.0, 0.0, 0.0, 1.6635893252597408E9, 0.0, 2022-09-19 17:08:45.259
152.0, -16306.111670268974, -24688.328765431495, -34040.008072854056, -16827.66727538911, -15107.320559897491, 187500.0, -46804.239964990615, -10079.988548754282, 0.596, -0.708, 0.436, 192.0, 0.0, 0.0, 0.0, 0.0, 0.0, 0.0, 0.0, 0.0, 0.0, 1.663589325262643E9, 0.0, 2022-09-19 17:08:45.262
153.0, -16292.387699173416, -24665.64174480936, -34044.00903511155, -16834.641019659164, -15103.766632529097, 187500.0, -46816.17579652975, -10076.792249297172, 0.596, -0.708, 0.436, 192.0, 0.0, 0.0, 0.0, 0.0, 0.0, 0.0, 0.0, 0.0, 0.0, 1.6635893252666051E9, 0.0, 2022-09-19 17:08:45.266
154.0, -16311.341978471517, -24674.73890480267, -34052.1897735822, -16826.259115488425, -15109.823955276484, 187500.0, -46826.323488512455, -10078.535685364686, 0.596, -0.708, 0.436, 192.0, 0.0, 0.0, 0.0, 0.0, 0.0, 0.0, 0.0, 0.0, 0.0, 1.6635893252706168E9, 0.0, 2022-09-19 17:08:45.270
155.0, -16352.782112691655, -24693.40261142285, -34031.7826308945, -16803.14741172164, -15097.50814408161, 187500.0, -46805.089331279916, -10058.285004888177, 0.596, -0.708, 0.436, 192.0, 0.0, 0.0, 0.0, 0.0, 0.0, 0.0, 0.0, 0.0, 0.0, 1.6635893252747252E9, 0.0, 2022-09-19 17:08:45.274
156.0, -16376.363203092005, -24697.06829751352, -34027.1781715367, -16798.98998725295, -15073.971757170173, 187500.0, -46798.76378759906, -10048.51729256121, 0.596, -0.708, 0.436, 192.0, 0.0, 0.0, 0.0, 0.0, 0.0, 0.0, 0.0, 0.0, 0.0, 1.663589325279673E9, 0.0, 2022-09-19 17:08:45.279
157.0, -16397.95498823583, -24703.46089642774, -34056.52601200653, -16820.112385763216, -15082.018385174082, 187500.0, -46815.66170640728, -10064.901121246949, 0.596, -0.708, 0.436, 192.0, 0.0, 0.0, 0.0, 0.0, 0.0, 0.0, 0.0, 0.0, 0.0, 1.6635893252836044E9, 0.0, 2022-09-19 17:08:45.283
158.0, -16394.311653889617, -24688.798152065057, -34048.25586655806, -16818.257190973425, -15077.950367683217, 187500.0, -46806.02810454704, -10056.966251965316, 0.596, -0.708, 0.436, 192.0, 0.0, 0.0, 0.0, 0.0, 0.0, 0.0, 0.0, 0.0, 0.0, 1.6635893252877147E9, 0.0, 2022-09-19 17:08:45.287
159.0, -16394.982206223274, -24675.655326325337, -34022.57371217891, -16806.343711178746, -15066.483922777645, 187500.0, -46792.66176136277, -10045.768027993206, 0.594, -0.71, 0.432, 192.0, 18.0, 144.0, 233.0, 208.0, 13.0, 128.0, 0.0, 0.0, 0.0, 1.6635893252906868E9, 0.0, 2022-09-19 17:08:45.290
160.0, -16438.433997444394, -24698.811733581035, -34026.68643315869, -16818.860688073717, -15077.525684538567, 187500.0, -46804.82111034646, -10071.718403305818, 0.594, -0.71, 0.432, 192.0, 0.0, 0.0, 0.0, 0.0, 0.0, 0.0, 0.0, 0.0, 0.0, 1.6635893252946773E9, 0.0, 2022-09-19 17:08:45.294
161.0, -16474.554416484167, -24716.26844600063, -34018.7292121326, -16828.449586445044, -15087.025175932073, 187500.0, -46796.52861315353, -10090.33740643709, 0.594, -0.71, 0.432, 192.0, 0.0, 0.0, 0.0, 0.0, 0.0, 0.0, 0.0, 0.0, 0.0, 1.663589325298659E9, 0.0, 2022-09-19 17:08:45.298
162.0, -16489.01599514675, -24712.334538976498, -34017.99160456558, -16821.945228808552, -15084.79000148654, 187500.0, -46798.27204922105, -10071.874865517006, 0.594, -0.71, 0.432, 192.0, 0.0, 0.0, 0.0, 0.0, 0.0, 0.0, 0.0, 0.0, 0.0, 1.6635893253027303E9, 0.0, 2022-09-19 17:08:45.302
163.0, -16496.436774305916, -24702.20919873824, -34025.59119768038, -16823.174574753593, -15090.400289344823, 187500.0, -46789.39840667229, -10062.487132845776, 0.594, -0.71, 0.432, 192.0, 0.0, 0.0, 0.0, 0.0, 0.0, 0.0, 0.0, 0.0, 0.0, 1.6635893253086987E9, 0.0, 2022-09-19 17:08:45.308
164.0, -16526.589277576124, -24710.45699244225, -34024.58536917989, -16824.85095558774, -15100.033891205061, 187500.0, -46792.572354384945, -10063.448257857353, 0.594, -0.71, 0.432, 192.0, 0.0, 0.0, 0.0, 0.0, 0.0, 0.0, 0.0, 0.0, 0.0, 1.6635893253126981E9, 0.0, 2022-09-19 17:08:45.312
165.0, -16578.42297296798, -24731.780556652615, -34018.7292121326, -16819.37477819619, -15097.08346093696, 187500.0, -46802.74239811211, -10064.85641775804, 0.594, -0.71, 0.432, 192.0, 0.0, 0.0, 0.0, 0.0, 0.0, 0.0, 0.0, 0.0, 0.0, 1.663589325315689E9, 0.0, 2022-09-19 17:08:45.315
166.0, -16617.113842620118, -24740.162460823354, -34026.88759885879, -16823.91218232062, -15096.882295236863, 187500.0, -46810.27493599355, -10082.782516811194, 0.594, -0.71, 0.432, 192.0, 0.0, 0.0, 0.0, 0.0, 0.0, 0.0, 0.0, 0.0, 0.0, 1.6635893253187704E9, 0.0, 2022-09-19 17:08:45.318
167.0, -16639.554994053244, -24733.926324120323, -34012.98481380759, -16812.289275203857, -15094.334196368956, 187500.0, -46785.06216824796, -10073.730060306796, 0.594, -0.71, 0.432, 192.0, 0.0, 0.0, 0.0, 0.0, 0.0, 0.0, 0.0, 0.0, 0.0, 1.6635893253227065E9, 0.0, 2022-09-19 17:08:45.322
168.0, -16664.454837376456, -24730.61826594094, -34010.01203179503, -16805.38258616717, -15081.325481095968, 187500.0, -46777.37316815533, -10046.639746026964, 0.594, -0.71, 0.432, 192.0, 0.0, 0.0, 0.0, 0.0, 0.0, 0.0, 0.0, 0.0, 0.0, 1.6635893253267047E9, 0.0, 2022-09-19 17:08:45.326
169.0, -16701.871657594642, -24739.67072244534, -34024.29479650197, -16814.90442930513, -15090.422641089279, 187500.0, -46798.47321492115, -10054.08287693058, 0.596, -0.714, 0.436, 192.0, 18.0, 160.0, 233.0, 176.0, 13.0, 160.0, 0.0, 0.0, 0.0, 1.663589325330752E9, 0.0, 2022-09-19 17:08:45.330
170.0, -16760.500283300913, -24759.541423266106, -34017.65632839875, -16809.27178970239, -15098.044585948539, 187500.0, -46790.82891831743, -10066.71161254783, 0.596, -0.714, 0.436, 192.0, 0.0, 0.0, 0.0, 0.0, 0.0, 0.0, 0.0, 0.0, 0.0, 1.6635893253357368E9, 0.0, 2022-09-19 17:08:45.335
171.0, -16805.293179189346, -24766.93985068081, -34011.174322506704, -16801.180458209572, -15092.635463790353, 187500.0, -46784.72689208113, -10063.291795646168, 0.596, -0.714, 0.436, 192.0, 0.0, 0.0, 0.0, 0.0, 0.0, 0.0, 0.0, 0.0, 0.0, 1.663589325339768E9, 0.0, 2022-09-19 17:08:45.339
172.0, -16838.440816216567, -24766.671629747347, -34011.777819607, -16804.17559196658, -15087.673376521276, 187500.0, -46795.008694530574, -10061.66011830093, 0.596, -0.714, 0.436, 192.0, 0.0, 0.0, 0.0, 0.0, 0.0, 0.0, 0.0, 0.0, 0.0, 1.6635893253427725E9, 0.0, 2022-09-19 17:08:45.342
173.0, -16873.153075355658, -24772.90776645038, -34017.81279060993, -16809.115327491203, -15100.436222605256, 187500.0, -46796.84153757591, -10056.183940909379, 0.596, -0.714, 0.436, 192.0, 0.0, 0.0, 0.0, 0.0, 0.0, 0.0, 0.0, 0.0, 0.0, 1.6635893253468473E9, 0.0, 2022-09-19 17:08:45.346
174.0, -16897.58353204531, -24771.007868171677, -34012.49307542957, -16788.75288829242, -15101.665568550297, 187500.0, -46788.660799105266, -10034.83802495456, 0.596, -0.714, 0.436, 192.0, 0.0, 0.0, 0.0, 0.0, 0.0, 0.0, 0.0, 0.0, 0.0, 1.6635893253507552E9, 0.0, 2022-09-19 17:08:45.350
175.0, -16942.175262233646, -24782.80958924408, -34016.76225862053, -16792.552684849823, -15102.827859261974, 187500.0, -46795.433377675225, -10054.865187986516, 0.596, -0.714, 0.436, 192.0, 0.0, 0.0, 0.0, 0.0, 0.0, 0.0, 0.0, 0.0, 0.0, 1.6635893253547657E9, 0.0, 2022-09-19 17:08:45.354
176.0, -16976.46283822809, -24786.51997882366, -34017.92454933221, -16805.47199314499, -15095.541190569544, 187500.0, -46797.109758509374, -10071.293720161168, 0.596, -0.714, 0.436, 192.0, 0.0, 0.0, 0.0, 0.0, 0.0, 0.0, 0.0, 0.0, 0.0, 1.663589325358774E9, 0.0, 2022-09-19 17:08:45.358
177.0, -16998.83693442785, -24785.89412997891, -34017.16459002073, -16814.546801393844, -15095.228266147169, 187500.0, -46799.277877721535, -10078.155705708947, 0.596, -0.714, 0.436, 192.0, 0.0, 0.0, 0.0, 0.0, 0.0, 0.0, 0.0, 0.0, 0.0, 1.663589325363754E9, 0.0, 2022-09-19 17:08:45.363
178.0, -17005.385995553257, -24775.61232752947, -34018.86332259933, -16806.120193734194, -15092.814277745996, 187500.0, -46799.68020912173, -10062.151856678945, 0.596, -0.714, 0.436, 192.0, 0.0, 0.0, 0.0, 0.0, 0.0, 0.0, 0.0, 0.0, 0.0, 1.6635893253677473E9, 0.0, 2022-09-19 17:08:45.367
179.0, -17028.341237108856, -24779.792103742613, -34029.368642493326, -16804.488516388956, -15104.951274985227, 187500.0, -46797.98147654313, -10052.920586218905, 0.596, -0.714, 0.436, 192.0, 0.0, 0.0, 0.0, 0.0, 0.0, 0.0, 0.0, 0.0, 0.0, 1.6635893253718548E9, 0.0, 2022-09-19 17:08:45.371
180.0, -17058.784313056985, -24779.18860664232, -34021.00909006704, -16800.71107157601, -15101.374995872378, 187500.0, -46796.03687477552, -10059.268481644212, 0.596, -0.714, 0.434, 192.0, 18.0, 160.0, 233.0, 176.0, 13.0, 144.0, 0.0, 0.0, 0.0, 1.6635893253748083E9, 0.0, 2022-09-19 17:08:45.374
181.0, -17080.19728424517, -24771.253737360687, -34017.63397665429, -16796.93362676306, -15094.423603346779, 187500.0, -46788.5937438719, -10056.765086265217, 0.596, -0.714, 0.434, 192.0, 0.0, 0.0, 0.0, 0.0, 0.0, 0.0, 0.0, 0.0, 0.0, 1.6635893253788478E9, 0.0, 2022-09-19 17:08:45.378
182.0, -17093.80949661845, -24759.89905117739, -34017.00812780954, -16800.621664598188, -15092.389594601345, 187500.0, -46791.45476716218, -10057.592100810063, 0.596, -0.714, 0.434, 192.0, 0.0, 0.0, 0.0, 0.0, 0.0, 0.0, 0.0, 0.0, 0.0, 1.6635893253828075E9, 0.0, 2022-09-19 17:08:45.382
183.0, -17109.098089825882, -24753.1935278408, -34029.6815669157, -16807.573057123787, -15091.65198703432, 187500.0, -46799.85902307738, -10050.104266417537, 0.596, -0.714, 0.434, 192.0, 0.0, 0.0, 0.0, 0.0, 0.0, 0.0, 0.0, 0.0, 0.0, 1.66358932538686E9, 0.0, 2022-09-19 17:08:45.386
184.0, -17140.21171810767, -24756.434530786817, -34015.309395230935, -16791.65861507161, -15084.946463697728, 187500.0, -46794.11462475236, -10034.525100532186, 0.596, -0.714, 0.434, 192.0, 0.0, 0.0, 0.0, 0.0, 0.0, 0.0, 0.0, 0.0, 0.0, 1.6635893253909018E9, 0.0, 2022-09-19 17:08:45.390
185.0, -17192.380689666355, -24765.017600657655, -34017.768087121025, -16795.436059884556, -15084.544132297533, 187500.0, -46801.96008705618, -10049.3219553616, 0.596, -0.714, 0.434, 192.0, 0.0, 0.0, 0.0, 0.0, 0.0, 0.0, 0.0, 0.0, 0.0, 1.6635893253958757E9, 0.0, 2022-09-19 17:08:45.395
186.0, -17241.107492578925, -24771.968993183254, -34022.17138077872, -16802.163934965603, -15086.645196276331, 187500.0, -46806.78806385852, -10061.146028178457, 0.596, -0.714, 0.434, 192.0, 0.0, 0.0, 0.0, 0.0, 0.0, 0.0, 0.0, 0.0, 0.0, 1.6635893253988948E9, 0.0, 2022-09-19 17:08:45.398
187.0, -17280.60302503145, -24769.555004782083, -34007.53098816049, -16792.686795316553, -15080.252597362114, 187500.0, -46794.15932824127, -10058.441467099365, 0.596, -0.714, 0.434, 192.0, 0.0, 0.0, 0.0, 0.0, 0.0, 0.0, 0.0, 0.0, 0.0, 1.6635893254028895E9, 0.0, 2022-09-19 17:08:45.402
188.0, -17302.86536250894, -24755.920440664344, -34003.977060792095, -16780.32628063277, -15070.194312357225, 187500.0, -46785.12922348133, -10036.60381276653, 0.596, -0.714, 0.434, 192.0, 0.0, 0.0, 0.0, 0.0, 0.0, 0.0, 0.0, 0.0, 0.0, 1.6635893254069011E9, 0.0, 2022-09-19 17:08:45.406
189.0, -17348.328810731033, -24763.0953506345, -34007.21806373812, -16784.327242890267, -15075.268158348581, 187500.0, -46783.966932769654, -10040.761237235218, 0.596, -0.714, 0.434, 192.0, 0.0, 0.0, 0.0, 0.0, 0.0, 0.0, 0.0, 0.0, 0.0, 1.6635893254108968E9, 0.0, 2022-09-19 17:08:45.410
190.0, -17413.864125473992, -24781.692002021315, -34005.49697941506, -16793.402051139125, -15074.284681592546, 187500.0, -46786.47032814864, -10063.068278201614, 0.6, -0.712, 0.436, 192.0, 18.0, 192.0, 233.0, 192.0, 13.0, 160.0, 0.0, 0.0, 0.0, 1.6635893254149227E9, 0.0, 2022-09-19 17:08:45.414
191.0, -17466.88246332198, -24792.420839359864, -34013.83418009689, -16797.00068199643, -15073.16709436978, 187500.0, -46796.30509570898, -10068.32093814861, 0.6, -0.712, 0.436, 192.0, 0.0, 0.0, 0.0, 0.0, 0.0, 0.0, 0.0, 0.0, 0.0, 1.6635893254189477E9, 0.0, 2022-09-19 17:08:45.418
192.0, -17495.1797718024, -24788.106952679987, -34022.372546478815, -16805.36023442271, -15074.150571125814, 187500.0, -46799.702560866186, -10067.873903259506, 0.6, -0.712, 0.436, 192.0, 0.0, 0.0, 0.0, 0.0, 0.0, 0.0, 0.0, 0.0, 0.0, 1.663589325424923E9, 0.0, 2022-09-19 17:08:45.424
193.0, -17514.849306923068, -24780.909690965378, -34017.54456967647, -16800.2640366869, -15065.880425677351, 187500.0, -46788.01259851606, -10050.730115262284, 0.6, -0.712, 0.436, 192.0, 0.0, 0.0, 0.0, 0.0, 0.0, 0.0, 0.0, 0.0, 0.0, 1.6635893254279466E9, 0.0, 2022-09-19 17:08:45.427
194.0, -17564.023144724746, -24795.1030486945, -34006.12282825981, -16797.313606418804, -15062.237091331137, 187500.0, -46792.17002298475, -10051.51242631822, 0.6, -0.712, 0.436, 192.0, 0.0, 0.0, 0.0, 0.0, 0.0, 0.0, 0.0, 0.0, 0.0, 1.6635893254319468E9, 0.0, 2022-09-19 17:08:45.431
195.0, -17624.77518615427, -24810.86102853549, -33991.50478738604, -16794.854914528718, -15048.043733602017, 187500.0, -46792.75116834059, -10054.03817344167, 0.6, -0.712, 0.436, 192.0, 0.0, 0.0, 0.0, 0.0, 0.0, 0.0, 0.0, 0.0, 0.0, 1.6635893254349785E9, 0.0, 2022-09-19 17:08:45.434
196.0, -17674.105486167133, -24819.645264106424, -33996.69039209967, -16801.85101054323, -15036.376122996346, 187500.0, -46796.66272362027, -10062.88946424597, 0.6, -0.712, 0.436, 192.0, 0.0, 0.0, 0.0, 0.0, 0.0, 0.0, 0.0, 0.0, 0.0, 1.6635893254390316E9, 0.0, 2022-09-19 17:08:45.439
197.0, -17702.201628947452, -24818.125345483466, -34006.88278757129, -16811.730481592476, -15036.152605551793, 187500.0, -46797.62384863185, -10066.242225914268, 0.6, -0.712, 0.436, 192.0, 0.0, 0.0, 0.0, 0.0, 0.0, 0.0, 0.0, 0.0, 0.0, 1.6635893254429665E9, 0.0, 2022-09-19 17:08:45.442
198.0, -17715.813841320734, -24811.844505291523, -34024.473610457615, -16828.717807378507, -15052.424675515256, 187500.0, -46807.391560958815, -10084.525952878708, 0.6, -0.712, 0.436, 192.0, 0.0, 0.0, 0.0, 0.0, 0.0, 0.0, 0.0, 0.0, 0.0, 1.6635893254469647E9, 0.0, 2022-09-19 17:08:45.446
199.0, -17760.80790290927, -24832.922200312878, -34016.06935454242, -16819.933571807574, -15056.023306372561, 187500.0, -46804.46348243517, -10078.51333362023, 0.6, -0.712, 0.436, 192.0, 0.0, 0.0, 0.0, 0.0, 0.0, 0.0, 0.0, 0.0, 0.0, 1.66358932545101E9, 0.0, 2022-09-19 17:08:45.451
200.0, -17827.39374964163, -24862.940593116356, -34008.87209282781, -16809.607065869222, -15054.101056349404, 187500.0, -46799.38963644381, -10065.146990435958, 0.598, -0.714, 0.432, 192.0, 18.0, 176.0, 233.0, 176.0, 13.0, 128.0, 0.0, 0.0, 0.0, 1.6635893254539373E9, 0.0, 2022-09-19 17:08:45.453
201.0, -17867.179854772075, -24867.16507281841, -34005.92166255971, -16805.874324545184, -15052.849358659907, 187500.0, -46793.488775907615, -10063.560016579631, 0.598, -0.714, 0.432, 192.0, 0.0, 0.0, 0.0, 0.0, 0.0, 0.0, 0.0, 0.0, 0.0, 1.6635893254580314E9, 0.0, 2022-09-19 17:08:45.458
202.0, -17891.610311461725, -24860.705418670826, -34009.45323818365, -16802.65567334362, -15053.095227848915, 187500.0, -46797.08740676492, -10059.112019433025, 0.598, -0.714, 0.432, 192.0, 0.0, 0.0, 0.0, 0.0, 0.0, 0.0, 0.0, 0.0, 0.0, 1.6635893254639988E9, 0.0, 2022-09-19 17:08:45.463
203.0, -17908.64234073667, -24856.279773268674, -34031.112078560844, -16815.32911244978, -15058.683163962742, 187500.0, -46813.8512151064, -10072.344252150566, 0.598, -0.714, 0.432, 192.0, 0.0, 0.0, 0.0, 0.0, 0.0, 0.0, 0.0, 0.0, 0.0, 1.6635893254669795E9, 0.0, 2022-09-19 17:08:45.466
204.0, -17943.332248131304, -24867.187424562864, -34036.52120071903, -16822.52637416439, -15069.300242579013, 187500.0, -46816.08638955193, -10091.90202854896, 0.598, -0.714, 0.432, 192.0, 0.0, 0.0, 0.0, 0.0, 0.0, 0.0, 0.0, 0.0, 0.0, 1.663589325471008E9, 0.0, 2022-09-19 17:08:45.471
205.0, -17991.56731266586, -24885.314689316117, -34031.62616868331, -16812.13281299267, -15064.718134965675, 187500.0, -46806.65395339179, -10089.353929681056, 0.598, -0.714, 0.432, 192.0, 0.0, 0.0, 0.0, 0.0, 0.0, 0.0, 0.0, 0.0, 0.0, 1.66358932547699E9, 0.0, 2022-09-19 17:08:45.476
206.0, -18018.367054267772, -24885.82877943859, -34014.124752774806, -16801.69454833204, -15048.289602791025, 187500.0, -46782.67053159124, -10075.764069052228, 0.598, -0.714, 0.432, 192.0, 0.0, 0.0, 0.0, 0.0, 0.0, 0.0, 0.0, 0.0, 0.0, 1.6635893254800298E9, 0.0, 2022-09-19 17:08:45.480
207.0, -18034.460310275594, -24883.995936393254, -33998.255014211536, -16799.03469074186, -15041.762893410076, 187500.0, -46782.0446827465, -10068.32093814861, 0.598, -0.714, 0.432, 192.0, 0.0, 0.0, 0.0, 0.0, 0.0, 0.0, 0.0, 0.0, 0.0, 1.6635893254830244E9, 0.0, 2022-09-19 17:08:45.483
208.0, -18053.325182595872, -24889.583872507083, -34014.68354638619, -16805.89667628964, -15055.442161016723, 187500.0, -46794.53930789701, -10061.66011830093, 0.598, -0.714, 0.432, 192.0, 0.0, 0.0, 0.0, 0.0, 0.0, 0.0, 0.0, 0.0, 0.0, 1.6635893254869974E9, 0.0, 2022-09-19 17:08:45.486
209.0, -18086.606930089823, -24904.045451169666, -34028.96631109313, -16817.3184177063, -15076.810428715997, 187500.0, -46805.20109000219, -10082.84957204456, 0.598, -0.714, 0.432, 192.0, 0.0, 0.0, 0.0, 0.0, 0.0, 0.0, 0.0, 0.0, 0.0, 1.6635893254910429E9, 0.0, 2022-09-19 17:08:45.491
210.0, -18124.96252357513, -24912.472058829317, -34026.37350873632, -16812.98217928197, -15082.59953052992, 187500.0, -46808.82207260395, -10086.828182557605, 0.59, -0.708, 0.432, 192.0, 18.0, 112.0, 233.0, 224.0, 13.0, 128.0, 0.0, 0.0, 0.0, 1.6635893254951017E9, 0.0, 2022-09-19 17:08:45.495
211.0, -18150.376457020815, -24907.755840749247, -34005.452275926145, -16798.542952363845, -15064.02523088756, 187500.0, -46789.26429620556, -10078.267464431223, 0.59, -0.708, 0.432, 192.0, 0.0, 0.0, 0.0, 0.0, 0.0, 0.0, 0.0, 0.0, 0.0, 1.6635893254990675E9, 0.0, 2022-09-19 17:08:45.499
212.0, -18150.9352506322, -24883.995936393254, -33992.6223746088, -16792.619740083188, -15047.507291735088, 187500.0, -46774.19922044268, -10075.987586496782, 0.59, -0.708, 0.432, 192.0, 0.0, 0.0, 0.0, 0.0, 0.0, 0.0, 0.0, 0.0, 0.0, 1.6635893255030715E9, 0.0, 2022-09-19 17:08:45.503
213.0, -18171.096524130884, -24885.11352361602, -34015.68937488668, -16802.5662663658, -15067.109771622394, 187500.0, -46798.11558700986, -10074.042984729169, 0.59, -0.708, 0.432, 192.0, 0.0, 0.0, 0.0, 0.0, 0.0, 0.0, 0.0, 0.0, 0.0, 1.663589325506086E9, 0.0, 2022-09-19 17:08:45.506
214.0, -18213.676597318245, -24899.485695300784, -34006.078124770895, -16794.966673250994, -15081.861922962897, 187500.0, -46788.102005493885, -10062.576539823596, 0.59, -0.708, 0.432, 192.0, 0.0, 0.0, 0.0, 0.0, 0.0, 0.0, 0.0, 0.0, 0.0, 1.6635893255101311E9, 0.0, 2022-09-19 17:08:45.510
215.0, -18256.14491178333, -24908.046413427164, -34006.59221489337, -16793.625568583677, -15084.611187530898, 187500.0, -46788.54904038299, -10071.047850972158, 0.59, -0.708, 0.432, 192.0, 0.0, 0.0, 0.0, 0.0, 0.0, 0.0, 0.0, 0.0, 0.0, 1.6635893255140924E9, 0.0, 2022-09-19 17:08:45.514
216.0, -18288.733755199166, -24911.89091347348, -34017.94690107666, -16798.94528376404, -15086.5110858096, 187500.0, -46799.59080214391, -10081.106135977047, 0.59, -0.708, 0.432, 192.0, 0.0, 0.0, 0.0, 0.0, 0.0, 0.0, 0.0, 0.0, 0.0, 1.6635893255190964E9, 0.0, 2022-09-19 17:08:45.519
217.0, -18306.05635715203, -24904.35837559204, -34024.65242441326, -16816.71492060601, -15086.533437554055, 187500.0, -46792.080616006926, -10096.61824662903, 0.59, -0.708, 0.432, 192.0, 0.0, 0.0, 0.0, 0.0, 0.0, 0.0, 0.0, 0.0, 0.0, 1.663589325523188E9, 0.0, 2022-09-19 17:08:45.523
218.0, -18314.371206089403, -24897.183465621885, -34016.47168594261, -16819.106557262727, -15082.823047974474, 187500.0, -46780.122432723336, -10093.958389038848, 0.59, -0.708, 0.432, 192.0, 0.0, 0.0, 0.0, 0.0, 0.0, 0.0, 0.0, 0.0, 0.0, 1.6635893255271568E9, 0.0, 2022-09-19 17:08:45.527
219.0, -18352.279764685605, -24911.823858240114, -34008.02272653851, -16799.079394230772, -15076.117524637883, 187500.0, -46786.64914210429, -10083.90010403396, 0.59, -0.708, 0.432, 192.0, 0.0, 0.0, 0.0, 0.0, 0.0, 0.0, 0.0, 0.0, 0.0, 1.6635893255311513E9, 0.0, 2022-09-19 17:08:45.531
220.0, -18401.163029809362, -24929.526439848716, -34008.38035444979, -16794.89961801763, -15069.836684445942, 187500.0, -46788.50433689408, -10075.540551607675, 0.592, -0.708, 0.434, 192.0, 18.0, 128.0, 233.0, 224.0, 13.0, 144.0, 0.0, 0.0, 0.0, 1.663589325534119E9, 0.0, 2022-09-19 17:08:45.534
221.0, -18437.484614549234, -24938.243620186284, -34026.7311366476, -16809.450603658035, -15073.055335647505, 187500.0, -46801.445996933704, -10078.111002220036, 0.592, -0.708, 0.434, 192.0, 0.0, 0.0, 0.0, 0.0, 0.0, 0.0, 0.0, 0.0, 0.0, 1.6635893255382366E9, 0.0, 2022-09-19 17:08:45.538
222.0, -18437.84224246052, -24921.0327769557, -34028.76514539303, -16817.161955495114, -15066.394515799824, 187500.0, -46792.46059566267, -10078.08865047558, 0.592, -0.708, 0.434, 192.0, 0.0, 0.0, 0.0, 0.0, 0.0, 0.0, 0.0, 0.0, 0.0, 1.6635893255421464E9, 0.0, 2022-09-19 17:08:45.542
223.0, -18428.83448944503, -24904.06780291412, -34015.42115395322, -16813.786842082365, -15050.770646425564, 187500.0, -46781.46353739066, -10076.300510919156, 0.592, -0.708, 0.434, 192.0, 0.0, 0.0, 0.0, 0.0, 0.0, 0.0, 0.0, 0.0, 0.0, 1.6635893255471344E9, 0.0, 2022-09-19 17:08:45.547
224.0, -18449.93453621084, -24910.616864039526, -34002.50184565805, -16810.031749013873, -15050.904756892296, 187500.0, -46767.22547617263, -10088.169287224924, 0.592, -0.708, 0.434, 192.0, 0.0, 0.0, 0.0, 0.0, 0.0, 0.0, 0.0, 0.0, 0.0, 1.6635893255512087E9, 0.0, 2022-09-19 17:08:45.551
225.0, -18478.500065624725, -24920.94336997788, -34001.138389246276, -16808.645940857645, -15054.413980771778, 187500.0, -46766.89020000579, -10100.485098419798, 0.592, -0.708, 0.434, 192.0, 0.0, 0.0, 0.0, 0.0, 0.0, 0.0, 0.0, 0.0, 0.0, 1.6635893255551374E9, 0.0, 2022-09-19 17:08:45.555
226.0, -18508.42905145038, -24933.12507070602, -34008.08978177187, -16806.768394323397, -15057.520873251067, 187500.0, -46773.32750240892, -10096.841764073582, 0.592, -0.708, 0.434, 192.0, 0.0, 0.0, 0.0, 0.0, 0.0, 0.0, 0.0, 0.0, 0.0, 1.6635893255591233E9, 0.0, 2022-09-19 17:08:45.559
227.0, -18523.315313257615, -24936.634294585503, -34025.21121802464, -16812.80336532633, -15062.237091331137, 187500.0, -46783.58695311391, -10084.861229045538, 0.592, -0.708, 0.434, 192.0, 0.0, 0.0, 0.0, 0.0, 0.0, 0.0, 0.0, 0.0, 0.0, 1.6635893255621648E9, 0.0, 2022-09-19 17:08:45.562
228.0, -18522.91298185742, -24929.481736359805, -34032.587293694894, -16827.4214062001, -15064.092286120927, 187500.0, -46796.17098524225, -10092.684339604895, 0.592, -0.708, 0.434, 192.0, 0.0, 0.0, 0.0, 0.0, 0.0, 0.0, 0.0, 0.0, 0.0, 1.6635893255661523E9, 0.0, 2022-09-19 17:08:45.566
229.0, -18550.115054859525, -24938.869469031033, -34025.32297674692, -16813.98800778246, -15065.679259977254, 187500.0, -46794.315790452456, -10098.115813507535, 0.592, -0.708, 0.434, 192.0, 0.0, 0.0, 0.0, 0.0, 0.0, 0.0, 0.0, 0.0, 0.0, 1.6635893255702E9, 0.0, 2022-09-19 17:08:45.570
230.0, -18600.898218261984, -24964.484568176817, -34033.95075010666, -16814.41269092711, -15072.004803658105, 187500.0, -46794.315790452456, -10113.627924159518, 0.592, -0.714, 0.434, 192.0, 18.0, 128.0, 233.0, 176.0, 13.0, 144.0, 0.0, 0.0, 0.0, 1.66358932557421E9, 0.0, 2022-09-19 17:08:45.574
231.0, -18615.516259135755, -24959.18720474091, -34033.838991384386, -16808.6682926021, -15061.097152363916, 187500.0, -46795.5451363975, -10115.594877671585, 0.592, -0.714, 0.434, 192.0, 0.0, 0.0, 0.0, 0.0, 0.0, 0.0, 0.0, 0.0, 0.0, 1.6635893255791528E9, 0.0, 2022-09-19 17:08:45.579
232.0, -18612.610532356564, -24940.12116672053, -34012.85070334085, -16787.32237664728, -15030.564669437967, 187500.0, -46775.76384255455, -10078.267464431223, 0.592, -0.714, 0.434, 192.0, 0.0, 0.0, 0.0, 0.0, 0.0, 0.0, 0.0, 0.0, 0.0, 1.663589325583134E9, 0.0, 2022-09-19 17:08:45.583
233.0, -18612.029387000726, -24929.817012526633, -34021.99256682308, -16791.122173204683, -15022.316875733957, 187500.0, -46787.16323222676, -10063.962347979827, 0.592, -0.714, 0.434, 192.0, 0.0, 0.0, 0.0, 0.0, 0.0, 0.0, 0.0, 0.0, 0.0, 1.6635893255871623E9, 0.0, 2022-09-19 17:08:45.587
234.0, -18649.490910707824, -24948.167794724443, -34029.54745644897, -16801.314568676302, -15033.380989239335, 187500.0, -46800.663685877764, -10081.642577843973, 0.592, -0.714, 0.434, 192.0, 0.0, 0.0, 0.0, 0.0, 0.0, 0.0, 0.0, 0.0, 0.0, 1.6635893255902295E9, 0.0, 2022-09-19 17:08:45.590
235.0, -18688.204132104413, -24960.997696041788, -34045.75247117907, -16809.85293505823, -15039.907698620285, 187500.0, -46810.4984534381, -10096.99822628477, 0.592, -0.714, 0.434, 192.0, 0.0, 0.0, 0.0, 0.0, 0.0, 0.0, 0.0, 0.0, 0.0, 1.6635893255941586E9, 0.0, 2022-09-19 17:08:45.594
236.0, -18703.515077056298, -24958.695466362893, -34022.372546478815, -16806.209600712016, -15036.577288696444, 187500.0, -46782.983456013615, -10098.920476307927, 0.592, -0.714, 0.434, 192.0, 0.0, 0.0, 0.0, 0.0, 0.0, 0.0, 0.0, 0.0, 0.0, 1.6635893255981543E9, 0.0, 2022-09-19 17:08:45.598
237.0, -18702.196324133438, -24945.954972023366, -34013.58831090788, -16805.270827444892, -15028.597715925898, 187500.0, -46779.78715655651, -10089.398633169965, 0.592, -0.714, 0.434, 192.0, 0.0, 0.0, 0.0, 0.0, 0.0, 0.0, 0.0, 0.0, 0.0, 1.6635893256022007E9, 0.0, 2022-09-19 17:08:45.602
238.0, -18712.299312627234, -24948.056036002166, -34029.569808193424, -16827.153185266638, -15046.389704512323, 187500.0, -46791.25360146208, -10087.923418035916, 0.592, -0.714, 0.434, 192.0, 0.0, 0.0, 0.0, 0.0, 0.0, 0.0, 0.0, 0.0, 0.0, 1.663589325607227E9, 0.0, 2022-09-19 17:08:45.607
239.0, -18758.835644583185, -24972.978231069832, -34020.49499994457, -16825.856784088228, -15058.951384896207, 187500.0, -46790.00190377259, -10099.345159452578, 0.592, -0.714, 0.434, 192.0, 0.0, 0.0, 0.0, 0.0, 0.0, 0.0, 0.0, 0.0, 0.0, 1.6635893256111767E9, 0.0, 2022-09-19 17:08:45.611
240.0, -18801.25925555936, -24989.272652777752, -34018.2821772435, -16826.70615037753, -15063.064105875983, 187500.0, -46793.824052074444, -10109.38109271301, 0.588, -0.71, 0.434, 192.0, 18.0, 96.0, 233.0, 208.0, 13.0, 144.0, 0.0, 0.0, 0.0, 1.663589325615184E9, 0.0, 2022-09-19 17:08:45.615
241.0, -18809.797621941285, -24976.08512354912, -34008.737982361075, -16814.47974616048, -15048.155492324293, 187500.0, -46781.12826122383, -10098.495793163276, 0.588, -0.71, 0.434, 192.0, 0.0, 0.0, 0.0, 0.0, 0.0, 0.0, 0.0, 0.0, 0.0, 1.663589325618347E9, 0.0, 2022-09-19 17:08:45.618
242.0, -18809.61880798564, -24959.544832652195, -34009.49794167256, -16814.792670582854, -15038.007800341584, 187500.0, -46779.67539783423, -10080.390880154477, 0.588, -0.71, 0.434, 192.0, 0.0, 0.0, 0.0, 0.0, 0.0, 0.0, 0.0, 0.0, 0.0, 1.6635893256222625E9, 0.0, 2022-09-19 17:08:45.622
243.0, -18820.638218002106, -24957.644934373493, -34020.33853773338, -16822.369911953203, -15038.007800341584, 187500.0, -46790.806566572974, -10071.271368416712, 0.588, -0.71, 0.434, 192.0, 0.0, 0.0, 0.0, 0.0, 0.0, 0.0, 0.0, 0.0, 0.0, 1.663589325626285E9, 0.0, 2022-09-19 17:08:45.626
244.0, -18867.487474380432, -24983.014164330267, -34015.532912675495, -16826.661446888622, -15038.097207319404, 187500.0, -46792.907630551774, -10088.728080836307, 0.588, -0.71, 0.434, 192.0, 0.0, 0.0, 0.0, 0.0, 0.0, 0.0, 0.0, 0.0, 0.0, 1.663589325632259E9, 0.0, 2022-09-19 17:08:45.632
245.0, -18914.850820881227, -25001.409650016984, -34004.73702010358, -16822.504022419933, -15029.760006637574, 187500.0, -46788.97372352764, -10100.462746675343, 0.588, -0.71, 0.434, 192.0, 0.0, 0.0, 0.0, 0.0, 0.0, 0.0, 0.0, 0.0, 0.0, 1.6635893256362815E9, 0.0, 2022-09-19 17:08:45.636
246.0, -18940.309457815823, -25002.795458173212, -34016.20346500915, -16814.166821738105, -15032.285753761025, 187500.0, -46790.13601423932, -10098.942828052383, 0.588, -0.71, 0.434, 192.0, 0.0, 0.0, 0.0, 0.0, 0.0, 0.0, 0.0, 0.0, 0.0, 1.6635893256392665E9, 0.0, 2022-09-19 17:08:45.639
247.0, -18944.645696240153, -24992.915987123968, -34034.50954371805, -16815.597333383244, -15035.705570662687, 187500.0, -46801.13307251133, -10099.278104219211, 0.588, -0.71, 0.434, 192.0, 0.0, 0.0, 0.0, 0.0, 0.0, 0.0, 0.0, 0.0, 0.0, 1.6635893256433475E9, 0.0, 2022-09-19 17:08:45.643
248.0, -18944.623344495696, -24981.85187361859, -34033.19079079518, -16818.391301440155, -15029.78235838203, 187500.0, -46794.11462475236, -10111.750377625272, 0.588, -0.71, 0.434, 192.0, 0.0, 0.0, 0.0, 0.0, 0.0, 0.0, 0.0, 0.0, 0.0, 1.6635893256462808E9, 0.0, 2022-09-19 17:08:45.646
249.0, -18988.678632817107, -25001.432001761437, -34007.70980211614, -16803.415632655102, -15031.145814793805, 187500.0, -46790.56069738397, -10119.551136440175, 0.588, -0.71, 0.434, 192.0, 0.0, 0.0, 0.0, 0.0, 0.0, 0.0, 0.0, 0.0, 0.0, 1.6635893256502628E9, 0.0, 2022-09-19 17:08:45.650
250.0, -19049.922412624648, -25029.0587579082, -33998.277365956, -16796.08426047376, -15032.419864227757, 187500.0, -46782.96110426916, -10123.172119041934, 0.594, -0.716, 0.428, 192.0, 18.0, 144.0, 233.0, 160.0, 13.0, 96.0, 0.0, 0.0, 0.0, 1.6635893256542969E9, 0.0, 2022-09-19 17:08:45.654
251.0, -19076.610395504285, -25028.499964296814, -33990.498958885546, -16790.40691738211, -15021.333398977924, 187500.0, -46772.433432630714, -10112.867964848037, 0.594, -0.716, 0.428, 192.0, 0.0, 0.0, 0.0, 0.0, 0.0, 0.0, 0.0, 0.0, 0.0, 1.6635893256582766E9, 0.0, 2022-09-19 17:08:45.658
252.0, -19096.369337602777, -25028.745833485824, -33999.70787760113, -16787.27767315837, -15027.010742069573, 187500.0, -46777.01554024405, -10100.261580975244, 0.594, -0.716, 0.428, 192.0, 0.0, 0.0, 0.0, 0.0, 0.0, 0.0, 0.0, 0.0, 0.0, 1.6635893256633255E9, 0.0, 2022-09-19 17:08:45.663
253.0, -19123.50435537152, -25032.81385097669, -34009.18501725019, -16796.03955698485, -15042.969887610661, 187500.0, -46778.40134840028, -10109.403444457466, 0.594, -0.716, 0.428, 192.0, 0.0, 0.0, 0.0, 0.0, 0.0, 0.0, 0.0, 0.0, 0.0, 1.6635893256673236E9, 0.0, 2022-09-19 17:08:45.667
254.0, -19168.207844282133, -25043.453281337417, -34001.49601715756, -16789.736365048455, -15045.875614389852, 187500.0, -46772.701653564174, -10126.658991176962, 0.594, -0.716, 0.428, 192.0, 0.0, 0.0, 0.0, 0.0, 0.0, 0.0, 0.0, 0.0, 0.0, 1.6635893256703103E9, 0.0, 2022-09-19 17:08:45.670
255.0, -19215.146507638277, -25053.66802855349, -33987.39206640626, -16783.880208001163, -15034.677390417743, 187500.0, -46762.6880720482, -10133.409218002465, 0.594, -0.716, 0.428, 192.0, 0.0, 0.0, 0.0, 0.0, 0.0, 0.0, 0.0, 0.0, 0.0, 1.6635893256743412E9, 0.0, 2022-09-19 17:08:45.674
0.0, -19249.70230456618, -25058.29483965574, -33988.53200537348, -16780.169818421582, -15027.569535680956, 187500.0, -46763.22451391513, -10130.168215056447, 0.594, -0.716, 0.428, 192.0, 0.0, 0.0, 0.0, 0.0, 0.0, 0.0, 0.0, 0.0, 0.0, 1.6635893256783652E9, 0.0, 2022-09-19 17:08:45.678
1.0, -19267.360182685876, -25054.048008209233, -34003.46297066963, -16784.684870801553, -15028.843585114908, 187500.0, -46771.60641808587, -10125.29553476519, 0.594, -0.716, 0.428, 192.0, 0.0, 0.0, 0.0, 0.0, 0.0, 0.0, 0.0, 0.0, 0.0, 1.6635893256823523E9, 0.0, 2022-09-19 17:08:45.682
2.0, -19274.28922346702, -25044.72733077137, -34001.71953460211, -16784.03667021235, -15024.462643201667, 187500.0, -46777.10494722187, -10109.962238068849, 0.594, -0.716, 0.428, 192.0, 0.0, 0.0, 0.0, 0.0, 0.0, 0.0, 0.0, 0.0, 0.0, 1.6635893256863143E9, 0.0, 2022-09-19 17:08:45.686
3.0, -19301.625406935862, -25047.878926739566, -33982.76525530401, -16773.531350318357, -15016.885401831318, 187500.0, -46763.51508659305, -10103.48023217681, 0.594, -0.716, 0.428, 192.0, 0.0, 0.0, 0.0, 0.0, 0.0, 0.0, 0.0, 0.0, 0.0, 1.663589325690338E9, 0.0, 2022-09-19 17:08:45.690
4.0, -19332.761386962102, -25052.170461674985, -33981.6700198257, -16767.630489782154, -15008.704663360675, 187500.0, -46763.20216217067, -10106.56477291164, 0.592, -0.712, 0.432, 192.0, 18.0, 128.0, 233.0, 192.0, 13.0, 128.0, 0.0, 0.0, 0.0, 1.6635893256954403E9, 0.0, 2022-09-19 17:08:45.695
5.0, -19355.090779672955, -25054.807967520712, -34002.948880547156, -16784.148428934626, -15016.55012566449, 187500.0, -46773.34985415338, -10121.67455216343, 0.592, -0.712, 0.432, 192.0, 0.0, 0.0, 0.0, 0.0, 0.0, 0.0, 0.0, 0.0, 0.0, 1.6635893256993442E9, 0.0, 2022-09-19 17:08:45.699
6.0, -19356.78951225156, -25044.548516815725, -34006.77102884901, -16787.635301069655, -15014.583172152421, 187500.0, -46771.941694252695, -10116.33248523861, 0.592, -0.712, 0.432, 192.0, 0.0, 0.0, 0.0, 0.0, 0.0, 0.0, 0.0, 0.0, 0.0, 1.6635893257023785E9, 0.0, 2022-09-19 17:08:45.702
7.0, -19359.35996286392, -25037.03833067874, -34013.2306829966, -16790.764545293398, -15014.985503552618, 187500.0, -46784.07869149193, -10109.604610157563, 0.592, -0.712, 0.432, 192.0, 0.0, 0.0, 0.0, 0.0, 0.0, 0.0, 0.0, 0.0, 0.0, 1.663589325706359E9, 0.0, 2022-09-19 17:08:45.706
8.0, -19387.947844022256, -25047.253077894817, -34021.12084878932, -16797.023033740883, -15025.490823446611, 187500.0, -46792.147671240295, -10126.52488071023, 0.592, -0.712, 0.432, 192.0, 0.0, 0.0, 0.0, 0.0, 0.0, 0.0, 0.0, 0.0, 0.0, 1.663589325710386E9, 0.0, 2022-09-19 17:08:45.710
9.0, -19408.869076832423, -25045.353179616115, -34010.61552889532, -16791.390394138147, -15019.522907677045, 187500.0, -46772.299322163984, -10120.154633540467, 0.592, -0.712, 0.432, 192.0, 0.0, 0.0, 0.0, 0.0, 0.0, 0.0, 0.0, 0.0, 0.0, 1.6635893257163584E9, 0.0, 2022-09-19 17:08:45.716
10.0, -19413.026501301112, -25030.824545720166, -33990.566014118915, -16781.55562657781, -15002.15560223527, 187500.0, -46759.49177259109, -10106.43066244491, 0.592, -0.712, 0.432, 192.0, 0.0, 0.0, 0.0, 0.0, 0.0, 0.0, 0.0, 0.0, 0.0, 1.6635893257204585E9, 0.0, 2022-09-19 17:08:45.720
11.0, -19414.61347515744, -25023.29200783873, -33999.663174112226, -16792.79855403883, -15003.49670690259, 187500.0, -46772.61224658635, -10098.898124563471, 0.592, -0.712, 0.432, 192.0, 0.0, 0.0, 0.0, 0.0, 0.0, 0.0, 0.0, 0.0, 0.0, 1.66358932572446E9, 0.0, 2022-09-19 17:08:45.724
12.0, -19409.22670474371, -25016.8547054356, -34008.6262236388, -16801.158106465115, -15011.230410484126, 187500.0, -46782.06703449095, -10096.841764073582, 0.592, -0.712, 0.432, 192.0, 0.0, 0.0, 0.0, 0.0, 0.0, 0.0, 0.0, 0.0, 0.0, 1.6635893257274885E9, 0.0, 2022-09-19 17:08:45.727
13.0, -19423.308303750553, -25021.10153688211, -34013.92358707471, -16806.3660629232, -15025.982561824629, 187500.0, -46784.816299058955, -10118.835880617606, 0.592, -0.712, 0.432, 192.0, 0.0, 0.0, 0.0, 0.0, 0.0, 0.0, 0.0, 0.0, 0.0, 1.663589325730494E9, 0.0, 2022-09-19 17:08:45.730
14.0, -19438.507489980162, -25023.67198749447, -34006.234586982086, -16804.93555127806, -15031.995181083106, 187500.0, -46776.85907803287, -10121.652200418974, 0.602, -0.708, 0.436, 192.0, 18.0, 208.0, 233.0, 224.0, 13.0, 160.0, 0.0, 0.0, 0.0, 1.6635893257345295E9, 0.0, 2022-09-19 17:08:45.734
15.0, -19444.7883301721, -25020.43098454845, -34006.32399395991, -16808.89181004665, -15030.072931059949, 187500.0, -46781.105909479375, -10108.33056072361, 0.602, -0.708, 0.436, 192.0, 0.0, 0.0, 0.0, 0.0, 0.0, 0.0, 0.0, 0.0, 0.0, 1.6635893257385185E9, 0.0, 2022-09-19 17:08:45.738
16.0, -19412.400652456363, -24987.640975432514, -34016.00229930905, -16809.69647284704, -15015.611352397365, 187500.0, -46788.28081944952, -10087.543438380175, 0.602, -0.708, 0.436, 192.0, 0.0, 0.0, 0.0, 0.0, 0.0, 0.0, 0.0, 0.0, 0.0, 1.6635893257425077E9, 0.0, 2022-09-19 17:08:45.742
17.0, -19395.189809225776, -24976.554510182683, -34038.28698853099, -16829.27660098989, -15026.027265313538, 187500.0, -46803.27883997904, -10096.931171051405, 0.602, -0.708, 0.436, 192.0, 0.0, 0.0, 0.0, 0.0, 0.0, 0.0, 0.0, 0.0, 0.0, 1.6635893257465093E9, 0.0, 2022-09-19 17:08:45.746
18.0, -19409.45022218826, -24992.357193512584, -34046.24420955708, -16840.273659261904, -15041.897003876808, 187500.0, -46810.543156927015, -10114.14201428199, 0.602, -0.708, 0.436, 192.0, 0.0, 0.0, 0.0, 0.0, 0.0, 0.0, 0.0, 0.0, 0.0, 1.6635893257505147E9, 0.0, 2022-09-19 17:08:45.750
19.0, -19424.492946206683, -25006.70701345289, -34025.77001163602, -16825.208583499025, -15028.798881625997, 187500.0, -46792.97468578514, -10104.866040333038, 0.602, -0.708, 0.436, 192.0, 0.0, 0.0, 0.0, 0.0, 0.0, 0.0, 0.0, 0.0, 0.0, 1.663589325753571E9, 0.0, 2022-09-19 17:08:45.753
20.0, -19408.623207643417, -24995.352327269597, -34034.59895069587, -16819.821813085295, -15014.136137263315, 187500.0, -46798.27204922105, -10084.548304623164, 0.602, -0.708, 0.436, 192.0, 0.0, 0.0, 0.0, 0.0, 0.0, 0.0, 0.0, 0.0, 0.0, 1.663589325758488E9, 0.0, 2022-09-19 17:08:45.758
21.0, -19373.620375826406, -24973.73819038131, -34051.1392415928, -16821.028807285882, -15013.085605273916, 187500.0, -46806.54219466951, -10067.717441048319, 0.602, -0.708, 0.436, 192.0, 0.0, 0.0, 0.0, 0.0, 0.0, 0.0, 0.0, 0.0, 0.0, 1.6635893257624512E9, 0.0, 2022-09-19 17:08:45.762
22.0, -19340.986828921657, -24954.04630351619, -34036.8341251414, -16809.361196680213, -15005.754233092575, 187500.0, -46797.601496887386, -10054.015821697214, 0.602, -0.708, 0.436, 192.0, 0.0, 0.0, 0.0, 0.0, 0.0, 0.0, 0.0, 0.0, 0.0, 1.6635893257665186E9, 0.0, 2022-09-19 17:08:45.766
23.0, -19340.897421943835, -24960.46125417486, -34025.032404068996, -16807.260132701413, -15013.309122718469, 187500.0, -46795.03104627503, -10060.85545550054, 0.602, -0.708, 0.436, 192.0, 0.0, 0.0, 0.0, 0.0, 0.0, 0.0, 0.0, 0.0, 0.0, 1.6635893257704964E9, 0.0, 2022-09-19 17:08:45.770
24.0, -19336.762349219603, -24967.814978100658, -34032.363776250335, -16810.724653091987, -15021.02047455555, 187500.0, -46801.35658995588, -10068.589159082076, 0.602, -0.708, 0.436, 192.0, 0.0, 0.0, 0.0, 0.0, 0.0, 0.0, 0.0, 0.0, 0.0, 1.6635893257745848E9, 0.0, 2022-09-19 17:08:45.774
25.0, -19302.564180202982, -24956.259126217265, -34035.42596524071, -16809.987045524962, -15024.775567624041, 187500.0, -46791.812395073466, -10063.157685179434, 0.598, -0.708, 0.432, 192.0, 18.0, 176.0, 233.0, 224.0, 13.0, 128.0, 0.0, 0.0, 0.0, 1.663589325777548E9, 0.0, 2022-09-19 17:08:45.777
26.0, -19251.915127267257, -24933.572105595125, -34051.1392415928, -16818.3689496957, -15033.090416561416, 187500.0, -46797.93677305422, -10059.447295599854, 0.598, -0.708, 0.432, 192.0, 0.0, 0.0, 0.0, 0.0, 0.0, 0.0, 0.0, 0.0, 0.0, 1.6635893257815394E9, 0.0, 2022-09-19 17:08:45.781
27.0, -19216.956998939157, -24926.352492136062, -34061.42104404224, -16830.505946934933, -15047.999030113106, 187500.0, -46804.172909757246, -10073.551246351153, 0.598, -0.708, 0.432, 192.0, 0.0, 0.0, 0.0, 0.0, 0.0, 0.0, 0.0, 0.0, 0.0, 1.663589325785572E9, 0.0, 2022-09-19 17:08:45.785
28.0, -19206.786955211992, -24936.477832374316, -34061.041064386496, -16832.003513813437, -15060.69482096372, 187500.0, -46811.19135751622, -10092.170249482424, 0.598, -0.708, 0.432, 192.0, 0.0, 0.0, 0.0, 0.0, 0.0, 0.0, 0.0, 0.0, 0.0, 1.6635893257906592E9, 0.0, 2022-09-19 17:08:45.790
29.0, -19184.97165262361, -24935.382596896005, -34055.02844512802, -16825.94619106605, -15056.895024406318, 187500.0, -46809.15734877078, -10082.179019710902, 0.598, -0.708, 0.432, 192.0, 0.0, 0.0, 0.0, 0.0, 0.0, 0.0, 0.0, 0.0, 0.0, 1.6635893257955544E9, 0.0, 2022-09-19 17:08:45.795
30.0, -19143.44211142565, -24925.92780899141, -34050.468689259134, -16815.306760705324, -15044.802730655996, 187500.0, -46802.51888066756, -10048.383182094478, 0.598, -0.708, 0.432, 192.0, 0.0, 0.0, 0.0, 0.0, 0.0, 0.0, 0.0, 0.0, 0.0, 1.663589325798544E9, 0.0, 2022-09-19 17:08:45.798
31.0, -19077.12448562676, -24898.949253433857, -34047.9876456246, -16820.022978785393, -15038.74540790861, 187500.0, -46792.30413345148, -10045.812731482118, 0.598, -0.708, 0.432, 192.0, 0.0, 0.0, 0.0, 0.0, 0.0, 0.0, 0.0, 0.0, 0.0, 1.6635893258026135E9, 0.0, 2022-09-19 17:08:45.802
32.0, -19036.01962757345, -24891.863750441524, -34050.200468325675, -16827.309647477825, -15052.827006915451, 187500.0, -46799.009656788076, -10057.390935109966, 0.598, -0.708, 0.432, 192.0, 0.0, 0.0, 0.0, 0.0, 0.0, 0.0, 0.0, 0.0, 0.0, 1.663589325806651E9, 0.0, 2022-09-19 17:08:45.806
33.0, -19038.075988063334, -24914.17079140792, -34061.30928531996, -16837.14441503816, -15064.31580356548, 187500.0, -46812.800683117, -10072.701880061852, 0.598, -0.708, 0.432, 192.0, 0.0, 0.0, 0.0, 0.0, 0.0, 0.0, 0.0, 0.0, 0.0, 1.6635893258095424E9, 0.0, 2022-09-19 17:08:45.809
34.0, -19025.33549372381, -24923.02208221222, -34073.78155872602, -16847.850900632253, -15066.282757077546, 187500.0, -46817.114569796875, -10082.246074944267, 0.598, -0.708, 0.432, 192.0, 0.0, 0.0, 0.0, 0.0, 0.0, 0.0, 0.0, 0.0, 0.0, 1.6635893258135521E9, 0.0, 2022-09-19 17:08:45.813
35.0, -18977.391001867178, -24900.469172056815, -34065.77963421102, -16832.674066147098, -15056.336230794936, 187500.0, -46818.433322719735, -10055.021650197703, 0.598, -0.6980000000000001, 0.42, 192.0, 18.0, 176.0, 234.0, 48.0, 13.0, 32.0, 0.0, 0.0, 0.0, 1.6635893258175955E9, 0.0, 2022-09-19 17:08:45.817
36.0, -18923.478594240976, -24876.10577060053, -34067.053683644976, -16831.355313224234, -15044.6015649559, 187500.0, -46811.83955810542, -10031.954649919826, 0.598, -0.6980000000000001, 0.42, 192.0, 0.0, 0.0, 0.0, 0.0, 0.0, 0.0, 0.0, 0.0, 0.0, 1.6635893258226027E9, 0.0, 2022-09-19 17:08:45.822
37.0, -18882.418439676578, -24865.30987802862, -34066.070206888944, -16836.563269682323, -15036.040846829517, 187500.0, -46810.967840071666, -10025.472644027788, 0.598, -0.6980000000000001, 0.42, 192.0, 0.0, 0.0, 0.0, 0.0, 0.0, 0.0, 0.0, 0.0, 0.0, 1.663589325826589E9, 0.0, 2022-09-19 17:08:45.826
38.0, -18870.97434651546, -24874.429389766385, -34074.943849437695, -16846.129816309192, -15042.433445743734, 187500.0, -46817.181625030236, -10041.834120969072, 0.598, -0.6980000000000001, 0.42, 192.0, 0.0, 0.0, 0.0, 0.0, 0.0, 0.0, 0.0, 0.0, 0.0, 1.6635893258306887E9, 0.0, 2022-09-19 17:08:45.830
39.0, -18851.997715472906, -24875.25640431123, -34062.560983009455, -16843.112330807726, -15039.058332330982, 187500.0, -46804.30702022398, -10037.944917433848, 0.598, -0.6980000000000001, 0.42, 192.0, 0.0, 0.0, 0.0, 0.0, 0.0, 0.0, 0.0, 0.0, 0.0, 1.663589325833583E9, 0.0, 2022-09-19 17:08:45.833
40.0, -18817.978360411926, -24863.34292451655, -34067.970105167646, -16842.531185451888, -15036.331419507434, 187500.0, -46808.62090690385, -10031.619373752997, 0.598, -0.6980000000000001, 0.42, 192.0, 0.0, 0.0, 0.0, 0.0, 0.0, 0.0, 0.0, 0.0, 0.0, 1.663589325837628E9, 0.0, 2022-09-19 17:08:45.837
41.0, -18765.76468536433, -24841.907601583913, -34086.54440481, -16861.507816494443, -15048.289602791025, 187500.0, -46821.27199426556, -10045.455103570832, 0.598, -0.6980000000000001, 0.42, 192.0, 0.0, 0.0, 0.0, 0.0, 0.0, 0.0, 0.0, 0.0, 0.0, 1.6635893258417003E9, 0.0, 2022-09-19 17:08:45.841
42.0, -18746.229260710392, -24850.62478192148, -34085.20330014268, -16860.323174038313, -15061.700649464208, 187500.0, -46830.57031995897, -10054.395801352955, 0.598, -0.6980000000000001, 0.42, 192.0, 0.0, 0.0, 0.0, 0.0, 0.0, 0.0, 0.0, 0.0, 0.0, 1.6635893258466563E9, 0.0, 2022-09-19 17:08:45.846
43.0, -18748.576193878198, -24870.16020657542, -34079.83888147341, -16846.46509247602, -15054.369277282869, 187500.0, -46837.90169214031, -10051.199501895846, 0.598, -0.6980000000000001, 0.42, 192.0, 0.0, 0.0, 0.0, 0.0, 0.0, 0.0, 0.0, 0.0, 0.0, 1.663589325850635E9, 0.0, 2022-09-19 17:08:45.850
44.0, -18737.847356539653, -24876.217529322807, -34080.37532334034, -16849.19200529957, -15056.447989517212, 187500.0, -46820.73555239863, -10059.536702577676, 0.598, -0.6980000000000001, 0.42, 192.0, 0.0, 0.0, 0.0, 0.0, 0.0, 0.0, 0.0, 0.0, 0.0, 1.6635893258546712E9, 0.0, 2022-09-19 17:08:45.854
45.0, -18723.69870229944, -24881.6713549699, -34088.33254436643, -16859.4291042601, -15071.423658302267, 187500.0, -46818.54508144201, -10065.728135791795, 0.6, -0.704, 0.432, 192.0, 18.0, 192.0, 234.0, 0.0, 13.0, 128.0, 0.0, 0.0, 0.0, 1.663589325858693E9, 0.0, 2022-09-19 17:08:45.858
46.0, -18684.404335547013, -24868.68499144137, -34089.38307635583, -16863.072438606316, -15082.755992741108, 187500.0, -46810.386694715824, -10075.451144629855, 0.6, -0.704, 0.432, 192.0, 0.0, 0.0, 0.0, 0.0, 0.0, 0.0, 0.0, 0.0, 0.0, 1.66358932586269E9, 0.0, 2022-09-19 17:08:45.862
47.0, -18660.532672468744, -24868.081494341077, -34071.12170113584, -16848.230880287992, -15085.393498586835, 187500.0, -46800.01548528856, -10064.632900313485, 0.6, -0.704, 0.432, 192.0, 0.0, 0.0, 0.0, 0.0, 0.0, 0.0, 0.0, 0.0, 0.0, 1.6635893258656948E9, 0.0, 2022-09-19 17:08:45.865
48.0, -18671.999117374315, -24890.656756240936, -34058.850593429874, -16830.371836468203, -15078.352699083413, 187500.0, -46800.21665098866, -10055.89336823146, 0.6, -0.704, 0.432, 192.0, 0.0, 0.0, 0.0, 0.0, 0.0, 0.0, 0.0, 0.0, 0.0, 1.6635893258697047E9, 0.0, 2022-09-19 17:08:45.869
49.0, -18671.574434229664, -24899.26217785623, -34063.07507313193, -16831.578830668786, -15072.31772808048, 187500.0, -46806.51984292506, -10065.70578404734, 0.6, -0.704, 0.432, 192.0, 0.0, 0.0, 0.0, 0.0, 0.0, 0.0, 0.0, 0.0, 0.0, 1.6635893258737516E9, 0.0, 2022-09-19 17:08:45.873
50.0, -18657.202262544903, -24899.061012156133, -34079.637715773315, -16842.01709532942, -15081.101963651416, 187500.0, -46813.2477180061, -10078.736851064785, 0.6, -0.704, 0.432, 192.0, 0.0, 0.0, 0.0, 0.0, 0.0, 0.0, 0.0, 0.0, 0.0, 1.6635893258787453E9, 0.0, 2022-09-19 17:08:45.878
51.0, -18620.59010512711, -24885.493503271762, -34083.951602453184, -16841.279487762393, -15075.692841493232, 187500.0, -46806.72100862515, -10072.65717657294, 0.6, -0.704, 0.432, 192.0, 0.0, 0.0, 0.0, 0.0, 0.0, 0.0, 0.0, 0.0, 0.0, 1.663589325882785E9, 0.0, 2022-09-19 17:08:45.882
52.0, -18602.77576479623, -24888.39923005095, -34060.16934635274, -16833.791653369863, -15064.472265776667, 187500.0, -46790.35953168387, -10071.450182372355, 0.6, -0.704, 0.432, 192.0, 0.0, 0.0, 0.0, 0.0, 0.0, 0.0, 0.0, 0.0, 0.0, 1.6635893258858242E9, 0.0, 2022-09-19 17:08:45.885
53.0, -18603.602779341076, -24900.424468567904, -34059.901125419274, -16830.66240914612, -15060.31484130798, 187500.0, -46797.40033118729, -10088.593970369575, 0.6, -0.704, 0.432, 192.0, 0.0, 0.0, 0.0, 0.0, 0.0, 0.0, 0.0, 0.0, 0.0, 1.663589325889708E9, 0.0, 2022-09-19 17:08:45.889
54.0, -18601.121735706536, -24908.471096571815, -34060.348160308386, -16828.98602831197, -15053.944594138216, 187500.0, -46795.5451363975, -10092.37141518252, 0.6, -0.704, 0.432, 192.0, 0.0, 0.0, 0.0, 0.0, 0.0, 0.0, 0.0, 0.0, 0.0, 1.6635893258936777E9, 0.0, 2022-09-19 17:08:45.893
55.0, -18590.079973945616, -24910.616864039526, -34058.20239284067, -16832.785824869374, -15042.276983532547, 187500.0, -46781.59764785739, -10078.669795831418, 0.594, -0.7020000000000001, 0.432, 192.0, 18.0, 144.0, 234.0, 16.0, 13.0, 128.0, 0.0, 0.0, 0.0, 1.663589325897843E9, 0.0, 2022-09-19 17:08:45.897
56.0, -18563.280232343703, -24903.50900930274, -34066.80781445597, -16843.022923829903, -15051.821178414963, 187500.0, -46787.83378456042, -10072.008975983737, 0.594, -0.7020000000000001, 0.432, 192.0, 0.0, 0.0, 0.0, 0.0, 0.0, 0.0, 0.0, 0.0, 0.0, 1.66358932590182E9, 0.0, 2022-09-19 17:08:45.901
57.0, -18547.38814203598, -24902.950215691355, -34065.4890615331, -16845.012229086427, -15063.533492509545, 187500.0, -46794.42754917473, -10077.306339419645, 0.594, -0.7020000000000001, 0.432, 192.0, 0.0, 0.0, 0.0, 0.0, 0.0, 0.0, 0.0, 0.0, 0.0, 1.6635893259067993E9, 0.0, 2022-09-19 17:08:45.906
58.0, -18555.457121784344, -24914.908398974945, -34055.45312827267, -16838.66433366112, -15061.275966319557, 187500.0, -46791.3430084399, -10083.497772633764, 0.594, -0.7020000000000001, 0.432, 192.0, 0.0, 0.0, 0.0, 0.0, 0.0, 0.0, 0.0, 0.0, 0.0, 1.6635893259108417E9, 0.0, 2022-09-19 17:08:45.910
59.0, -18558.742828219274, -24922.373881623018, -34047.965293880145, -16840.407769728634, -15055.755085439097, 187500.0, -46782.78229031352, -10090.158592481446, 0.594, -0.7020000000000001, 0.432, 192.0, 0.0, 0.0, 0.0, 0.0, 0.0, 0.0, 0.0, 0.0, 0.0, 1.6635893259138312E9, 0.0, 2022-09-19 17:08:45.913
60.0, -18552.618450238522, -24926.397195624973, -34062.717445220645, -16853.975278613005, -15074.88817869284, 187500.0, -46796.148633497796, -10094.070147761126, 0.594, -0.7020000000000001, 0.432, 192.0, 0.0, 0.0, 0.0, 0.0, 0.0, 0.0, 0.0, 0.0, 0.0, 1.6635893259177637E9, 0.0, 2022-09-19 17:08:45.917
61.0, -18533.038322095672, -24925.234904913297, -34088.35489611088, -16872.750743955465, -15098.89395223784, 187500.0, -46818.47802620864, -10094.874810561516, 0.594, -0.7020000000000001, 0.432, 192.0, 0.0, 0.0, 0.0, 0.0, 0.0, 0.0, 0.0, 0.0, 0.0, 1.663589325921729E9, 0.0, 2022-09-19 17:08:45.921
62.0, -18523.94116210236, -24929.21351542634, -34075.61440177136, -16873.711868967042, -15099.788022016051, 187500.0, -46802.563584156465, -10106.296551978177, 0.594, -0.7020000000000001, 0.432, 192.0, 0.0, 0.0, 0.0, 0.0, 0.0, 0.0, 0.0, 0.0, 0.0, 1.6635893259259305E9, 0.0, 2022-09-19 17:08:45.925
63.0, -18542.604868722545, -24949.55360288067, -34052.703863704664, -16865.95581364105, -15085.08057416446, 187500.0, -46784.41396765876, -10113.069130548136, 0.594, -0.7020000000000001, 0.432, 192.0, 0.0, 0.0, 0.0, 0.0, 0.0, 0.0, 0.0, 0.0, 0.0, 1.6635893259297936E9, 0.0, 2022-09-19 17:08:45.929
64.0, -18549.220985081316, -24958.717818107347, -34047.74177643559, -16854.690534435576, -15060.873634919362, 187500.0, -46776.702615821676, -10090.85149655956, 0.594, -0.7020000000000001, 0.432, 192.0, 0.0, 0.0, 0.0, 0.0, 0.0, 0.0, 0.0, 0.0, 0.0, 1.6635893259348705E9, 0.0, 2022-09-19 17:08:45.934
65.0, -18538.983886120783, -24955.119187250042, -34072.082826147416, -16872.415467788633, -15060.292489563524, 187500.0, -46797.31092420947, -10105.916572322438, 0.598, -0.708, 0.43, 192.0, 18.0, 176.0, 233.0, 224.0, 13.0, 112.0, 0.0, 0.0, 0.0, 1.6635893259388683E9, 0.0, 2022-09-19 17:08:45.938
66.0, -18522.53300220168, -24947.720759835334, -34081.448207074194, -16872.86250267774, -15060.31484130798, 187500.0, -46800.55192715549, -10093.019615771726, 0.598, -0.708, 0.43, 192.0, 0.0, 0.0, 0.0, 0.0, 0.0, 0.0, 0.0, 0.0, 0.0, 1.6635893259418805E9, 0.0, 2022-09-19 17:08:45.941
67.0, -18517.52621144369, -24946.46906214584, -34067.43366330071, -16860.323174038313, -15053.765780182575, 187500.0, -46789.59957237239, -10083.095441233569, 0.598, -0.708, 0.43, 192.0, 0.0, 0.0, 0.0, 0.0, 0.0, 0.0, 0.0, 0.0, 0.0, 1.6635893259458103E9, 0.0, 2022-09-19 17:08:45.945
68.0, -18537.441615753367, -24963.143463509496, -34080.50943380707, -16860.792560671875, -15063.421733787267, 187500.0, -46807.07863653644, -10095.925342550916, 0.598, -0.708, 0.43, 192.0, 0.0, 0.0, 0.0, 0.0, 0.0, 0.0, 0.0, 0.0, 0.0, 1.6635893259498377E9, 0.0, 2022-09-19 17:08:45.949
69.0, -18548.19280483637, -24973.00058281429, -34092.31115487947, -16867.073400863817, -15071.267196091081, 187500.0, -46822.5013402106, -10105.268371733233, 0.598, -0.708, 0.43, 192.0, 0.0, 0.0, 0.0, 0.0, 0.0, 0.0, 0.0, 0.0, 0.0, 1.66358932595389E9, 0.0, 2022-09-19 17:08:45.953
70.0, -18525.058749325126, -24959.008390785264, -34079.66006751777, -16854.265851290926, -15061.298318064013, 187500.0, -46805.53636616902, -10080.61439759903, 0.598, -0.708, 0.43, 192.0, 0.0, 0.0, 0.0, 0.0, 0.0, 0.0, 0.0, 0.0, 0.0, 1.6635893259578748E9, 0.0, 2022-09-19 17:08:45.957
71.0, -18517.61561842151, -24961.66824837545, -34093.8981287358, -16872.124895110715, -15069.859036190395, 187500.0, -46816.689886652224, -10091.52204889322, 0.598, -0.708, 0.43, 192.0, 0.0, 0.0, 0.0, 0.0, 0.0, 0.0, 0.0, 0.0, 0.0, 1.6635893259619348E9, 0.0, 2022-09-19 17:08:45.961
72.0, -18535.541717474665, -24977.18035902743, -34091.39473335681, -16880.126819625715, -15081.861922962897, 187500.0, -46814.030029062036, -10120.62402017403, 0.598, -0.708, 0.43, 192.0, 0.0, 0.0, 0.0, 0.0, 0.0, 0.0, 0.0, 0.0, 0.0, 1.6635893259668708E9, 0.0, 2022-09-19 17:08:45.966
73.0, -18557.04409564067, -24990.61375744507, -34075.39088432681, -16855.696362936065, -15069.4567047902, 187500.0, -46797.42268293175, -10108.822299101628, 0.598, -0.708, 0.43, 192.0, 0.0, 0.0, 0.0, 0.0, 0.0, 0.0, 0.0, 0.0, 0.0, 1.6635893259699154E9, 0.0, 2022-09-19 17:08:45.969
74.0, -18554.13836886148, -24983.349440497095, -34055.14020385029, -16835.535089437377, -15050.12244583636, 187500.0, -46785.866831048355, -10081.754336566251, 0.598, -0.708, 0.43, 192.0, 0.0, 0.0, 0.0, 0.0, 0.0, 0.0, 0.0, 0.0, 0.0, 1.6635893259738705E9, 0.0, 2022-09-19 17:08:45.973
75.0, -18541.44257801087, -24972.978231069832, -34066.22666910013, -16845.28045001989, -15053.944594138216, 187500.0, -46787.65497060477, -10074.042984729169, 0.592, -0.706, 0.434, 192.0, 18.0, 128.0, 233.0, 240.0, 13.0, 144.0, 0.0, 0.0, 0.0, 1.6635893259778907E9, 0.0, 2022-09-19 17:08:45.977
76.0, -18513.90522884193, -24957.33200995112, -34073.93802093721, -16850.19783380006, -15054.436332516234, 187500.0, -46793.80170032999, -10068.85738001554, 0.592, -0.706, 0.434, 192.0, 0.0, 0.0, 0.0, 0.0, 0.0, 0.0, 0.0, 0.0, 0.0, 1.6635893259819329E9, 0.0, 2022-09-19 17:08:45.981
77.0, -18518.107356799526, -24968.396123456496, -34076.50847154957, -16861.597223472265, -15063.93582390974, 187500.0, -46800.5966306444, -10092.483173904799, 0.592, -0.706, 0.434, 192.0, 0.0, 0.0, 0.0, 0.0, 0.0, 0.0, 0.0, 0.0, 0.0, 1.66358932598595E9, 0.0, 2022-09-19 17:08:45.985
78.0, -18531.406644750434, -24981.293080007206, -34068.97593366813, -16846.375685498202, -15064.986355899138, 187500.0, -46797.82501433194, -10099.680435619406, 0.592, -0.706, 0.434, 192.0, 0.0, 0.0, 0.0, 0.0, 0.0, 0.0, 0.0, 0.0, 0.0, 1.6635893259898818E9, 0.0, 2022-09-19 17:08:45.989
79.0, -18531.18312730588, -24984.80230388669, -34069.02063715704, -16843.76053139693, -15073.301204836513, 187500.0, -46801.96008705618, -10099.971008297325, 0.592, -0.706, 0.434, 192.0, 0.0, 0.0, 0.0, 0.0, 0.0, 0.0, 0.0, 0.0, 0.0, 1.663589325994926E9, 0.0, 2022-09-19 17:08:45.994
80.0, -18515.08987129806, -24976.17453052694, -34070.764073224556, -16848.119121565716, -15077.346870582924, 187500.0, -46801.22247948915, -10095.433604172898, 0.592, -0.706, 0.434, 192.0, 0.0, 0.0, 0.0, 0.0, 0.0, 0.0, 0.0, 0.0, 0.0, 1.663589325997916E9, 0.0, 2022-09-19 17:08:45.997
81.0, -18489.05008900763, -24963.232870487318, -34068.104215634376, -16856.322211780815, -15075.335213581946, 187500.0, -46791.097139250895, -10090.33740643709, 0.592, -0.706, 0.434, 192.0, 0.0, 0.0, 0.0, 0.0, 0.0, 0.0, 0.0, 0.0, 0.0, 1.6635893260019057E9, 0.0, 2022-09-19 17:08:46.001
82.0, -18488.80421981862, -24969.0443240457, -34072.75337848108, -16864.81587467383, -15080.02907991756, 187500.0, -46797.42268293175, -10107.972932812327, 0.592, -0.706, 0.434, 192.0, 0.0, 0.0, 0.0, 0.0, 0.0, 0.0, 0.0, 0.0, 0.0, 1.6635893260059037E9, 0.0, 2022-09-19 17:08:46.005
83.0, -18505.366862460003, -24983.349440497095, -34062.27041033154, -16854.355258268744, -15074.59760601492, 187500.0, -46792.907630551774, -10106.542421167185, 0.592, -0.706, 0.434, 192.0, 0.0, 0.0, 0.0, 0.0, 0.0, 0.0, 0.0, 0.0, 0.0, 1.6635893260099037E9, 0.0, 2022-09-19 17:08:46.009
84.0, -18505.23275199327, -24980.354306740082, -34063.9914946546, -16852.969450112516, -15068.450876289711, 187500.0, -46788.25846770507, -10099.032235030203, 0.592, -0.706, 0.434, 192.0, 0.0, 0.0, 0.0, 0.0, 0.0, 0.0, 0.0, 0.0, 0.0, 1.6635893260139012E9, 0.0, 2022-09-19 17:08:46.013
85.0, -18496.42616467788, -24975.258109004273, -34073.87096570384, -16853.215319301526, -15075.22345485967, 187500.0, -46793.041741018504, -10082.357833666543, 0.598, -0.706, 0.438, 192.0, 18.0, 176.0, 233.0, 240.0, 13.0, 176.0, 0.0, 0.0, 0.0, 1.6635893260179884E9, 0.0, 2022-09-19 17:08:46.017
86.0, -18470.65460332091, -24961.690600119902, -34087.55023331049, -16863.20654907305, -15079.447934561722, 187500.0, -46804.239964990615, -10069.192656182368, 0.598, -0.706, 0.438, 192.0, 0.0, 0.0, 0.0, 0.0, 0.0, 0.0, 0.0, 0.0, 0.0, 1.6635893260230007E9, 0.0, 2022-09-19 17:08:46.023
87.0, -18461.46803634978, -24960.66241987496, -34077.469596561146, -16867.72160145302, -15074.284681592546, 187500.0, -46801.06601727796, -10078.870961531517, 0.598, -0.706, 0.438, 192.0, 0.0, 0.0, 0.0, 0.0, 0.0, 0.0, 0.0, 0.0, 0.0, 1.663589326026023E9, 0.0, 2022-09-19 17:08:46.026
88.0, -18489.47477215228, -24986.836312632124, -34066.629000500325, -16877.936348669096, -15071.803637958008, 187500.0, -46793.55583114098, -10107.637656645496, 0.598, -0.706, 0.438, 192.0, 0.0, 0.0, 0.0, 0.0, 0.0, 0.0, 0.0, 0.0, 0.0, 1.6635893260289316E9, 0.0, 2022-09-19 17:08:46.028
89.0, -18493.922769298886, -24993.921815624457, -34078.25190761709, -16876.394078301677, -15067.735620467141, 187500.0, -46801.17777600024, -10100.775671097717, 0.598, -0.706, 0.438, 192.0, 0.0, 0.0, 0.0, 0.0, 0.0, 0.0, 0.0, 0.0, 0.0, 1.663589326033966E9, 0.0, 2022-09-19 17:08:46.033
90.0, -18467.167731185884, -24979.460236961873, -34089.6960007782, -16876.14820911267, -15069.009669901094, 187500.0, -46812.64422090581, -10091.007958770748, 0.598, -0.706, 0.438, 192.0, 0.0, 0.0, 0.0, 0.0, 0.0, 0.0, 0.0, 0.0, 0.0, 1.6635893260379705E9, 0.0, 2022-09-19 17:08:46.037
91.0, -18437.88694594943, -24966.697390877893, -34101.20714917268, -16877.95870041355, -15068.182655356248, 187500.0, -46827.50813096859, -10073.908874262437, 0.598, -0.706, 0.438, 192.0, 0.0, 0.0, 0.0, 0.0, 0.0, 0.0, 0.0, 0.0, 0.0, 1.663589326041957E9, 0.0, 2022-09-19 17:08:46.041
92.0, -18444.324248352557, -24981.22602477384, -34093.831073502435, -16875.09767712327, -15077.36922232738, 187500.0, -46819.43915122023, -10076.859304530539, 0.598, -0.706, 0.438, 192.0, 0.0, 0.0, 0.0, 0.0, 0.0, 0.0, 0.0, 0.0, 0.0, 1.6635893260459733E9, 0.0, 2022-09-19 17:08:46.045
93.0, -18459.6575450489, -24994.413554002473, -34079.95064019569, -16867.654546219652, -15072.854169947406, 187500.0, -46798.4955666656, -10088.683377347395, 0.598, -0.706, 0.438, 192.0, 0.0, 0.0, 0.0, 0.0, 0.0, 0.0, 0.0, 0.0, 0.0, 1.6635893260501013E9, 0.0, 2022-09-19 17:08:46.050
94.0, -18449.711018766287, -24986.90336786549, -34083.43751233072, -16874.091848622782, -15062.281794820046, 187500.0, -46798.78613934352, -10093.287836705189, 0.598, -0.706, 0.438, 192.0, 0.0, 0.0, 0.0, 0.0, 0.0, 0.0, 0.0, 0.0, 0.0, 1.6635893260531135E9, 0.0, 2022-09-19 17:08:46.053
95.0, -18423.358312053482, -24975.526329937737, -34098.12260843785, -16869.733258453998, -15054.570442982966, 187500.0, -46807.83859584792, -10072.344252150566, 0.6, -0.706, 0.436, 192.0, 18.0, 192.0, 233.0, 240.0, 13.0, 160.0, 0.0, 0.0, 0.0, 1.6635893260580902E9, 0.0, 2022-09-19 17:08:46.058
96.0, -18401.49830597619, -24973.648783403492, -34107.33152715344, -16881.49027603749, -15067.489751278134, 187500.0, -46815.438188962726, -10076.099345219058, 0.6, -0.706, 0.436, 192.0, 0.0, 0.0, 0.0, 0.0, 0.0, 0.0, 0.0, 0.0, 0.0, 1.6635893260620544E9, 0.0, 2022-09-19 17:08:46.062
97.0, -18408.941436879806, -24986.478684720838, -34084.1974716422, -16871.968432899528, -15075.066992648482, 187500.0, -46804.239964990615, -10083.296606933667, 0.6, -0.706, 0.436, 192.0, 0.0, 0.0, 0.0, 0.0, 0.0, 0.0, 0.0, 0.0, 0.0, 1.663589326066028E9, 0.0, 2022-09-19 17:08:46.066
98.0, -18419.55851549608, -24993.921815624457, -34073.826262214934, -16857.775075170408, -15076.497504293622, 187500.0, -46795.32161895295, -10082.916627277926, 0.6, -0.706, 0.436, 192.0, 0.0, 0.0, 0.0, 0.0, 0.0, 0.0, 0.0, 0.0, 0.0, 1.6635893260700395E9, 0.0, 2022-09-19 17:08:46.070
99.0, -18414.059986360073, -24992.111324323574, -34084.71156176467, -16859.607918215745, -15079.425582817268, 187500.0, -46807.12334002535, -10075.071164974113, 0.6, -0.706, 0.436, 192.0, 0.0, 0.0, 0.0, 0.0, 0.0, 0.0, 0.0, 0.0, 0.0, 1.6635893260740373E9, 0.0, 2022-09-19 17:08:46.074
100.0, -18387.707279647264, -24976.554510182683, -34081.64937277429, -16854.690534435576, -15068.02619314506, 187500.0, -46806.16221501377, -10059.983737466782, 0.6, -0.706, 0.436, 192.0, 0.0, 0.0, 0.0, 0.0, 0.0, 0.0, 0.0, 0.0, 0.0, 1.663589326077067E9, 0.0, 2022-09-19 17:08:46.077
101.0, -18357.621831610424, -24962.361152453563, -34085.002134442584, -16854.891700135675, -15064.964004154685, 187500.0, -46806.2963254805, -10049.65723152843, 0.6, -0.706, 0.436, 192.0, 0.0, 0.0, 0.0, 0.0, 0.0, 0.0, 0.0, 0.0, 0.0, 1.6635893260810573E9, 0.0, 2022-09-19 17:08:46.081
102.0, -18363.67915435781, -24975.302812493184, -34088.39959959979, -16864.19002582908, -15078.956196183706, 187500.0, -46811.794854616506, -10064.342327635566, 0.6, -0.706, 0.436, 192.0, 0.0, 0.0, 0.0, 0.0, 0.0, 0.0, 0.0, 0.0, 0.0, 1.6635893260851033E9, 0.0, 2022-09-19 17:08:46.085
103.0, -18376.419648697334, -24987.886844621524, -34089.24896588909, -16862.647755461665, -15084.45472531971, 187500.0, -46807.48096793664, -10081.307301677145, 0.6, -0.706, 0.436, 192.0, 0.0, 0.0, 0.0, 0.0, 0.0, 0.0, 0.0, 0.0, 0.0, 1.6635893260900557E9, 0.0, 2022-09-19 17:08:46.090
104.0, -18369.87058757193, -24987.976251599343, -34090.254794389584, -16862.558348483843, -15080.36435608439, 187500.0, -46806.6986568807, -10079.273292931712, 0.6, -0.706, 0.436, 192.0, 0.0, 0.0, 0.0, 0.0, 0.0, 0.0, 0.0, 0.0, 0.0, 1.6635893260941873E9, 0.0, 2022-09-19 17:08:46.094
105.0, -18346.356552404948, -24976.934489838422, -34091.52884382354, -16865.62053747422, -15077.033946160549, 187500.0, -46804.93286906873, -10074.46766787382, 0.6, -0.7000000000000001, 0.44, 192.0, 18.0, 192.0, 234.0, 32.0, 13.0, 192.0, 0.0, 0.0, 0.0, 1.6635893260981011E9, 0.0, 2022-09-19 17:08:46.098
106.0, -18319.53445905858, -24964.171643754442, -34075.39088432681, -16858.333868781792, -15069.03202164555, 187500.0, -46791.70063635119, -10063.224740412801, 0.6, -0.7000000000000001, 0.44, 192.0, 0.0, 0.0, 0.0, 0.0, 0.0, 0.0, 0.0, 0.0, 0.0, 1.6635893261021883E9, 0.0, 2022-09-19 17:08:46.102
107.0, -18327.782252762587, -24978.029725316734, -34065.377302810826, -16846.75566515394, -15067.333289066946, 187500.0, -46791.63358111782, -10052.60766179653, 0.6, -0.7000000000000001, 0.44, 192.0, 0.0, 0.0, 0.0, 0.0, 0.0, 0.0, 0.0, 0.0, 0.0, 1.663589326105153E9, 0.0, 2022-09-19 17:08:46.105
108.0, -18337.237040667183, -24989.093838822108, -34063.83503244341, -16846.08511282028, -15064.31580356548, 187500.0, -46790.9406770397, -10058.508522332731, 0.6, -0.7000000000000001, 0.44, 192.0, 0.0, 0.0, 0.0, 0.0, 0.0, 0.0, 0.0, 0.0, 0.0, 1.6635893261091516E9, 0.0, 2022-09-19 17:08:46.109
109.0, -18337.013523222628, -24993.295966779708, -34081.090579162905, -16862.983031628493, -15075.402268815313, 187500.0, -46801.244831233606, -10077.552208608653, 0.6, -0.7000000000000001, 0.44, 192.0, 0.0, 0.0, 0.0, 0.0, 0.0, 0.0, 0.0, 0.0, 0.0, 1.6635893261131468E9, 0.0, 2022-09-19 17:08:46.113
110.0, -18316.941656701765, -24983.751771897292, -34098.39082937132, -16875.231787590004, -15083.046565419027, 187500.0, -46817.13692154133, -10090.940903537381, 0.6, -0.7000000000000001, 0.44, 192.0, 0.0, 0.0, 0.0, 0.0, 0.0, 0.0, 0.0, 0.0, 0.0, 1.663589326119174E9, 0.0, 2022-09-19 17:08:46.119
111.0, -18285.693917953246, -24969.22313800134, -34090.14303566731, -16873.018964888928, -15089.260350377603, 187500.0, -46801.69186612271, -10086.872886046516, 0.6, -0.7000000000000001, 0.44, 192.0, 0.0, 0.0, 0.0, 0.0, 0.0, 0.0, 0.0, 0.0, 0.0, 1.663589326122136E9, 0.0, 2022-09-19 17:08:46.122
112.0, -18291.10304011143, -24985.09287656461, -34074.92149769324, -16863.407714773144, -15093.84245799094, 187500.0, -46790.78421482852, -10073.975929495804, 0.6, -0.7000000000000001, 0.44, 192.0, 0.0, 0.0, 0.0, 0.0, 0.0, 0.0, 0.0, 0.0, 0.0, 1.6635893261261933E9, 0.0, 2022-09-19 17:08:46.126
113.0, -18304.558790273524, -25002.348423284107, -34079.12362565084, -16867.4310287751, -15095.27296963608, 187500.0, -46791.18654622872, -10082.179019710902, 0.6, -0.7000000000000001, 0.44, 192.0, 0.0, 0.0, 0.0, 0.0, 0.0, 0.0, 0.0, 0.0, 0.0, 1.6635893261301749E9, 0.0, 2022-09-19 17:08:46.130
114.0, -18297.62974949238, -24998.459219748882, -34078.9448116952, -16860.52433973841, -15092.031966690061, 187500.0, -46792.3935404293, -10070.667871316418, 0.6, -0.7000000000000001, 0.44, 192.0, 0.0, 0.0, 0.0, 0.0, 0.0, 0.0, 0.0, 0.0, 0.0, 1.6635893261331947E9, 0.0, 2022-09-19 17:08:46.133
115.0, -18276.149723070826, -24987.171588798952, -34085.33741060941, -16855.405790258144, -15087.002824187617, 187500.0, -46796.774482342546, -10048.293775116656, 0.604, -0.7000000000000001, 0.436, 192.0, 18.0, 224.0, 234.0, 32.0, 13.0, 160.0, 0.0, 0.0, 0.0, 1.6635893261371763E9, 0.0, 2022-09-19 17:08:46.137
116.0, -18255.27319374957, -24980.13078929553, -34095.93213748123, -16861.731333939, -15090.735565511653, 187500.0, -46812.152482527796, -10048.94197570586, 0.604, -0.7000000000000001, 0.436, 192.0, 0.0, 0.0, 0.0, 0.0, 0.0, 0.0, 0.0, 0.0, 0.0, 1.663589326141193E9, 0.0, 2022-09-19 17:08:46.141
117.0, -18256.480187950157, -24988.33387951063, -34102.41414337327, -16867.118104352725, -15095.18356265826, 187500.0, -46823.23894777762, -10074.71353706283, 0.604, -0.7000000000000001, 0.436, 192.0, 0.0, 0.0, 0.0, 0.0, 0.0, 0.0, 0.0, 0.0, 0.0, 1.6635893261452205E9, 0.0, 2022-09-19 17:08:46.145
118.0, -18259.452969962713, -24993.117152824063, -34097.742628782114, -16858.490330992976, -15088.567446299488, 187500.0, -46819.59561343141, -10079.340348165077, 0.604, -0.7000000000000001, 0.436, 192.0, 0.0, 0.0, 0.0, 0.0, 0.0, 0.0, 0.0, 0.0, 0.0, 1.6635893261501667E9, 0.0, 2022-09-19 17:08:46.150
119.0, -18251.451045447713, -24989.42911498894, -34089.22661414464, -16844.81106338633, -15073.658832747798, 187500.0, -46806.92217432525, -10058.262653143724, 0.604, -0.7000000000000001, 0.436, 192.0, 0.0, 0.0, 0.0, 0.0, 0.0, 0.0, 0.0, 0.0, 0.0, 1.6635893261542225E9, 0.0, 2022-09-19 17:08:46.154
120.0, -18228.6522661033, -24976.196882271397, -34104.55991084098, -16855.80812165834, -15072.809466458497, 187500.0, -46807.324505725446, -10060.453124100342, 0.604, -0.7000000000000001, 0.436, 192.0, 0.0, 0.0, 0.0, 0.0, 0.0, 0.0, 0.0, 0.0, 0.0, 1.6635893261581876E9, 0.0, 2022-09-19 17:08:46.158
121.0, -18211.061443216975, -24971.637126402515, -34132.544294899024, -16883.636043505197, -15098.13399292636, 187500.0, -46832.02318334856, -10094.025444272214, 0.604, -0.7000000000000001, 0.436, 192.0, 0.0, 0.0, 0.0, 0.0, 0.0, 0.0, 0.0, 0.0, 0.0, 1.6635893261611958E9, 0.0, 2022-09-19 17:08:46.161
122.0, -18223.623123600857, -24988.60210044409, -34104.448152118704, -16846.979182598494, -15090.087364922449, 187500.0, -46817.71806689716, -10063.314147390622, 0.604, -0.7000000000000001, 0.436, 192.0, 0.0, 0.0, 0.0, 0.0, 0.0, 0.0, 0.0, 0.0, 0.0, 1.6635893261652007E9, 0.0, 2022-09-19 17:08:46.165
123.0, -18241.862147076386, -25003.913045395977, -34094.9486607252, -16833.81400511432, -15079.023251417071, 187500.0, -46807.324505725446, -10038.41430406741, 0.604, -0.7000000000000001, 0.436, 192.0, 0.0, 0.0, 0.0, 0.0, 0.0, 0.0, 0.0, 0.0, 0.0, 1.6635893261692216E9, 0.0, 2022-09-19 17:08:46.169
124.0, -18239.448158675215, -25001.14142908352, -34099.30725089398, -16843.939345352574, -15079.514989795089, 187500.0, -46804.82111034646, -10038.727228489784, 0.604, -0.7000000000000001, 0.436, 192.0, 0.0, 0.0, 0.0, 0.0, 0.0, 0.0, 0.0, 0.0, 0.0, 1.663589326173208E9, 0.0, 2022-09-19 17:08:46.173
125.0, -18221.27619043305, -24991.865455134568, -34118.84267554792, -16860.211415316036, -15094.155382413315, 187500.0, -46816.71223839668, -10042.281155858178, 0.604, -0.7000000000000001, 0.436, 192.0, 0.0, 0.0, 0.0, 0.0, 0.0, 0.0, 0.0, 0.0, 0.0, 1.6635893261783085E9, 0.0, 2022-09-19 17:08:46.178
126.0, -18201.629007056836, -24980.890748607013, -34120.27318719306, -16862.357182783744, -15104.906571496318, 187500.0, -46823.57422394446, -10052.674717029897, 0.602, -0.7000000000000001, 0.436, 192.0, 18.0, 208.0, 234.0, 32.0, 13.0, 160.0, 0.0, 0.0, 0.0, 1.6635893261823108E9, 0.0, 2022-09-19 17:08:46.182
127.0, -18216.783489797534, -24992.6477661905, -34103.688192807225, -16848.074418076805, -15107.968760486694, 187500.0, -46821.83078787694, -10062.75535377924, 0.602, -0.7000000000000001, 0.436, 192.0, 0.0, 0.0, 0.0, 0.0, 0.0, 0.0, 0.0, 0.0, 0.0, 1.6635893261852732E9, 0.0, 2022-09-19 17:08:46.185
128.0, -18234.307257450495, -25004.114211096075, -34083.45986407517, -16829.47776668999, -15096.010577203106, 187500.0, -46802.96591555666, -10051.937109462871, 0.602, -0.7000000000000001, 0.436, 192.0, 0.0, 0.0, 0.0, 0.0, 0.0, 0.0, 0.0, 0.0, 0.0, 1.6635893261892169E9, 0.0, 2022-09-19 17:08:46.189
129.0, -18232.206193471695, -24999.397993016006, -34080.2412128736, -16833.858708603228, -15088.187466643747, 187500.0, -46790.605400872875, -10052.51825481871, 0.602, -0.7000000000000001, 0.436, 192.0, 0.0, 0.0, 0.0, 0.0, 0.0, 0.0, 0.0, 0.0, 0.0, 1.6635893261933563E9, 0.0, 2022-09-19 17:08:46.193
130.0, -18220.292713677016, -24989.116190566565, -34094.7474950251, -16842.79940638535, -15090.89202772284, 187500.0, -46805.089331279916, -10051.288908873667, 0.602, -0.7000000000000001, 0.436, 192.0, 0.0, 0.0, 0.0, 0.0, 0.0, 0.0, 0.0, 0.0, 0.0, 1.6635893261972933E9, 0.0, 2022-09-19 17:08:46.197
131.0, -18209.94385599421, -24982.209501529873, -34096.40152411479, -16850.466054733522, -15094.267141135591, 187500.0, -46810.543156927015, -10054.664022286419, 0.602, -0.7000000000000001, 0.436, 192.0, 0.0, 0.0, 0.0, 0.0, 0.0, 0.0, 0.0, 0.0, 0.0, 1.6635893262012353E9, 0.0, 2022-09-19 17:08:46.201
132.0, -18224.94187652372, -24991.753696412292, -34084.04100943101, -16849.3261157663, -15091.070841678482, 187500.0, -46804.5975929019, -10067.359813137033, 0.602, -0.7000000000000001, 0.436, 192.0, 0.0, 0.0, 0.0, 0.0, 0.0, 0.0, 0.0, 0.0, 0.0, 1.6635893262063584E9, 0.0, 2022-09-19 17:08:46.206
133.0, -18240.27517322006, -25000.403821516495, -34085.27035537605, -16843.939345352574, -15082.107792151905, 187500.0, -46805.82693884694, -10056.072182187103, 0.602, -0.7000000000000001, 0.436, 192.0, 0.0, 0.0, 0.0, 0.0, 0.0, 0.0, 0.0, 0.0, 0.0, 1.6635893262103918E9, 0.0, 2022-09-19 17:08:46.210
134.0, -18242.063312776485, -25002.638995962025, -34087.50552982158, -16848.968487855018, -15078.643271761332, 187500.0, -46803.971744057155, -10047.243243127257, 0.602, -0.7000000000000001, 0.436, 192.0, 0.0, 0.0, 0.0, 0.0, 0.0, 0.0, 0.0, 0.0, 0.0, 1.663589326213316E9, 0.0, 2022-09-19 17:08:46.213
135.0, -18225.411263157283, -24994.7488301693, -34091.305326378984, -16858.155054826148, -15087.516914310088, 187500.0, -46801.78127310053, -10043.488150058765, 0.602, -0.7000000000000001, 0.436, 192.0, 0.0, 0.0, 0.0, 0.0, 0.0, 0.0, 0.0, 0.0, 0.0, 1.6635893262173605E9, 0.0, 2022-09-19 17:08:46.217
136.0, -18218.593981098413, -24992.625414446047, -34097.675573548746, -16868.794485186874, -15109.13105119837, 187500.0, -46806.43043594724, -10047.355001849533, 0.606, -0.7020000000000001, 0.434, 192.0, 18.0, 240.0, 234.0, 16.0, 13.0, 144.0, 0.0, 0.0, 0.0, 1.6635893262214684E9, 0.0, 2022-09-19 17:08:46.221
137.0, -18231.401530671304, -24998.61568196007, -34096.17800667024, -16881.24440684848, -15119.301094925535, 187500.0, -46810.744322627106, -10080.927322021404, 0.606, -0.7020000000000001, 0.434, 192.0, 0.0, 0.0, 0.0, 0.0, 0.0, 0.0, 0.0, 0.0, 0.0, 1.6635893262253475E9, 0.0, 2022-09-19 17:08:46.225
138.0, -18238.956420297196, -25001.297891294707, -34094.456922347184, -16879.299805080867, -15121.826842048984, 187500.0, -46814.43236046223, -10088.348101180567, 0.606, -0.7020000000000001, 0.434, 192.0, 0.0, 0.0, 0.0, 0.0, 0.0, 0.0, 0.0, 0.0, 0.0, 1.6635893262293708E9, 0.0, 2022-09-19 17:08:46.229
139.0, -18239.13523425284, -25004.494190751815, -34095.10512293639, -16874.87415967872, -15120.306923426024, 187500.0, -46808.21857550366, -10067.4268683704, 0.606, -0.7020000000000001, 0.434, 192.0, 0.0, 0.0, 0.0, 0.0, 0.0, 0.0, 0.0, 0.0, 0.0, 1.6635893262343817E9, 0.0, 2022-09-19 17:08:46.234
140.0, -18217.52109736456, -24994.435905746926, -34100.402486372295, -16883.747802227474, -15120.530440870578, 187500.0, -46806.72100862515, -10062.844760757062, 0.606, -0.7020000000000001, 0.434, 192.0, 0.0, 0.0, 0.0, 0.0, 0.0, 0.0, 0.0, 0.0, 0.0, 1.6635893262383924E9, 0.0, 2022-09-19 17:08:46.238
141.0, -18199.192666911207, -24988.713859166368, -34109.58905334342, -16877.936348669096, -15116.305961168524, 187500.0, -46814.655877906785, -10048.427885583387, 0.606, -0.7020000000000001, 0.434, 192.0, 0.0, 0.0, 0.0, 0.0, 0.0, 0.0, 0.0, 0.0, 0.0, 1.6635893262413743E9, 0.0, 2022-09-19 17:08:46.241
142.0, -18206.501687348093, -24999.979138371844, -34102.32473639545, -16876.170560857125, -15112.32735065548, 187500.0, -46820.109703553884, -10053.03234494118, 0.606, -0.7020000000000001, 0.434, 192.0, 0.0, 0.0, 0.0, 0.0, 0.0, 0.0, 0.0, 0.0, 0.0, 1.6635893262454093E9, 0.0, 2022-09-19 17:08:46.245
143.0, -18215.822364785956, -25011.8032111887, -34109.45494287669, -16874.762400956442, -15115.434243134767, 187500.0, -46823.08248556644, -10064.14116193547, 0.606, -0.7020000000000001, 0.434, 192.0, 0.0, 0.0, 0.0, 0.0, 0.0, 0.0, 0.0, 0.0, 0.0, 1.6635893262494106E9, 0.0, 2022-09-19 17:08:46.249
144.0, -18207.97690248214, -25011.870266422065, -34117.859198791884, -16875.85763643475, -15113.199068689237, 187500.0, -46821.294346010014, -10071.047850972158, 0.606, -0.7020000000000001, 0.434, 192.0, 0.0, 0.0, 0.0, 0.0, 0.0, 0.0, 0.0, 0.0, 0.0, 1.6635893262534351E9, 0.0, 2022-09-19 17:08:46.253
145.0, -18168.950756663176, -24991.016088845266, -34121.21196046018, -16874.49418002298, -15106.94058024175, 187500.0, -46821.160235543284, -10062.777705523695, 0.606, -0.7020000000000001, 0.434, 192.0, 0.0, 0.0, 0.0, 0.0, 0.0, 0.0, 0.0, 0.0, 0.0, 1.6635893262573848E9, 0.0, 2022-09-19 17:08:46.257
146.0, -18131.086901555886, -24971.592422913604, -34111.779524300044, -16871.56610149933, -15110.874487265884, 187500.0, -46820.73555239863, -10057.525045576698, 0.604, -0.6980000000000001, 0.432, 192.0, 18.0, 224.0, 234.0, 48.0, 13.0, 128.0, 0.0, 0.0, 0.0, 1.6635893262613976E9, 0.0, 2022-09-19 17:08:46.261
147.0, -18142.64275343928, -24990.345536511606, -34119.73674532613, -16876.30467132386, -15127.66064735182, 187500.0, -46837.94639562922, -10080.837915043583, 0.604, -0.6980000000000001, 0.432, 192.0, 0.0, 0.0, 0.0, 0.0, 0.0, 0.0, 0.0, 0.0, 0.0, 1.6635893262664282E9, 0.0, 2022-09-19 17:08:46.266
148.0, -18173.443457298694, -25023.873153194567, -34124.788239573034, -16875.589415501287, -15135.841385822463, 187500.0, -46845.61304397739, -10077.37339465301, 0.604, -0.6980000000000001, 0.432, 192.0, 0.0, 0.0, 0.0, 0.0, 0.0, 0.0, 0.0, 0.0, 0.0, 1.6635893262694168E9, 0.0, 2022-09-19 17:08:46.269
149.0, -18159.250099569574, -25016.832353691145, -34108.18089344274, -16863.251252561957, -15126.051321751038, 187500.0, -46821.33904949892, -10048.60669953903, 0.604, -0.6980000000000001, 0.432, 192.0, 0.0, 0.0, 0.0, 0.0, 0.0, 0.0, 0.0, 0.0, 0.0, 1.66358932627337E9, 0.0, 2022-09-19 17:08:46.273
150.0, -18127.30945674294, -24999.174475571454, -34115.37815515735, -16866.536958996887, -15125.693693839752, 187500.0, -46820.13205529834, -10031.373504563988, 0.604, -0.6980000000000001, 0.432, 192.0, 0.0, 0.0, 0.0, 0.0, 0.0, 0.0, 0.0, 0.0, 0.0, 1.6635893262775104E9, 0.0, 2022-09-19 17:08:46.277
151.0, -18111.48442166858, -24999.84502790511, -34129.817382075475, -16876.997575401972, -15143.843310337463, 187500.0, -46837.78993341803, -10035.88855694396, 0.604, -0.6980000000000001, 0.432, 192.0, 0.0, 0.0, 0.0, 0.0, 0.0, 0.0, 0.0, 0.0, 0.0, 1.663589326281426E9, 0.0, 2022-09-19 17:08:46.281
152.0, -18122.48147994059, -25015.647711235015, -34133.41601293278, -16880.462095792544, -15154.90742384284, 187500.0, -46844.093125354426, -10056.072182187103, 0.604, -0.6980000000000001, 0.432, 192.0, 0.0, 0.0, 0.0, 0.0, 0.0, 0.0, 0.0, 0.0, 0.0, 1.6635893262855272E9, 0.0, 2022-09-19 17:08:46.285
153.0, -18116.267694982016, -25013.546647256215, -34124.60942561739, -16875.72352596802, -15140.669362624809, 187500.0, -46830.235043792134, -10067.449220114853, 0.604, -0.6980000000000001, 0.432, 192.0, 0.0, 0.0, 0.0, 0.0, 0.0, 0.0, 0.0, 0.0, 0.0, 1.663589326289522E9, 0.0, 2022-09-19 17:08:46.289
