%OpenBCI Raw EEG Data
%Number of channels = 8
%Sample Rate = 250 Hz
%Board = OpenBCI_GUI$BoardCytonSerial
Sample Index, EXG Channel 0, EXG Channel 1, EXG Channel 2, EXG Channel 3, EXG Channel 4, EXG Channel 5, EXG Channel 6, EXG Channel 7, Accel Channel 0, Accel Channel 1, Accel Channel 2, Other, Other, Other, Other, Other, Other, Other, Analog Channel 0, Analog Channel 1, Analog Channel 2, Timestamp, Other, Timestamp (Formatted)
215.0, -13147.31844035607, -21807.79240224271, -27085.12867511853, -21770.442637257893, 187500.0, 187500.0, -23026.878896579612, -35365.1982981203, 0.0, 0.0, 0.0, 192.0, 0.0, 0.0, 0.0, 0.0, 0.0, 0.0, 0.0, 0.0, 0.0, 1.6635876117517264E9, 0.0, 2022-09-19 16:40:11.751
216.0, -13185.897551285929, -21757.433921984903, -27053.70212241437, -21741.631238655, 187500.0, 187500.0, -23207.995081900965, -35333.391765760396, 0.0, 0.0, 0.0, 192.0, 0.0, 0.0, 0.0, 0.0, 0.0, 0.0, 0.0, 0.0, 0.0, 1.663587611751756E9, 0.0, 2022-09-19 16:40:11.751
217.0, -13259.412438799434, -21722.565200634624, -27000.05793572163, -21703.700328314346, 187500.0, 187500.0, -23486.7436870031, -35273.60084934245, 0.0, 0.0, 0.0, 192.0, 0.0, 0.0, 0.0, 0.0, 0.0, 0.0, 0.0, 0.0, 0.0, 1.6635876117517688E9, 0.0, 2022-09-19 16:40:11.751
218.0, -13342.605631662087, -21660.896737682433, -26941.04933035962, -21661.00849640471, 187500.0, 187500.0, -23837.800185418153, -35218.83907542695, 0.0, 0.0, 0.0, 192.0, 0.0, 0.0, 0.0, 0.0, 0.0, 0.0, 0.0, 0.0, 0.0, 1.6635876117517805E9, 0.0, 2022-09-19 16:40:11.751
0.0, 0.0, 0.0, 0.0, 0.0, 0.0, 0.0, 0.0, 0.0, 0.0, 0.0, 0.0, 192.0, 0.0, 0.0, 0.0, 0.0, 0.0, 0.0, 0.0, 0.0, 0.0, 1.6635876118534677E9, 0.0, 2022-09-19 16:40:11.853
1.0, -17154.20391013669, -21186.279795918443, -28109.263254316244, -17600.702357375903, 187500.0, 187500.0, -30809.219874050603, -33829.007605195955, 0.742, -0.554, 0.442, 192.0, 23.0, 48.0, 238.0, 176.0, 13.0, 208.0, 0.0, 0.0, 0.0, 1.6635876118695695E9, 0.0, 2022-09-19 16:40:11.869
2.0, -17126.219526078647, -21157.021362426443, -28111.364318295044, -17600.501191675805, 187500.0, 187500.0, -30775.871071323287, -33828.67232902913, 0.742, -0.554, 0.442, 192.0, 0.0, 0.0, 0.0, 0.0, 0.0, 0.0, 0.0, 0.0, 0.0, 1.6635876118735056E9, 0.0, 2022-09-19 16:40:11.873
3.0, -17132.00862789257, -21146.069007643346, -28105.150533336466, -17590.085278759634, 187500.0, 187500.0, -30785.504673183525, -33817.943491690574, 0.742, -0.554, 0.442, 192.0, 0.0, 0.0, 0.0, 0.0, 0.0, 0.0, 0.0, 0.0, 0.0, 1.6635876118765185E9, 0.0, 2022-09-19 16:40:11.876
4.0, -17156.595546793407, -21161.96109795107, -28102.60243446856, -17586.888979302523, 187500.0, 187500.0, -30842.255752355548, -33812.93670093259, 0.742, -0.554, 0.442, 192.0, 0.0, 0.0, 0.0, 0.0, 0.0, 0.0, 0.0, 0.0, 0.0, 1.6635876118815749E9, 0.0, 2022-09-19 16:40:11.881
5.0, -17168.844302754915, -21167.70549627608, -28109.12914384951, -17586.66546185797, 187500.0, 187500.0, -30866.17211892273, -33816.40122132316, 0.742, -0.554, 0.442, 192.0, 0.0, 0.0, 0.0, 0.0, 0.0, 0.0, 0.0, 0.0, 0.0, 1.6635876118845928E9, 0.0, 2022-09-19 16:40:11.884
6.0, -17167.883177743337, -21174.14279867921, -28116.974606153322, -17590.688775859926, 187500.0, 187500.0, -30859.846575241874, -33822.74911674847, 0.742, -0.554, 0.442, 192.0, 0.0, 0.0, 0.0, 0.0, 0.0, 0.0, 0.0, 0.0, 0.0, 1.6635876118895764E9, 0.0, 2022-09-19 16:40:11.889
7.0, -17165.558596319985, -21198.305034435398, -28121.95904516686, -17591.091107260123, 187500.0, 187500.0, -30822.362699790327, -33821.810343481346, 0.742, -0.554, 0.442, 192.0, 0.0, 0.0, 0.0, 0.0, 0.0, 0.0, 0.0, 0.0, 0.0, 1.663587611893528E9, 0.0, 2022-09-19 16:40:11.893
8.0, -17156.282622371033, -21157.580156037828, -28111.632539228507, -17585.39141242402, 187500.0, 187500.0, -30829.492906271567, -33809.293366586375, 0.74, -0.546, 0.464, 192.0, 23.0, 32.0, 238.0, 240.0, 14.0, 128.0, 0.0, 0.0, 0.0, 1.6635876118965898E9, 0.0, 2022-09-19 16:40:11.896
9.0, -17154.58388979243, -21129.573420235327, -28104.971719380825, -17579.557607121184, 187500.0, 187500.0, -30885.4393226432, -33805.8288461958, 0.74, -0.546, 0.464, 192.0, 0.0, 0.0, 0.0, 0.0, 0.0, 0.0, 0.0, 0.0, 0.0, 1.6635876119006548E9, 0.0, 2022-09-19 16:40:11.900
10.0, -17142.692761742208, -21132.836774925803, -28096.008669854247, -17575.422534396952, 187500.0, 187500.0, -30910.428572944234, -33803.481913027994, 0.74, -0.546, 0.464, 192.0, 0.0, 0.0, 0.0, 0.0, 0.0, 0.0, 0.0, 0.0, 0.0, 1.6635876119046457E9, 0.0, 2022-09-19 16:40:11.904
11.0, -17147.118407144357, -21152.66277225766, -28107.072783359625, -17585.86079905758, 187500.0, 187500.0, -30906.360555453368, -33815.01541316693, 0.74, -0.546, 0.464, 192.0, 0.0, 0.0, 0.0, 0.0, 0.0, 0.0, 0.0, 0.0, 0.0, 1.663587611908618E9, 0.0, 2022-09-19 16:40:11.908
12.0, -17159.38951485032, -21159.636516527717, -28122.003748655767, -17594.600331139605, 187500.0, 187500.0, -30873.10115970387, -33827.666500528634, 0.74, -0.546, 0.464, 192.0, 0.0, 0.0, 0.0, 0.0, 0.0, 0.0, 0.0, 0.0, 0.0, 1.6635876119126384E9, 0.0, 2022-09-19 16:40:11.912
13.0, -17183.507047117597, -21167.303164875888, -28124.842420201592, -17597.34959570761, 187500.0, 187500.0, -30883.427665642223, -33826.8841894727, 0.74, -0.546, 0.464, 192.0, 0.0, 0.0, 0.0, 0.0, 0.0, 0.0, 0.0, 0.0, 0.0, 1.6635876119156604E9, 0.0, 2022-09-19 16:40:11.915
14.0, -17183.060012228492, -21153.489786802507, -28115.588797997094, -17592.409860182986, 187500.0, 187500.0, -30936.803631401497, -33818.32347134632, 0.74, -0.546, 0.464, 192.0, 0.0, 0.0, 0.0, 0.0, 0.0, 0.0, 0.0, 0.0, 0.0, 1.6635876119206367E9, 0.0, 2022-09-19 16:40:11.920
15.0, -17173.761686535083, -21140.503423273974, -28111.85605667306, -17583.2009414674, 187500.0, 187500.0, -30961.12232936887, -33810.79093346488, 0.74, -0.546, 0.464, 192.0, 0.0, 0.0, 0.0, 0.0, 0.0, 0.0, 0.0, 0.0, 0.0, 1.6635876119246335E9, 0.0, 2022-09-19 16:40:11.924
16.0, -17177.181503436746, -21174.67924054614, -28121.154382366465, -17592.2533979718, 187500.0, 187500.0, -30953.813308931985, -33819.37400333572, 0.74, -0.546, 0.464, 192.0, 0.0, 0.0, 0.0, 0.0, 0.0, 0.0, 0.0, 0.0, 0.0, 1.6635876119286485E9, 0.0, 2022-09-19 16:40:11.928
17.0, -17177.06974471447, -21194.840514044823, -28130.497411548786, -17610.380662725052, 187500.0, 187500.0, -30921.984424827628, -33837.14364017769, 0.74, -0.546, 0.464, 192.0, 0.0, 0.0, 0.0, 0.0, 0.0, 0.0, 0.0, 0.0, 0.0, 1.6635876119326265E9, 0.0, 2022-09-19 16:40:11.932
18.0, -17190.681957087752, -21164.442141585605, -28139.75103375328, -17619.075491318166, 187500.0, 187500.0, -30929.02522433105, -33843.17861118062, 0.736, -0.552, 0.466, 192.0, 23.0, 0.0, 238.0, 192.0, 14.0, 144.0, 0.0, 0.0, 0.0, 1.663587611936646E9, 0.0, 2022-09-19 16:40:11.936
19.0, -17192.62655885536, -21131.71918770304, -28123.501315534275, -17608.458412701897, 187500.0, 187500.0, -30978.37787608837, -33824.3360906048, 0.736, -0.552, 0.466, 192.0, 0.0, 0.0, 0.0, 0.0, 0.0, 0.0, 0.0, 0.0, 0.0, 1.6635876119407144E9, 0.0, 2022-09-19 16:40:11.940
20.0, -17173.471113857166, -21130.914524902648, -28108.011556626745, -17595.427345684453, 187500.0, 187500.0, -30999.880254254374, -33813.74136373298, 0.736, -0.552, 0.466, 192.0, 0.0, 0.0, 0.0, 0.0, 0.0, 0.0, 0.0, 0.0, 0.0, 1.66358761194363E9, 0.0, 2022-09-19 16:40:11.943
21.0, -17163.92691897475, -21137.128309861222, -28122.651949244973, -17593.43804042793, 187500.0, 187500.0, -30989.397286104835, -33822.235026626, 0.736, -0.552, 0.466, 192.0, 0.0, 0.0, 0.0, 0.0, 0.0, 0.0, 0.0, 0.0, 0.0, 1.6635876119486504E9, 0.0, 2022-09-19 16:40:11.948
22.0, -17160.060067183982, -21153.75800773597, -28135.168926139944, -17595.09206951762, 187500.0, 187500.0, -30946.236067561636, -33830.08048892981, 0.736, -0.552, 0.466, 192.0, 0.0, 0.0, 0.0, 0.0, 0.0, 0.0, 0.0, 0.0, 0.0, 1.6635876119526596E9, 0.0, 2022-09-19 16:40:11.952
23.0, -17180.44485812722, -21170.18653991062, -28140.555696553674, -17601.015281798278, 187500.0, 187500.0, -30946.034901861538, -33828.15823890665, 0.736, -0.552, 0.466, 192.0, 0.0, 0.0, 0.0, 0.0, 0.0, 0.0, 0.0, 0.0, 0.0, 1.6635876119566307E9, 0.0, 2022-09-19 16:40:11.956
24.0, -17182.501218617108, -21158.027190926932, -28130.832687715614, -17599.405956197497, 187500.0, 187500.0, -30990.425466349778, -33825.36427084974, 0.736, -0.552, 0.466, 192.0, 0.0, 0.0, 0.0, 0.0, 0.0, 0.0, 0.0, 0.0, 0.0, 1.6635876119606447E9, 0.0, 2022-09-19 16:40:11.960
25.0, -17167.525549832055, -21138.71528371755, -28120.863809688548, -17590.018223526266, 187500.0, 187500.0, -31008.530379358577, -33820.044555669374, 0.736, -0.552, 0.466, 192.0, 0.0, 0.0, 0.0, 0.0, 0.0, 0.0, 0.0, 0.0, 0.0, 1.6635876119636505E9, 0.0, 2022-09-19 16:40:11.963
26.0, -17147.856014711382, -21112.384928749198, -28125.42356555743, -17588.498304903307, 187500.0, 187500.0, -30992.235957650657, -33822.0338609259, 0.736, -0.552, 0.466, 192.0, 0.0, 0.0, 0.0, 0.0, 0.0, 0.0, 0.0, 0.0, 0.0, 1.663587611967671E9, 0.0, 2022-09-19 16:40:11.967
27.0, -17137.462453539665, -21124.209001566054, -28130.81033597116, -17592.968653794367, 187500.0, 187500.0, -30945.31964603897, -33826.50420981696, 0.736, -0.552, 0.466, 192.0, 0.0, 0.0, 0.0, 0.0, 0.0, 0.0, 0.0, 0.0, 0.0, 1.663587611971649E9, 0.0, 2022-09-19 16:40:11.971
28.0, -17140.994029163605, -21140.771644207438, -28132.71023424986, -17599.76358410878, 187500.0, 187500.0, -30943.442099504722, -33828.53821856239, 0.742, -0.548, 0.47200000000000003, 192.0, 23.0, 48.0, 238.0, 224.0, 14.0, 192.0, 0.0, 0.0, 0.0, 1.663587611976637E9, 0.0, 2022-09-19 16:40:11.976
29.0, -17150.87350021285, -21135.116652860244, -28127.99401616979, -17597.796630596713, 187500.0, 187500.0, -30989.956079716216, -33821.60917778125, 0.742, -0.548, 0.47200000000000003, 192.0, 0.0, 0.0, 0.0, 0.0, 0.0, 0.0, 0.0, 0.0, 0.0, 1.6635876119806547E9, 0.0, 2022-09-19 16:40:11.980
30.0, -17158.897776472306, -21134.22258308203, -28123.836591701103, -17595.986139295834, 187500.0, 187500.0, -31014.118315472406, -33818.61404402424, 0.742, -0.548, 0.47200000000000003, 192.0, 0.0, 0.0, 0.0, 0.0, 0.0, 0.0, 0.0, 0.0, 0.0, 1.6635876119846833E9, 0.0, 2022-09-19 16:40:11.984
31.0, -17171.615919067375, -21172.71228703407, -28129.46923130384, -17598.847162586113, 187500.0, 187500.0, -31007.39044039136, -33825.49838131647, 0.742, -0.548, 0.47200000000000003, 192.0, 0.0, 0.0, 0.0, 0.0, 0.0, 0.0, 0.0, 0.0, 0.0, 1.663587611988648E9, 0.0, 2022-09-19 16:40:11.988
32.0, -17170.811256266985, -21199.512028635985, -28143.52847856623, -17605.664444644983, 187500.0, 187500.0, -30972.477015552166, -33836.897770988675, 0.742, -0.548, 0.47200000000000003, 192.0, 0.0, 0.0, 0.0, 0.0, 0.0, 0.0, 0.0, 0.0, 0.0, 1.6635876119917183E9, 0.0, 2022-09-19 16:40:11.991
33.0, -17183.283529673045, -21191.934787265636, -28143.059091932668, -17607.072604545665, 187500.0, 187500.0, -30968.766625972585, -33837.680082044615, 0.742, -0.548, 0.47200000000000003, 192.0, 0.0, 0.0, 0.0, 0.0, 0.0, 0.0, 0.0, 0.0, 0.0, 1.663587611995712E9, 0.0, 2022-09-19 16:40:11.995
34.0, -17180.824837782962, -21161.71522876206, -28127.45757430286, -17599.785935853237, 187500.0, 187500.0, -31018.253388196637, -33826.79478249488, 0.742, -0.548, 0.47200000000000003, 192.0, 0.0, 0.0, 0.0, 0.0, 0.0, 0.0, 0.0, 0.0, 0.0, 1.663587611999668E9, 0.0, 2022-09-19 16:40:11.999
35.0, -17156.528491560042, -21086.03222203639, -28122.830763200614, -17589.9511682929, 187500.0, 187500.0, -31043.555562920043, -33826.638320283695, 0.742, -0.548, 0.47200000000000003, 192.0, 0.0, 0.0, 0.0, 0.0, 0.0, 0.0, 0.0, 0.0, 0.0, 1.6635876120037231E9, 0.0, 2022-09-19 16:40:12.003
36.0, -17161.22235789566, -21101.07494605481, -28137.784080241214, -17604.300988233208, 187500.0, 187500.0, -31046.90832458834, -33840.16112567915, 0.742, -0.548, 0.47200000000000003, 192.0, 0.0, 0.0, 0.0, 0.0, 0.0, 0.0, 0.0, 0.0, 0.0, 1.6635876120088027E9, 0.0, 2022-09-19 16:40:12.008
37.0, -17170.185407422236, -21141.643362241193, -28139.86279247556, -17614.091052304633, 187500.0, 187500.0, -31013.76068756112, -33844.00562572546, 0.742, -0.548, 0.47200000000000003, 192.0, 0.0, 0.0, 0.0, 0.0, 0.0, 0.0, 0.0, 0.0, 0.0, 1.6635876120126925E9, 0.0, 2022-09-19 16:40:12.012
38.0, -17189.050279742514, -21171.885272489224, -28142.567353554652, -17611.14062203653, 187500.0, 187500.0, -31007.479847369177, -33835.78018376591, 0.738, -0.552, 0.47000000000000003, 192.0, 23.0, 16.0, 238.0, 192.0, 14.0, 176.0, 0.0, 0.0, 0.0, 1.6635876120166886E9, 0.0, 2022-09-19 16:40:12.016
39.0, -17194.280587945057, -21163.838644485313, -28138.9910744418, -17594.66738637297, 187500.0, 187500.0, -31053.166813035827, -33816.915311445635, 0.738, -0.552, 0.47000000000000003, 192.0, 0.0, 0.0, 0.0, 0.0, 0.0, 0.0, 0.0, 0.0, 0.0, 1.6635876120197732E9, 0.0, 2022-09-19 16:40:12.019
40.0, -17184.82580004046, -21160.865862472758, -28132.57612378313, -17591.694604360415, 187500.0, 187500.0, -31085.73330470721, -33813.137866632685, 0.738, -0.552, 0.47000000000000003, 192.0, 0.0, 0.0, 0.0, 0.0, 0.0, 0.0, 0.0, 0.0, 0.0, 1.663587612023758E9, 0.0, 2022-09-19 16:40:12.023
41.0, -17157.847244482906, -21136.524812760927, -28130.162135381954, -17587.67129035846, 187500.0, 187500.0, -31080.927679649318, -33814.50132304446, 0.738, -0.552, 0.47000000000000003, 192.0, 0.0, 0.0, 0.0, 0.0, 0.0, 0.0, 0.0, 0.0, 0.0, 1.663587612027753E9, 0.0, 2022-09-19 16:40:12.027
42.0, -17145.889061199316, -21133.663789470647, -28137.76172849676, -17591.359328193586, 187500.0, 187500.0, -31046.99773156616, -33820.133962647196, 0.738, -0.552, 0.47000000000000003, 192.0, 0.0, 0.0, 0.0, 0.0, 0.0, 0.0, 0.0, 0.0, 0.0, 1.6635876120317924E9, 0.0, 2022-09-19 16:40:12.031
43.0, -17158.182520649734, -21136.90479241667, -28139.214591886353, -17592.543970649716, 187500.0, 187500.0, -31045.81308911003, -33821.251549869965, 0.738, -0.552, 0.47000000000000003, 192.0, 0.0, 0.0, 0.0, 0.0, 0.0, 0.0, 0.0, 0.0, 0.0, 1.6635876120367725E9, 0.0, 2022-09-19 16:40:12.036
44.0, -17168.419619610264, -21131.585077236305, -28129.737452237303, -17582.977424022847, 187500.0, 187500.0, -31101.2901188481, -33811.237968353984, 0.738, -0.552, 0.47000000000000003, 192.0, 0.0, 0.0, 0.0, 0.0, 0.0, 0.0, 0.0, 0.0, 0.0, 1.663587612040778E9, 0.0, 2022-09-19 16:40:12.040
45.0, -17176.22037842517, -21142.0903971303, -28129.446879559386, -17579.401144909996, 187500.0, 187500.0, -31136.538819854122, -33810.83563695379, 0.738, -0.552, 0.47000000000000003, 192.0, 0.0, 0.0, 0.0, 0.0, 0.0, 0.0, 0.0, 0.0, 0.0, 1.663587612044783E9, 0.0, 2022-09-19 16:40:12.044
46.0, -17157.73548576063, -21113.79308864988, -28133.023158672233, -17578.66353734297, 187500.0, 187500.0, -31130.459145362278, -33817.474105057016, 0.738, -0.552, 0.47000000000000003, 192.0, 0.0, 0.0, 0.0, 0.0, 0.0, 0.0, 0.0, 0.0, 0.0, 1.6635876120478292E9, 0.0, 2022-09-19 16:40:12.047
47.0, -17153.801578736493, -21122.309103287353, -28133.738414494805, -17584.698508345904, 187500.0, 187500.0, -31099.949014180784, -33822.726765004016, 0.738, -0.552, 0.47000000000000003, 192.0, 0.0, 0.0, 0.0, 0.0, 0.0, 0.0, 0.0, 0.0, 0.0, 1.663587612051808E9, 0.0, 2022-09-19 16:40:12.051
48.0, -17164.955099219693, -21123.739614932492, -28133.514897050252, -17590.24174097082, 187500.0, 187500.0, -31091.5894617545, -33824.7831254939, 0.74, -0.552, 0.47000000000000003, 192.0, 23.0, 32.0, 238.0, 192.0, 14.0, 176.0, 0.0, 0.0, 0.0, 1.663587612055769E9, 0.0, 2022-09-19 16:40:12.055
49.0, -17173.11348594588, -21112.80961189385, -28122.607245756062, -17582.91036878948, 187500.0, 187500.0, -31137.969331499262, -33817.183532379095, 0.74, -0.552, 0.47000000000000003, 192.0, 0.0, 0.0, 0.0, 0.0, 0.0, 0.0, 0.0, 0.0, 0.0, 1.663587612059792E9, 0.0, 2022-09-19 16:40:12.059
50.0, -17165.11156143088, -21101.007890821445, -28118.293359076186, -17571.756848306282, 187500.0, 187500.0, -31172.011038304692, -33807.2817095854, 0.74, -0.552, 0.47000000000000003, 192.0, 0.0, 0.0, 0.0, 0.0, 0.0, 0.0, 0.0, 0.0, 0.0, 1.6635876120657623E9, 0.0, 2022-09-19 16:40:12.065
51.0, -17165.73741027563, -21114.2848270279, -28130.050376659678, -17577.18832220892, 187500.0, 187500.0, -31174.134454027946, -33816.758849234444, 0.74, -0.552, 0.47000000000000003, 192.0, 0.0, 0.0, 0.0, 0.0, 0.0, 0.0, 0.0, 0.0, 0.0, 1.663587612069821E9, 0.0, 2022-09-19 16:40:12.069
52.0, -17153.622764780852, -21130.0875103578, -28138.09700466359, -17579.62466235455, 187500.0, 187500.0, -31142.21616294577, -33823.37496559322, 0.74, -0.552, 0.47000000000000003, 192.0, 0.0, 0.0, 0.0, 0.0, 0.0, 0.0, 0.0, 0.0, 0.0, 1.6635876120738287E9, 0.0, 2022-09-19 16:40:12.073
53.0, -17158.406038094286, -21121.526792231416, -28138.90166746398, -17576.830694297638, 187500.0, 187500.0, -31137.58935184352, -33819.06107891334, 0.74, -0.552, 0.47000000000000003, 192.0, 0.0, 0.0, 0.0, 0.0, 0.0, 0.0, 0.0, 0.0, 0.0, 1.663587612076893E9, 0.0, 2022-09-19 16:40:12.076
54.0, -17190.681957087752, -21129.193440579587, -28142.209725643366, -17580.8987117885, 187500.0, 187500.0, -31196.955585116815, -33825.36427084974, 0.74, -0.552, 0.47000000000000003, 192.0, 0.0, 0.0, 0.0, 0.0, 0.0, 0.0, 0.0, 0.0, 0.0, 1.6635876120798886E9, 0.0, 2022-09-19 16:40:12.079
55.0, -17212.229038742666, -21143.386798308708, -28137.739376752303, -17575.556644863682, 187500.0, 187500.0, -31230.75142273324, -33815.32833758931, 0.74, -0.552, 0.47000000000000003, 192.0, 0.0, 0.0, 0.0, 0.0, 0.0, 0.0, 0.0, 0.0, 0.0, 1.6635876120838268E9, 0.0, 2022-09-19 16:40:12.083
56.0, -17203.713024105196, -21139.497594773486, -28136.800603485182, -17575.266072185765, 187500.0, 187500.0, -31228.80682096563, -33816.557683534345, 0.74, -0.552, 0.47000000000000003, 192.0, 0.0, 0.0, 0.0, 0.0, 0.0, 0.0, 0.0, 0.0, 0.0, 1.663587612087878E9, 0.0, 2022-09-19 16:40:12.087
57.0, -17189.609073353895, -21124.633684710705, -28142.746167510293, -17582.91036878948, 187500.0, 187500.0, -31195.927404871873, -33821.34095684779, 0.74, -0.552, 0.47000000000000003, 192.0, 0.0, 0.0, 0.0, 0.0, 0.0, 0.0, 0.0, 0.0, 0.0, 1.6635876120918381E9, 0.0, 2022-09-19 16:40:12.091
58.0, -17192.20187571071, -21098.817419864827, -28141.740339009804, -17578.9988135098, 187500.0, 187500.0, -31185.869119866984, -33813.629605010705, 0.736, -0.55, 0.47200000000000003, 192.0, 23.0, 0.0, 238.0, 208.0, 14.0, 192.0, 0.0, 0.0, 0.0, 1.6635876120968778E9, 0.0, 2022-09-19 16:40:12.096
59.0, -17206.84226832894, -21098.325681486807, -28140.33217910912, -17572.248586684298, 187500.0, 187500.0, -31240.94381820486, -33805.11359037323, 0.736, -0.55, 0.47200000000000003, 192.0, 0.0, 0.0, 0.0, 0.0, 0.0, 0.0, 0.0, 0.0, 0.0, 1.6635876121008468E9, 0.0, 2022-09-19 16:40:12.100
60.0, -17220.812108613507, -21133.932010404114, -28147.082405934623, -17581.34574667761, 187500.0, 187500.0, -31288.016592027736, -33809.06984914182, 0.736, -0.55, 0.47200000000000003, 192.0, 0.0, 0.0, 0.0, 0.0, 0.0, 0.0, 0.0, 0.0, 0.0, 1.663587612103917E9, 0.0, 2022-09-19 16:40:12.103
61.0, -17221.147384780335, -21124.678388199616, -28147.75295826828, -17586.643110113517, 187500.0, 187500.0, -31291.257594973755, -33811.75205847646, 0.736, -0.55, 0.47200000000000003, 192.0, 0.0, 0.0, 0.0, 0.0, 0.0, 0.0, 0.0, 0.0, 0.0, 1.663587612107914E9, 0.0, 2022-09-19 16:40:12.107
62.0, -17201.16492523729, -21096.045803552366, -28135.973588940335, -17578.596482109606, 187500.0, 187500.0, -31258.80286202465, -33805.33710781778, 0.736, -0.55, 0.47200000000000003, 192.0, 0.0, 0.0, 0.0, 0.0, 0.0, 0.0, 0.0, 0.0, 0.0, 1.6635876121118739E9, 0.0, 2022-09-19 16:40:12.111
63.0, -17204.11535550539, -21116.07296658432, -28137.51585930775, -17576.294252430707, 187500.0, 187500.0, -31256.56768757912, -33807.0805438853, 0.736, -0.55, 0.47200000000000003, 192.0, 0.0, 0.0, 0.0, 0.0, 0.0, 0.0, 0.0, 0.0, 0.0, 1.6635876121158435E9, 0.0, 2022-09-19 16:40:12.115
64.0, -17206.797564840028, -21126.354769033762, -28137.918190707947, -17574.975499507847, 187500.0, 187500.0, -31312.20117952838, -33806.25352934045, 0.736, -0.55, 0.47200000000000003, 192.0, 0.0, 0.0, 0.0, 0.0, 0.0, 0.0, 0.0, 0.0, 0.0, 1.6635876121208699E9, 0.0, 2022-09-19 16:40:12.120
65.0, -17200.24850371462, -21093.117725028722, -28131.547943538186, -17571.130999461533, 187500.0, 187500.0, -31353.954238170892, -33796.865796669226, 0.736, -0.55, 0.47200000000000003, 192.0, 0.0, 0.0, 0.0, 0.0, 0.0, 0.0, 0.0, 0.0, 0.0, 1.6635876121249144E9, 0.0, 2022-09-19 16:40:12.124
66.0, -17192.44774489972, -21096.761059374938, -28125.17769636842, -17564.581938336127, 187500.0, 187500.0, -31356.859964950083, -33792.95424138955, 0.736, -0.55, 0.47200000000000003, 192.0, 0.0, 0.0, 0.0, 0.0, 0.0, 0.0, 0.0, 0.0, 0.0, 1.663587612127879E9, 0.0, 2022-09-19 16:40:12.127
67.0, -17182.72473606166, -21109.36744324773, -28130.586818526604, -17565.14073194751, 187500.0, 187500.0, -31326.036909346214, -33798.519825758915, 0.736, -0.55, 0.47200000000000003, 192.0, 0.0, 0.0, 0.0, 0.0, 0.0, 0.0, 0.0, 0.0, 0.0, 1.6635876121318884E9, 0.0, 2022-09-19 16:40:12.131
68.0, -17186.703346574708, -21106.148792046166, -28142.52265006574, -17572.8967872735, 187500.0, 187500.0, -31318.169095297948, -33804.01835489492, 0.736, -0.55, 0.47200000000000003, 192.0, 0.0, 0.0, 0.0, 0.0, 0.0, 0.0, 0.0, 0.0, 0.0, 1.663587612136937E9, 0.0, 2022-09-19 16:40:12.136
69.0, -17201.88018105986, -21108.629835680706, -28134.67718776193, -17565.90069125899, 187500.0, 187500.0, -31370.82980523465, -33797.08931411378, 0.738, -0.55, 0.482, 192.0, 23.0, 16.0, 238.0, 208.0, 15.0, 16.0, 0.0, 0.0, 0.0, 1.663587612141925E9, 0.0, 2022-09-19 16:40:12.141
70.0, -17208.138669507345, -21126.84650741178, -28131.95027493838, -17559.441037111406, 187500.0, 187500.0, -31414.326299944678, -33789.06503785432, 0.738, -0.55, 0.482, 192.0, 0.0, 0.0, 0.0, 0.0, 0.0, 0.0, 0.0, 0.0, 0.0, 1.6635876121459649E9, 0.0, 2022-09-19 16:40:12.145
71.0, -17206.03760552855, -21113.0331293384, -28137.672321518938, -17561.698563301394, 187500.0, 187500.0, -31417.768468590795, -33794.2282908235, 0.738, -0.55, 0.482, 192.0, 0.0, 0.0, 0.0, 0.0, 0.0, 0.0, 0.0, 0.0, 0.0, 1.6635876121489542E9, 0.0, 2022-09-19 16:40:12.148
72.0, -17210.93263756426, -21110.306216514855, -28148.356455368576, -17575.33312741913, 187500.0, 187500.0, -31389.135883943545, -33806.45469504055, 0.738, -0.55, 0.482, 192.0, 0.0, 0.0, 0.0, 0.0, 0.0, 0.0, 0.0, 0.0, 0.0, 1.6635876121519637E9, 0.0, 2022-09-19 16:40:12.151
73.0, -17224.723663893183, -21125.527754488918, -28145.026045444734, -17584.832618812638, 187500.0, 187500.0, -31376.954183215403, -33802.721953716515, 0.738, -0.55, 0.482, 192.0, 0.0, 0.0, 0.0, 0.0, 0.0, 0.0, 0.0, 0.0, 0.0, 1.663587612155948E9, 0.0, 2022-09-19 16:40:12.155
74.0, -17208.92098056328, -21105.120611801223, -28132.218495871843, -17578.28355768723, 187500.0, 187500.0, -31425.815096594706, -33794.317697801314, 0.738, -0.55, 0.482, 192.0, 0.0, 0.0, 0.0, 0.0, 0.0, 0.0, 0.0, 0.0, 0.0, 1.6635876121599767E9, 0.0, 2022-09-19 16:40:12.159
75.0, -17208.608056140907, -21113.055481082854, -28129.826859215125, -17578.507075131783, 187500.0, 187500.0, -31466.495271503365, -33788.93092738759, 0.738, -0.55, 0.482, 192.0, 0.0, 0.0, 0.0, 0.0, 0.0, 0.0, 0.0, 0.0, 0.0, 1.6635876121651218E9, 0.0, 2022-09-19 16:40:12.165
76.0, -17192.000710010616, -21103.265417011433, -28135.012463928757, -17580.250511199298, 187500.0, 187500.0, -31468.328114548698, -33792.931889645086, 0.738, -0.55, 0.482, 192.0, 0.0, 0.0, 0.0, 0.0, 0.0, 0.0, 0.0, 0.0, 0.0, 1.6635876121689968E9, 0.0, 2022-09-19 16:40:12.168
77.0, -17188.647948342317, -21096.336376230287, -28135.839478473605, -17581.81513331117, 187500.0, 187500.0, -31437.885038600572, -33796.95520364704, 0.738, -0.55, 0.482, 192.0, 0.0, 0.0, 0.0, 0.0, 0.0, 0.0, 0.0, 0.0, 0.0, 1.6635876121719828E9, 0.0, 2022-09-19 16:40:12.171
78.0, -17204.383576438853, -21117.816402651835, -28143.14849891049, -17591.18051423794, 187500.0, 187500.0, -31425.680986127973, -33803.414857794625, 0.738, -0.55, 0.482, 192.0, 0.0, 0.0, 0.0, 0.0, 0.0, 0.0, 0.0, 0.0, 0.0, 1.6635876121759882E9, 0.0, 2022-09-19 16:40:12.175
79.0, -17203.869486316384, -21105.85821936825, -28132.442013316395, -17582.39627866701, 187500.0, 187500.0, -31471.94909715046, -33788.26037505393, 0.74, -0.55, 0.48, 192.0, 23.0, 32.0, 238.0, 208.0, 15.0, 0.0, 0.0, 0.0, 0.0, 1.6635876121800356E9, 0.0, 2022-09-19 16:40:12.180
80.0, -17202.59543688243, -21101.633739666195, -28125.110641135056, -17578.10474373159, 187500.0, 187500.0, -31511.981071469912, -33781.84542439526, 0.74, -0.55, 0.48, 192.0, 0.0, 0.0, 0.0, 0.0, 0.0, 0.0, 0.0, 0.0, 0.0, 1.663587612183964E9, 0.0, 2022-09-19 16:40:12.183
81.0, -17205.277646217066, -21118.97869336351, -28128.262237103256, -17583.603272867593, 187500.0, 187500.0, -31515.646757560586, -33787.25454655344, 0.74, -0.55, 0.48, 192.0, 0.0, 0.0, 0.0, 0.0, 0.0, 0.0, 0.0, 0.0, 0.0, 1.6635876121880133E9, 0.0, 2022-09-19 16:40:12.188
82.0, -17216.006483555615, -21136.122481360733, -28133.984283683814, -17587.89480780301, 187500.0, 187500.0, -31484.689591489983, -33792.01546812242, 0.74, -0.55, 0.48, 192.0, 0.0, 0.0, 0.0, 0.0, 0.0, 0.0, 0.0, 0.0, 0.0, 1.6635876121920617E9, 0.0, 2022-09-19 16:40:12.192
83.0, -17216.185297511256, -21082.344184201265, -28124.864771946046, -17581.18928446642, 187500.0, 187500.0, -31462.315495290222, -33789.02033436541, 0.74, -0.55, 0.48, 192.0, 0.0, 0.0, 0.0, 0.0, 0.0, 0.0, 0.0, 0.0, 0.0, 1.6635876121970525E9, 0.0, 2022-09-19 16:40:12.197
84.0, -17231.764463396605, -21085.83105633629, -28119.52270502123, -17577.702412331393, 187500.0, 187500.0, -31513.61274881515, -33785.01937210791, 0.74, -0.55, 0.48, 192.0, 0.0, 0.0, 0.0, 0.0, 0.0, 0.0, 0.0, 0.0, 0.0, 1.6635876122010071E9, 0.0, 2022-09-19 16:40:12.201
85.0, -17223.5166696926, -21090.435515694084, -28111.02904212821, -17572.829732040136, 187500.0, 187500.0, -31553.979999301435, -33780.79489240586, 0.74, -0.55, 0.48, 192.0, 0.0, 0.0, 0.0, 0.0, 0.0, 0.0, 0.0, 0.0, 0.0, 1.6635876122050588E9, 0.0, 2022-09-19 16:40:12.205
86.0, -17208.473945674177, -21090.726088372005, -28120.886161433, -17577.545950120206, 187500.0, 187500.0, -31553.04122603431, -33789.55677623234, 0.74, -0.55, 0.48, 192.0, 0.0, 0.0, 0.0, 0.0, 0.0, 0.0, 0.0, 0.0, 0.0, 1.6635876122091343E9, 0.0, 2022-09-19 16:40:12.209
87.0, -17211.647893386827, -21114.70951017255, -28137.068824418646, -17591.024052026754, 187500.0, 187500.0, -31521.56996984124, -33800.17385484861, 0.74, -0.55, 0.48, 192.0, 0.0, 0.0, 0.0, 0.0, 0.0, 0.0, 0.0, 0.0, 0.0, 1.6635876122130415E9, 0.0, 2022-09-19 16:40:12.213
88.0, -17209.07744277447, -21117.302312529366, -28137.649969774484, -17590.353499693098, 187500.0, 187500.0, -31492.624460771618, -33794.764732690426, 0.74, -0.55, 0.48, 192.0, 0.0, 0.0, 0.0, 0.0, 0.0, 0.0, 0.0, 0.0, 0.0, 1.663587612216076E9, 0.0, 2022-09-19 16:40:12.216
89.0, -17211.223210242177, -21101.767850132925, -28117.55575150916, -17571.198054694898, 187500.0, 187500.0, -31528.297844922286, -33776.21278479252, 0.732, -0.546, 0.47800000000000004, 192.0, 22.0, 224.0, 238.0, 240.0, 14.0, 240.0, 0.0, 0.0, 0.0, 1.6635876122200563E9, 0.0, 2022-09-19 16:40:12.220
90.0, -17209.83740208595, -21090.12259127171, -28115.052356130167, -17567.28649941522, 187500.0, 187500.0, -31568.28511575283, -33776.34689525925, 0.732, -0.546, 0.47800000000000004, 192.0, 0.0, 0.0, 0.0, 0.0, 0.0, 0.0, 0.0, 0.0, 0.0, 1.6635876122241173E9, 0.0, 2022-09-19 16:40:12.224
91.0, -17208.138669507345, -21106.059385068344, -28116.840495686592, -17571.8462552841, 187500.0, 187500.0, -31572.599002432707, -33774.31288651382, 0.732, -0.546, 0.47800000000000004, 192.0, 0.0, 0.0, 0.0, 0.0, 0.0, 0.0, 0.0, 0.0, 0.0, 1.6635876122271118E9, 0.0, 2022-09-19 16:40:12.227
92.0, -17203.26598921609, -21117.27996078491, -28124.887123690503, -17571.756848306282, 187500.0, 187500.0, -31543.38527242962, -33783.09712208476, 0.732, -0.546, 0.47800000000000004, 192.0, 0.0, 0.0, 0.0, 0.0, 0.0, 0.0, 0.0, 0.0, 0.0, 1.6635876122320611E9, 0.0, 2022-09-19 16:40:12.232
93.0, -17197.02985251306, -21098.817419864827, -28127.23405685831, -17568.538197104717, 187500.0, 187500.0, -31518.552484339772, -33782.49362498446, 0.732, -0.546, 0.47800000000000004, 192.0, 0.0, 0.0, 0.0, 0.0, 0.0, 0.0, 0.0, 0.0, 0.0, 1.663587612236107E9, 0.0, 2022-09-19 16:40:12.236
94.0, -17206.64110262884, -21080.31017545583, -28123.098984134078, -17562.749095290794, 187500.0, 187500.0, -31565.44644420701, -33775.83280513678, 0.732, -0.546, 0.47800000000000004, 192.0, 0.0, 0.0, 0.0, 0.0, 0.0, 0.0, 0.0, 0.0, 0.0, 1.6635876122401066E9, 0.0, 2022-09-19 16:40:12.240
95.0, -17222.801413870027, -21099.487972198483, -28119.70151897687, -17558.32344988864, 187500.0, 187500.0, -31609.4123255506, -33766.62388642119, 0.732, -0.546, 0.47800000000000004, 192.0, 0.0, 0.0, 0.0, 0.0, 0.0, 0.0, 0.0, 0.0, 0.0, 1.6635876122440684E9, 0.0, 2022-09-19 16:40:12.244
96.0, -17227.696445905738, -21107.802821135858, -28127.926960936424, -17565.878339514536, 187500.0, 187500.0, -31620.431735567065, -33773.06118882432, 0.732, -0.546, 0.47800000000000004, 192.0, 0.0, 0.0, 0.0, 0.0, 0.0, 0.0, 0.0, 0.0, 0.0, 1.6635876122481225E9, 0.0, 2022-09-19 16:40:12.248
97.0, -17211.98316955366, -21093.050669795357, -28127.636388258506, -17566.839464526114, 187500.0, 187500.0, -31589.183996818545, -33771.49656671245, 0.732, -0.546, 0.47800000000000004, 192.0, 0.0, 0.0, 0.0, 0.0, 0.0, 0.0, 0.0, 0.0, 0.0, 1.66358761225216E9, 0.0, 2022-09-19 16:40:12.252
98.0, -17209.97151255268, -21102.9301408446, -28125.580027768618, -17572.226234939844, 187500.0, 187500.0, -31565.938182585025, -33769.931944600576, 0.732, -0.546, 0.47800000000000004, 192.0, 0.0, 0.0, 0.0, 0.0, 0.0, 0.0, 0.0, 0.0, 0.0, 1.663587612255196E9, 0.0, 2022-09-19 16:40:12.255
99.0, -17212.765480609596, -21080.198416733554, -28118.360414309554, -17570.706316316882, 187500.0, 187500.0, -31613.10036338572, -33762.39940671914, 0.732, -0.546, 0.47800000000000004, 192.0, 22.0, 224.0, 238.0, 240.0, 14.0, 240.0, 0.0, 0.0, 0.0, 1.663587612260152E9, 0.0, 2022-09-19 16:40:12.260
100.0, -17212.340797464945, -21078.79025683287, -28111.85605667306, -17561.676211556936, 187500.0, 187500.0, -31659.614343597215, -33755.64917989363, 0.732, -0.546, 0.47800000000000004, 192.0, 0.0, 0.0, 0.0, 0.0, 0.0, 0.0, 0.0, 0.0, 0.0, 1.663587612264143E9, 0.0, 2022-09-19 16:40:12.264
101.0, -17200.159096736803, -21076.26450970942, -28111.811353184148, -17558.591670822105, 187500.0, 187500.0, -31667.258640200933, -33753.838688592754, 0.732, -0.546, 0.47800000000000004, 192.0, 0.0, 0.0, 0.0, 0.0, 0.0, 0.0, 0.0, 0.0, 0.0, 1.663587612268183E9, 0.0, 2022-09-19 16:40:12.268
102.0, -17196.31459669049, -21087.08275402579, -28121.310844577652, -17564.537234847216, 187500.0, 187500.0, -31640.056567198822, -33763.0699590528, 0.732, -0.546, 0.47800000000000004, 192.0, 0.0, 0.0, 0.0, 0.0, 0.0, 0.0, 0.0, 0.0, 0.0, 1.6635876122721531E9, 0.0, 2022-09-19 16:40:12.272
103.0, -17201.03081477056, -21090.927254072103, -28122.9872254118, -17567.62177558205, 187500.0, 187500.0, -31618.800058221826, -33764.94750558704, 0.732, -0.546, 0.47800000000000004, 192.0, 0.0, 0.0, 0.0, 0.0, 0.0, 0.0, 0.0, 0.0, 0.0, 1.6635876122762113E9, 0.0, 2022-09-19 16:40:12.276
104.0, -17220.186259768758, -21089.854370338246, -28114.359452052053, -17561.676211556936, 187500.0, 187500.0, -31660.84368954226, -33758.10787178372, 0.732, -0.546, 0.47800000000000004, 192.0, 0.0, 0.0, 0.0, 0.0, 0.0, 0.0, 0.0, 0.0, 0.0, 1.6635876122801576E9, 0.0, 2022-09-19 16:40:12.280
105.0, -17208.518649163085, -21088.401506948652, -28108.346832793577, -17548.488682328305, 187500.0, 187500.0, -31702.909672607148, -33748.407214690116, 0.732, -0.546, 0.47800000000000004, 192.0, 0.0, 0.0, 0.0, 0.0, 0.0, 0.0, 0.0, 0.0, 0.0, 1.6635876122832155E9, 0.0, 2022-09-19 16:40:12.283
106.0, -17181.853018027905, -21084.69111736907, -28109.79969618317, -17547.169929405445, 187500.0, 187500.0, -31712.476219234017, -33751.15647925812, 0.732, -0.546, 0.47800000000000004, 192.0, 0.0, 0.0, 0.0, 0.0, 0.0, 0.0, 0.0, 0.0, 0.0, 1.663587612289283E9, 0.0, 2022-09-19 16:40:12.289
107.0, -17179.64019532683, -21073.962280030522, -28121.26614108874, -17554.9930399648, 187500.0, 187500.0, -31687.822245099815, -33760.20893576252, 0.732, -0.546, 0.47800000000000004, 192.0, 0.0, 0.0, 0.0, 0.0, 0.0, 0.0, 0.0, 0.0, 0.0, 1.6635876122932112E9, 0.0, 2022-09-19 16:40:12.293
108.0, -17188.044451242025, -21070.02837300639, -28124.909475434957, -17551.90849922997, 187500.0, 187500.0, -31661.447186642552, -33760.38774971816, 0.732, -0.546, 0.47800000000000004, 192.0, 0.0, 0.0, 0.0, 0.0, 0.0, 0.0, 0.0, 0.0, 0.0, 1.6635876122961683E9, 0.0, 2022-09-19 16:40:12.296
109.0, -17210.150326508323, -21080.26547196692, -28126.541152780195, -17548.511034072762, 187500.0, 187500.0, -31702.529692951408, -33750.06124377981, 0.734, -0.546, 0.47800000000000004, 192.0, 22.0, 240.0, 238.0, 240.0, 14.0, 240.0, 0.0, 0.0, 0.0, 1.6635876123001697E9, 0.0, 2022-09-19 16:40:12.300
110.0, -17231.5185942076, -21101.097297799268, -28128.262237103256, -17547.549909061185, 187500.0, 187500.0, -31749.781280729927, -33744.62976987717, 0.734, -0.546, 0.47800000000000004, 192.0, 0.0, 0.0, 0.0, 0.0, 0.0, 0.0, 0.0, 0.0, 0.0, 1.6635876123042855E9, 0.0, 2022-09-19 16:40:12.304
111.0, -17225.863602860405, -21119.068100341334, -28127.23405685831, -17546.655839282972, 187500.0, 187500.0, -31756.777376744438, -33751.67056938059, 0.734, -0.546, 0.47800000000000004, 192.0, 0.0, 0.0, 0.0, 0.0, 0.0, 0.0, 0.0, 0.0, 0.0, 1.6635876123083217E9, 0.0, 2022-09-19 16:40:12.308
112.0, -17207.78104159606, -21108.629835680706, -28128.888085948, -17549.963897462356, 187500.0, 187500.0, -31728.547123497385, -33753.68222638157, 0.734, -0.546, 0.47800000000000004, 192.0, 0.0, 0.0, 0.0, 0.0, 0.0, 0.0, 0.0, 0.0, 0.0, 1.6635876123113165E9, 0.0, 2022-09-19 16:40:12.311
113.0, -17197.78981182454, -21077.672669610103, -28137.649969774484, -17554.255432397775, 187500.0, 187500.0, -31703.870797618725, -33752.63169439217, 0.734, -0.546, 0.47800000000000004, 192.0, 0.0, 0.0, 0.0, 0.0, 0.0, 0.0, 0.0, 0.0, 0.0, 1.6635876123152232E9, 0.0, 2022-09-19 16:40:12.315
114.0, -17219.471003946186, -21073.962280030522, -28134.721891250836, -17547.326391616632, 187500.0, 187500.0, -31744.215696360556, -33742.036967520355, 0.734, -0.546, 0.47800000000000004, 192.0, 0.0, 0.0, 0.0, 0.0, 0.0, 0.0, 0.0, 0.0, 0.0, 1.6635876123202853E9, 0.0, 2022-09-19 16:40:12.320
115.0, -17214.486564932653, -21064.26162293692, -28119.27683583222, -17538.542156045696, 187500.0, 187500.0, -31791.400228905706, -33733.76682207189, 0.734, -0.546, 0.47800000000000004, 192.0, 0.0, 0.0, 0.0, 0.0, 0.0, 0.0, 0.0, 0.0, 0.0, 1.6635876123242788E9, 0.0, 2022-09-19 16:40:12.324
116.0, -17207.78104159606, -21081.74068710097, -28120.863809688548, -17548.935717217413, 187500.0, 187500.0, -31809.39338319223, -33747.20022048953, 0.734, -0.546, 0.47800000000000004, 192.0, 0.0, 0.0, 0.0, 0.0, 0.0, 0.0, 0.0, 0.0, 0.0, 1.6635876123282492E9, 0.0, 2022-09-19 16:40:12.328
117.0, -17186.68099483025, -21073.247024207954, -28125.021234157233, -17549.695676528892, 187500.0, 187500.0, -31786.348734658808, -33754.79981360433, 0.734, -0.546, 0.47800000000000004, 192.0, 0.0, 0.0, 0.0, 0.0, 0.0, 0.0, 0.0, 0.0, 0.0, 1.6635876123323636E9, 0.0, 2022-09-19 16:40:12.332
118.0, -17180.93659650524, -21061.84763453575, -28127.45757430286, -17546.52172881624, 187500.0, 187500.0, -31755.972713944044, -33752.184659503066, 0.734, -0.546, 0.47800000000000004, 192.0, 0.0, 0.0, 0.0, 0.0, 0.0, 0.0, 0.0, 0.0, 0.0, 1.6635876123352897E9, 0.0, 2022-09-19 16:40:12.335
119.0, -17209.390367196844, -21077.113875998723, -28128.999844670278, -17554.00956320877, 187500.0, 187500.0, -31792.361353917284, -33751.827031591776, 0.732, -0.548, 0.47800000000000004, 192.0, 22.0, 224.0, 238.0, 224.0, 14.0, 240.0, 0.0, 0.0, 0.0, 1.6635876123392816E9, 0.0, 2022-09-19 16:40:12.339
120.0, -17216.811146356005, -21096.626948908204, -28124.41773705694, -17560.17864467843, 187500.0, 187500.0, -31842.20574405262, -33753.39165370365, 0.732, -0.548, 0.47800000000000004, 192.0, 0.0, 0.0, 0.0, 0.0, 0.0, 0.0, 0.0, 0.0, 0.0, 1.663587612343307E9, 0.0, 2022-09-19 16:40:12.343
121.0, -17219.940390579748, -21092.64833839516, -28131.883219705014, -17561.497397601295, 187500.0, 187500.0, -31854.119223847298, -33757.19145026105, 0.732, -0.548, 0.47800000000000004, 192.0, 0.0, 0.0, 0.0, 0.0, 0.0, 0.0, 0.0, 0.0, 0.0, 1.6635876123483925E9, 0.0, 2022-09-19 16:40:12.348
122.0, -17210.195029997234, -21056.907899011123, -28134.721891250836, -17555.931813231924, 187500.0, 187500.0, -31824.72667988857, -33757.146746772145, 0.732, -0.548, 0.47800000000000004, 192.0, 0.0, 0.0, 0.0, 0.0, 0.0, 0.0, 0.0, 0.0, 0.0, 1.6635876123523276E9, 0.0, 2022-09-19 16:40:12.352
123.0, -17185.742221563127, -21047.25194540643, -28130.89974294898, -17544.241850881797, 187500.0, 187500.0, -31787.086342225834, -33749.21187749051, 0.732, -0.548, 0.47800000000000004, 192.0, 0.0, 0.0, 0.0, 0.0, 0.0, 0.0, 0.0, 0.0, 0.0, 1.6635876123563921E9, 0.0, 2022-09-19 16:40:12.356
124.0, -17202.863657815895, -21073.157617230132, -28135.23598137331, -17544.33125785962, 187500.0, 187500.0, -31823.1620577767, -33745.121508255186, 0.732, -0.548, 0.47800000000000004, 192.0, 0.0, 0.0, 0.0, 0.0, 0.0, 0.0, 0.0, 0.0, 0.0, 1.6635876123602896E9, 0.0, 2022-09-19 16:40:12.360
125.0, -17211.871410831383, -21072.911748041126, -28135.057167417668, -17545.650010782483, 187500.0, 187500.0, -31871.039494399967, -33741.567580886796, 0.732, -0.548, 0.47800000000000004, 192.0, 0.0, 0.0, 0.0, 0.0, 0.0, 0.0, 0.0, 0.0, 0.0, 1.6635876123643572E9, 0.0, 2022-09-19 16:40:12.364
126.0, -17199.82382056997, -21074.096390497256, -28129.871562704036, -17547.840481739102, 187500.0, 187500.0, -31874.16873862371, -33744.1156797547, 0.732, -0.548, 0.47800000000000004, 192.0, 0.0, 0.0, 0.0, 0.0, 0.0, 0.0, 0.0, 0.0, 0.0, 1.6635876123673236E9, 0.0, 2022-09-19 16:40:12.367
127.0, -17204.674149116774, -21107.60165543576, -28139.81808898665, -17551.95320271888, 187500.0, 187500.0, -31845.670264443193, -33754.285723481866, 0.732, -0.548, 0.47800000000000004, 192.0, 0.0, 0.0, 0.0, 0.0, 0.0, 0.0, 0.0, 0.0, 0.0, 1.6635876123713157E9, 0.0, 2022-09-19 16:40:12.371
128.0, -17201.053166515012, -21100.113821043233, -28149.138766424512, -17559.038705711213, 187500.0, 187500.0, -31809.303976214407, -33757.59378166125, 0.732, -0.548, 0.47800000000000004, 192.0, 0.0, 0.0, 0.0, 0.0, 0.0, 0.0, 0.0, 0.0, 0.0, 1.6635876123763769E9, 0.0, 2022-09-19 16:40:12.376
129.0, -17194.615864111885, -21076.957413787535, -28143.90845822197, -17556.781179521226, 187500.0, 187500.0, -31830.7616508915, -33749.167174001595, 0.73, -0.548, 0.47800000000000004, 192.0, 22.0, 208.0, 238.0, 224.0, 14.0, 240.0, 0.0, 0.0, 0.0, 1.6635876123803873E9, 0.0, 2022-09-19 16:40:12.380
130.0, -17208.988035796647, -21122.689082943092, -28155.777234527737, -17561.340935390108, 187500.0, 187500.0, -31879.801378226446, -33753.10108102573, 0.73, -0.548, 0.47800000000000004, 192.0, 0.0, 0.0, 0.0, 0.0, 0.0, 0.0, 0.0, 0.0, 0.0, 1.6635876123843837E9, 0.0, 2022-09-19 16:40:12.384
131.0, -17200.62848337036, -21083.864102824224, -28152.893859493004, -17551.796740507692, 187500.0, 187500.0, -31883.84704397286, -33750.06124377981, 0.73, -0.548, 0.47800000000000004, 192.0, 0.0, 0.0, 0.0, 0.0, 0.0, 0.0, 0.0, 0.0, 0.0, 1.663587612387388E9, 0.0, 2022-09-19 16:40:12.387
132.0, -17183.26117792859, -21060.573585101796, -28156.179565927934, -17551.729685274327, 187500.0, 187500.0, -31851.526421490482, -33754.33042697077, 0.73, -0.548, 0.47800000000000004, 192.0, 0.0, 0.0, 0.0, 0.0, 0.0, 0.0, 0.0, 0.0, 0.0, 1.6635876123913767E9, 0.0, 2022-09-19 16:40:12.391
133.0, -17187.306843675, -21087.485085425986, -28164.114435209565, -17557.67524929944, 187500.0, 187500.0, -31812.05324078241, -33758.264333994906, 0.73, -0.548, 0.47800000000000004, 192.0, 0.0, 0.0, 0.0, 0.0, 0.0, 0.0, 0.0, 0.0, 0.0, 1.6635876123983912E9, 0.0, 2022-09-19 16:40:12.398
134.0, -17216.74409112264, -21098.012757064433, -28163.04155147571, -17560.312755145165, 187500.0, 187500.0, -31839.411775995708, -33754.263371737405, 0.73, -0.548, 0.47800000000000004, 192.0, 0.0, 0.0, 0.0, 0.0, 0.0, 0.0, 0.0, 0.0, 0.0, 1.663587612402445E9, 0.0, 2022-09-19 16:40:12.402
135.0, -17212.184335253758, -21066.78737006037, -28156.984228728325, -17552.914327730457, 187500.0, 187500.0, -31879.421398570707, -33748.36251120121, 0.73, -0.548, 0.47800000000000004, 192.0, 0.0, 0.0, 0.0, 0.0, 0.0, 0.0, 0.0, 0.0, 0.0, 1.6635876124064703E9, 0.0, 2022-09-19 16:40:12.406
136.0, -17192.425393155267, -21047.45311110653, -28156.447786861398, -17549.919193973445, 187500.0, 187500.0, -31879.86843345981, -33745.188563488555, 0.73, -0.548, 0.47800000000000004, 192.0, 0.0, 0.0, 0.0, 0.0, 0.0, 0.0, 0.0, 0.0, 0.0, 1.6635876124094265E9, 0.0, 2022-09-19 16:40:12.409
137.0, -17186.12220121887, -21065.31215492632, -28164.80733928768, -17548.33222011712, 187500.0, 187500.0, -31846.072595843387, -33743.579237887774, 0.73, -0.548, 0.47800000000000004, 192.0, 0.0, 0.0, 0.0, 0.0, 0.0, 0.0, 0.0, 0.0, 0.0, 1.6635876124125793E9, 0.0, 2022-09-19 16:40:12.412
138.0, -17192.604207110908, -21079.594919633262, -28175.647935348505, -17549.829786995626, 187500.0, 187500.0, -31801.503217399506, -33742.886333809656, 0.73, -0.548, 0.47800000000000004, 192.0, 0.0, 0.0, 0.0, 0.0, 0.0, 0.0, 0.0, 0.0, 0.0, 1.6635876124164195E9, 0.0, 2022-09-19 16:40:12.416
139.0, -17211.55848640901, -21083.707640613036, -28177.257260949285, -17553.00373470828, 187500.0, 187500.0, -31824.2125897661, -33739.801793074825, 0.732, -0.552, 0.47600000000000003, 192.0, 22.0, 224.0, 238.0, 192.0, 14.0, 224.0, 0.0, 0.0, 0.0, 1.6635876124193997E9, 0.0, 2022-09-19 16:40:12.419
140.0, -17210.329140463968, -21082.45594292354, -28170.395275401508, -17551.66263004096, 187500.0, 187500.0, -31869.318410076907, -33736.98547327345, 0.732, -0.552, 0.47600000000000003, 192.0, 0.0, 0.0, 0.0, 0.0, 0.0, 0.0, 0.0, 0.0, 0.0, 1.6635876124234421E9, 0.0, 2022-09-19 16:40:12.423
141.0, -17195.956968779203, -21072.040030007367, -28172.00460100229, -17551.863795741057, 187500.0, 187500.0, -31874.101683390345, -33736.06905175079, 0.732, -0.552, 0.47600000000000003, 192.0, 0.0, 0.0, 0.0, 0.0, 0.0, 0.0, 0.0, 0.0, 0.0, 1.6635876124275208E9, 0.0, 2022-09-19 16:40:12.427
142.0, -17188.40207915331, -21080.80191383385, -28172.988077758324, -17549.405103850975, 187500.0, 187500.0, -31847.614866210806, -33740.60645587521, 0.732, -0.552, 0.47600000000000003, 192.0, 0.0, 0.0, 0.0, 0.0, 0.0, 0.0, 0.0, 0.0, 0.0, 1.663587612431438E9, 0.0, 2022-09-19 16:40:12.431
143.0, -17197.298073446524, -21112.072004326823, -28188.9025198105, -17562.95026099089, 187500.0, 187500.0, -31809.125162258766, -33752.743453114446, 0.732, -0.552, 0.47600000000000003, 192.0, 0.0, 0.0, 0.0, 0.0, 0.0, 0.0, 0.0, 0.0, 0.0, 1.6635876124364088E9, 0.0, 2022-09-19 16:40:12.436
144.0, -17221.728530136174, -21116.721167173528, -28184.476874408352, -17567.420609881952, 187500.0, 187500.0, -31834.025005581978, -33744.02627277688, 0.732, -0.552, 0.47600000000000003, 192.0, 0.0, 0.0, 0.0, 0.0, 0.0, 0.0, 0.0, 0.0, 0.0, 1.6635876124404776E9, 0.0, 2022-09-19 16:40:12.440
145.0, -17210.30678871951, -21074.498721897453, -28174.128016725543, -17555.06009519817, 187500.0, 187500.0, -31875.30867759093, -33736.180810473066, 0.732, -0.552, 0.47600000000000003, 192.0, 0.0, 0.0, 0.0, 0.0, 0.0, 0.0, 0.0, 0.0, 0.0, 1.6635876124444776E9, 0.0, 2022-09-19 16:40:12.444
146.0, -17207.110489262403, -21071.816512562815, -28178.084275494133, -17551.1932434074, 187500.0, 187500.0, -31884.092913161865, -33733.364490671695, 0.732, -0.552, 0.47600000000000003, 192.0, 0.0, 0.0, 0.0, 0.0, 0.0, 0.0, 0.0, 0.0, 0.0, 1.663587612448495E9, 0.0, 2022-09-19 16:40:12.448
147.0, -17189.519666376076, -21064.395733403653, -28183.0016592743, -17548.37692360603, 187500.0, 187500.0, -31859.997732639044, -33735.264388950396, 0.732, -0.552, 0.47600000000000003, 192.0, 0.0, 0.0, 0.0, 0.0, 0.0, 0.0, 0.0, 0.0, 0.0, 1.6635876124524965E9, 0.0, 2022-09-19 16:40:12.452
148.0, -17196.91809379078, -21076.8233033208, -28190.71301111138, -17552.400237607984, 187500.0, 187500.0, -31828.705290401616, -33739.801793074825, 0.732, -0.552, 0.47600000000000003, 192.0, 0.0, 0.0, 0.0, 0.0, 0.0, 0.0, 0.0, 0.0, 0.0, 1.6635876124575877E9, 0.0, 2022-09-19 16:40:12.457
149.0, -17219.202783012723, -21094.056498295846, -28188.47783666585, -17554.635412053518, 187500.0, 187500.0, -31854.566258736406, -33735.93494128405, 0.73, -0.546, 0.47800000000000004, 192.0, 22.0, 208.0, 238.0, 240.0, 14.0, 240.0, 0.0, 0.0, 0.0, 1.6635876124614973E9, 0.0, 2022-09-19 16:40:12.461
150.0, -17240.951030367738, -21116.89998112917, -28176.944336526914, -17545.739417760306, 187500.0, 187500.0, -31903.002488971055, -33730.12348772568, 0.73, -0.546, 0.47800000000000004, 192.0, 0.0, 0.0, 0.0, 0.0, 0.0, 0.0, 0.0, 0.0, 0.0, 1.6635876124654703E9, 0.0, 2022-09-19 16:40:12.465
151.0, -17249.80232117204, -21122.71143468755, -28181.3029266957, -17541.604345036074, 187500.0, 187500.0, -31918.715765323137, -33728.62592084717, 0.73, -0.546, 0.47800000000000004, 192.0, 0.0, 0.0, 0.0, 0.0, 0.0, 0.0, 0.0, 0.0, 0.0, 1.663587612469637E9, 0.0, 2022-09-19 16:40:12.469
152.0, -17222.801413870027, -21062.62994559168, -28182.39816217401, -17530.920211186436, 187500.0, 187500.0, -31893.0783144329, -33721.65217657712, 0.73, -0.546, 0.47800000000000004, 192.0, 0.0, 0.0, 0.0, 0.0, 0.0, 0.0, 0.0, 0.0, 0.0, 1.6635876124735565E9, 0.0, 2022-09-19 16:40:12.473
153.0, -17211.044396286536, -21055.544442599352, -28183.24752846331, -17531.61311526455, 187500.0, 187500.0, -31855.795604681447, -33720.1099062097, 0.73, -0.546, 0.47800000000000004, 192.0, 0.0, 0.0, 0.0, 0.0, 0.0, 0.0, 0.0, 0.0, 0.0, 1.663587612476516E9, 0.0, 2022-09-19 16:40:12.476
154.0, -17222.153213280824, -21069.44722765055, -28175.29030743722, -17531.680170497915, 187500.0, 187500.0, -31882.885918961278, -33716.39951663012, 0.73, -0.546, 0.47800000000000004, 192.0, 0.0, 0.0, 0.0, 0.0, 0.0, 0.0, 0.0, 0.0, 0.0, 1.6635876124795768E9, 0.0, 2022-09-19 16:40:12.479
155.0, -17224.07546330398, -21082.254777223443, -28167.064865477667, -17517.97855114681, 187500.0, 187500.0, -31936.66421612075, -33709.045792704324, 0.73, -0.546, 0.47800000000000004, 192.0, 0.0, 0.0, 0.0, 0.0, 0.0, 0.0, 0.0, 0.0, 0.0, 1.6635876124835365E9, 0.0, 2022-09-19 16:40:12.483
156.0, -17212.720777120685, -21062.048800235843, -28173.211595202876, -17519.163193602944, 187500.0, 187500.0, -31957.116062297355, -33714.94665324052, 0.73, -0.546, 0.47800000000000004, 192.0, 0.0, 0.0, 0.0, 0.0, 0.0, 0.0, 0.0, 0.0, 0.0, 1.6635876124875996E9, 0.0, 2022-09-19 16:40:12.487
157.0, -17208.518649163085, -21048.68245705157, -28178.218385960867, -17529.020312907734, 187500.0, 187500.0, -31937.670044621238, -33727.15070571312, 0.73, -0.546, 0.47800000000000004, 192.0, 0.0, 0.0, 0.0, 0.0, 0.0, 0.0, 0.0, 0.0, 0.0, 1.663587612491634E9, 0.0, 2022-09-19 16:40:12.491
158.0, -17210.10562301941, -21051.096445452746, -28186.130903498044, -17532.775405976226, 187500.0, 187500.0, -31904.96944248312, -33724.93788301205, 0.73, -0.546, 0.47800000000000004, 192.0, 0.0, 0.0, 0.0, 0.0, 0.0, 0.0, 0.0, 0.0, 0.0, 1.66358761249667E9, 0.0, 2022-09-19 16:40:12.496
159.0, -17217.50405043412, -21052.459901864517, -28181.1017609956, -17524.818184950138, 187500.0, 187500.0, -31930.45043116217, -33713.33732763974, 0.736, -0.55, 0.47400000000000003, 192.0, 23.0, 0.0, 238.0, 208.0, 14.0, 208.0, 0.0, 0.0, 0.0, 1.6635876124995952E9, 0.0, 2022-09-19 16:40:12.499
160.0, -17215.291227733043, -21045.866137250203, -28161.43222587493, -17512.345911544075, 187500.0, 187500.0, -31982.395885276306, -33702.56378681228, 0.736, -0.55, 0.47400000000000003, 192.0, 0.0, 0.0, 0.0, 0.0, 0.0, 0.0, 0.0, 0.0, 0.0, 1.663587612503651E9, 0.0, 2022-09-19 16:40:12.503
161.0, -17210.999692797624, -21053.801006531838, -28160.828728774635, -17509.775460931716, 187500.0, 187500.0, -32003.115952386375, -33701.490903078426, 0.736, -0.55, 0.47400000000000003, 192.0, 0.0, 0.0, 0.0, 0.0, 0.0, 0.0, 0.0, 0.0, 0.0, 1.6635876125076313E9, 0.0, 2022-09-19 16:40:12.507
162.0, -17201.611960126396, -21058.897204267647, -28165.701409065892, -17507.80850741965, 187500.0, 187500.0, -31983.558175987982, -33697.40053384311, 0.736, -0.55, 0.47400000000000003, 192.0, 0.0, 0.0, 0.0, 0.0, 0.0, 0.0, 0.0, 0.0, 0.0, 1.6635876125116115E9, 0.0, 2022-09-19 16:40:12.511
163.0, -17200.807297326006, -21068.731971827983, -28173.882147536537, -17517.509164513252, 187500.0, 187500.0, -31948.17536451523, -33705.87184499167, 0.736, -0.55, 0.47400000000000003, 192.0, 0.0, 0.0, 0.0, 0.0, 0.0, 0.0, 0.0, 0.0, 0.0, 1.6635876125155704E9, 0.0, 2022-09-19 16:40:12.515
164.0, -17211.804355598015, -21070.49775963995, -28171.445807390908, -17522.247734337776, 187500.0, 187500.0, -31968.29193452501, -33705.64832754712, 0.736, -0.55, 0.47400000000000003, 192.0, 0.0, 0.0, 0.0, 0.0, 0.0, 0.0, 0.0, 0.0, 0.0, 1.663587612519682E9, 0.0, 2022-09-19 16:40:12.519
165.0, -17219.940390579748, -21076.1751027316, -28169.031818989733, -17520.012559892246, 187500.0, 187500.0, -32018.739821760635, -33700.99916470041, 0.736, -0.55, 0.47400000000000003, 192.0, 0.0, 0.0, 0.0, 0.0, 0.0, 0.0, 0.0, 0.0, 0.0, 1.663587612524567E9, 0.0, 2022-09-19 16:40:12.524
166.0, -17213.614846898898, -21058.383114145174, -28172.29517368021, -17519.118490114033, 187500.0, 187500.0, -32029.9603974772, -33706.07301069177, 0.736, -0.55, 0.47400000000000003, 192.0, 0.0, 0.0, 0.0, 0.0, 0.0, 0.0, 0.0, 0.0, 0.0, 1.6635876125285888E9, 0.0, 2022-09-19 16:40:12.528
167.0, -17214.061881788002, -21085.27226272491, -28186.644993620517, -17526.382807062007, 187500.0, 187500.0, -32013.66597576928, -33719.14878119812, 0.736, -0.55, 0.47400000000000003, 192.0, 0.0, 0.0, 0.0, 0.0, 0.0, 0.0, 0.0, 0.0, 0.0, 1.6635876125326345E9, 0.0, 2022-09-19 16:40:12.532
168.0, -17203.824782827473, -21071.011849762424, -28188.92487155496, -17529.534403030208, 187500.0, 187500.0, -31972.963449116167, -33720.82516203227, 0.736, -0.55, 0.47400000000000003, 192.0, 0.0, 0.0, 0.0, 0.0, 0.0, 0.0, 0.0, 0.0, 0.0, 1.6635876125366318E9, 0.0, 2022-09-19 16:40:12.536
169.0, -17196.78398332405, -21030.622247531683, -28185.728572097847, -17522.001865148766, 187500.0, 187500.0, -31988.274394068052, -33705.73773452493, 0.736, -0.55, 0.47400000000000003, 192.0, 0.0, 0.0, 0.0, 0.0, 0.0, 0.0, 0.0, 0.0, 0.0, 1.6635876125406573E9, 0.0, 2022-09-19 16:40:12.540
170.0, -17210.865582330895, -21059.724218812495, -28178.62071736106, -17513.731719700303, 187500.0, 187500.0, -32041.560952849504, -33698.89810072161, 0.734, -0.546, 0.47600000000000003, 192.0, 22.0, 240.0, 238.0, 240.0, 14.0, 224.0, 0.0, 0.0, 0.0, 1.663587612545663E9, 0.0, 2022-09-19 16:40:12.545
171.0, -17214.88889633285, -21091.307233727843, -28192.948185556914, -17524.505260527763, 187500.0, 187500.0, -32065.030284527576, -33716.868903263676, 0.734, -0.546, 0.47600000000000003, 192.0, 0.0, 0.0, 0.0, 0.0, 0.0, 0.0, 0.0, 0.0, 0.0, 1.6635876125497177E9, 0.0, 2022-09-19 16:40:12.549
172.0, -17200.24850371462, -21071.034201506878, -28193.86460707958, -17525.46638553934, 187500.0, 187500.0, -32050.166374464796, -33720.19931318752, 0.734, -0.546, 0.47600000000000003, 192.0, 0.0, 0.0, 0.0, 0.0, 0.0, 0.0, 0.0, 0.0, 0.0, 1.6635876125526528E9, 0.0, 2022-09-19 16:40:12.552
173.0, -17165.893872486817, -21021.25686660491, -28173.77038881426, -17506.601513219062, 187500.0, 187500.0, -32003.205359364198, -33705.402458358105, 0.734, -0.546, 0.47600000000000003, 192.0, 0.0, 0.0, 0.0, 0.0, 0.0, 0.0, 0.0, 0.0, 0.0, 1.6635876125556607E9, 0.0, 2022-09-19 16:40:12.555
174.0, -17188.469134386676, -21054.65037282114, -28180.00652551729, -17514.871658667525, 187500.0, 187500.0, -32017.465772326683, -33709.51517933788, 0.734, -0.546, 0.47600000000000003, 192.0, 0.0, 0.0, 0.0, 0.0, 0.0, 0.0, 0.0, 0.0, 0.0, 1.6635876125597048E9, 0.0, 2022-09-19 16:40:12.559
175.0, -17225.014236571104, -21079.30434695534, -28181.749961584803, -17519.09613836958, 187500.0, 187500.0, -32074.35096196544, -33705.71538278048, 0.734, -0.546, 0.47600000000000003, 192.0, 0.0, 0.0, 0.0, 0.0, 0.0, 0.0, 0.0, 0.0, 0.0, 1.6635876125637078E9, 0.0, 2022-09-19 16:40:12.563
176.0, -17210.2620852306, -21053.84571002075, -28185.68386860894, -17518.380882547008, 187500.0, 187500.0, -32093.416999985817, -33706.25182464741, 0.734, -0.546, 0.47600000000000003, 192.0, 0.0, 0.0, 0.0, 0.0, 0.0, 0.0, 0.0, 0.0, 0.0, 1.6635876125678556E9, 0.0, 2022-09-19 16:40:12.567
177.0, -17181.897721516816, -21051.1187971972, -28183.29223195222, -17515.430452278906, 187500.0, 187500.0, -32067.77954909558, -33702.80965600129, 0.734, -0.546, 0.47600000000000003, 192.0, 0.0, 0.0, 0.0, 0.0, 0.0, 0.0, 0.0, 0.0, 0.0, 1.6635876125716827E9, 0.0, 2022-09-19 16:40:12.571
178.0, -17169.559558577486, -21037.819509246292, -28179.447731905908, -17510.736585943294, 187500.0, 187500.0, -32018.091621171432, -33700.82035074477, 0.734, -0.546, 0.47600000000000003, 192.0, 0.0, 0.0, 0.0, 0.0, 0.0, 0.0, 0.0, 0.0, 0.0, 1.6635876125757265E9, 0.0, 2022-09-19 16:40:12.575
179.0, -17194.615864111885, -21053.97982048748, -28184.700391852904, -17515.721024956827, 187500.0, 187500.0, -32028.9098654878, -33704.68720253553, 0.734, -0.546, 0.47600000000000003, 192.0, 0.0, 0.0, 0.0, 0.0, 0.0, 0.0, 0.0, 0.0, 0.0, 1.6635876125796652E9, 0.0, 2022-09-19 16:40:12.579
180.0, -17221.817937113992, -21092.782448861893, -28186.466179664872, -17513.865830167037, 187500.0, 187500.0, -32081.39176146886, -33705.00012695791, 0.74, -0.544, 0.47800000000000004, 192.0, 23.0, 32.0, 239.0, 0.0, 14.0, 240.0, 0.0, 0.0, 0.0, 1.6635876125828242E9, 0.0, 2022-09-19 16:40:12.582
181.0, -17223.963704581703, -21096.269320996922, -28189.640127377526, -17515.408100534452, 187500.0, 187500.0, -32099.742543666667, -33710.297490393816, 0.74, -0.544, 0.47800000000000004, 192.0, 0.0, 0.0, 0.0, 0.0, 0.0, 0.0, 0.0, 0.0, 0.0, 1.6635876125867145E9, 0.0, 2022-09-19 16:40:12.586
182.0, -17194.72762283416, -21056.237346677466, -28181.34763018461, -17510.490716754284, 187500.0, 187500.0, -32075.334438721475, -33704.01665020188, 0.74, -0.544, 0.47800000000000004, 192.0, 0.0, 0.0, 0.0, 0.0, 0.0, 0.0, 0.0, 0.0, 0.0, 1.66358761259175E9, 0.0, 2022-09-19 16:40:12.591
183.0, -17171.25829115609, -21044.748550027438, -28186.466179664872, -17516.54803950167, 187500.0, 187500.0, -32034.207228923708, -33712.957347984004, 0.74, -0.544, 0.47800000000000004, 192.0, 0.0, 0.0, 0.0, 0.0, 0.0, 0.0, 0.0, 0.0, 0.0, 1.6635876125956795E9, 0.0, 2022-09-19 16:40:12.595
184.0, -17177.472076114664, -21041.418140103597, -28184.789798830727, -17513.46349876684, 187500.0, 187500.0, -32043.036167983555, -33704.508388579896, 0.74, -0.544, 0.47800000000000004, 192.0, 0.0, 0.0, 0.0, 0.0, 0.0, 0.0, 0.0, 0.0, 0.0, 1.6635876125998175E9, 0.0, 2022-09-19 16:40:12.599
185.0, -17197.54394263553, -21064.418085148107, -28194.155179757498, -17518.626751736017, 187500.0, 187500.0, -32098.60260469945, -33705.6036240582, 0.74, -0.544, 0.47800000000000004, 192.0, 0.0, 0.0, 0.0, 0.0, 0.0, 0.0, 0.0, 0.0, 0.0, 1.663587612603777E9, 0.0, 2022-09-19 16:40:12.603
186.0, -17196.135782734847, -21042.73689302646, -28194.19988324641, -17517.285647068697, 187500.0, 187500.0, -32117.400421786362, -33707.928205481556, 0.74, -0.544, 0.47800000000000004, 192.0, 0.0, 0.0, 0.0, 0.0, 0.0, 0.0, 0.0, 0.0, 0.0, 1.6635876126077528E9, 0.0, 2022-09-19 16:40:12.607
187.0, -17188.469134386676, -21049.911802996612, -28192.299984967707, -17516.212763334843, 187500.0, 187500.0, -32102.715325679223, -33711.77270552787, 0.74, -0.544, 0.47800000000000004, 192.0, 0.0, 0.0, 0.0, 0.0, 0.0, 0.0, 0.0, 0.0, 0.0, 1.663587612611936E9, 0.0, 2022-09-19 16:40:12.611
188.0, -17180.69072731623, -21047.721332039993, -28191.048287278212, -17518.380882547008, 187500.0, 187500.0, -32065.007932783123, -33716.64538581912, 0.74, -0.544, 0.47800000000000004, 192.0, 0.0, 0.0, 0.0, 0.0, 0.0, 0.0, 0.0, 0.0, 0.0, 1.6635876126147451E9, 0.0, 2022-09-19 16:40:12.614
189.0, -17188.424430897765, -21073.35878293023, -28189.1036855106, -17527.120414629033, 187500.0, 187500.0, -32082.263479502617, -33721.763935299394, 0.74, -0.544, 0.47800000000000004, 192.0, 0.0, 0.0, 0.0, 0.0, 0.0, 0.0, 0.0, 0.0, 0.0, 1.6635876126207664E9, 0.0, 2022-09-19 16:40:12.620
190.0, -17197.02985251306, -21081.0254312784, -28192.67996462345, -17527.47804254032, 187500.0, 187500.0, -32141.249733120174, -33719.43935387604, 0.738, -0.544, 0.47800000000000004, 192.0, 23.0, 16.0, 239.0, 0.0, 14.0, 240.0, 0.0, 0.0, 0.0, 1.6635876126238256E9, 0.0, 2022-09-19 16:40:12.623
191.0, -17200.002634525616, -21069.69309683956, -28196.747982114313, -17533.691827498893, 187500.0, 187500.0, -32168.921192755843, -33722.38978414414, 0.738, -0.544, 0.47800000000000004, 192.0, 0.0, 0.0, 0.0, 0.0, 0.0, 0.0, 0.0, 0.0, 0.0, 1.6635876126278133E9, 0.0, 2022-09-19 16:40:12.627
192.0, -17201.32138744848, -21073.202320719043, -28199.877226338056, -17536.195222877886, 187500.0, 187500.0, -32157.32063738354, -33731.37518541517, 0.738, -0.544, 0.47800000000000004, 192.0, 0.0, 0.0, 0.0, 0.0, 0.0, 0.0, 0.0, 0.0, 0.0, 1.6635876126338303E9, 0.0, 2022-09-19 16:40:12.633
193.0, -17200.472021159178, -21071.481236395986, -28209.06379330919, -17544.443016581896, 187500.0, 187500.0, -32120.887293921387, -33740.092365752746, 0.738, -0.544, 0.47800000000000004, 192.0, 0.0, 0.0, 0.0, 0.0, 0.0, 0.0, 0.0, 0.0, 0.0, 1.6635876126369035E9, 0.0, 2022-09-19 16:40:12.636
194.0, -17180.3554511494, -21021.659198005105, -28188.701354110406, -17529.33323733011, 187500.0, 187500.0, -32129.87269519242, -33722.6580050776, 0.738, -0.544, 0.47800000000000004, 192.0, 0.0, 0.0, 0.0, 0.0, 0.0, 0.0, 0.0, 0.0, 0.0, 1.6635876126398335E9, 0.0, 2022-09-19 16:40:12.639
195.0, -17189.698480331717, -21013.321997323277, -28175.178548714943, -17518.89497266948, 187500.0, 187500.0, -32190.51297789967, -33712.957347984004, 0.738, -0.544, 0.47800000000000004, 192.0, 0.0, 0.0, 0.0, 0.0, 0.0, 0.0, 0.0, 0.0, 0.0, 1.6635876126437905E9, 0.0, 2022-09-19 16:40:12.643
196.0, -17189.54201812053, -21028.074148663778, -28176.20672895989, -17513.351740044563, 187500.0, 187500.0, -32223.37004224897, -33712.82323751727, 0.738, -0.544, 0.47800000000000004, 192.0, 0.0, 0.0, 0.0, 0.0, 0.0, 0.0, 0.0, 0.0, 0.0, 1.6635876126477792E9, 0.0, 2022-09-19 16:40:12.647
197.0, -17190.726660576664, -21042.245154648444, -28187.62847037655, -17521.04074013719, 187500.0, 187500.0, -32222.587731193034, -33724.17792370056, 0.738, -0.544, 0.47800000000000004, 192.0, 0.0, 0.0, 0.0, 0.0, 0.0, 0.0, 0.0, 0.0, 0.0, 1.6635876126518579E9, 0.0, 2022-09-19 16:40:12.651
198.0, -17205.188239239247, -21063.367553158707, -28200.43601994944, -17530.42847280842, 187500.0, 187500.0, -32194.893919812912, -33729.89997028112, 0.738, -0.544, 0.47800000000000004, 192.0, 0.0, 0.0, 0.0, 0.0, 0.0, 0.0, 0.0, 0.0, 0.0, 1.6635876126559055E9, 0.0, 2022-09-19 16:40:12.655
199.0, -17218.018140556593, -21073.828169563792, -28189.930700055447, -17519.118490114033, 187500.0, 187500.0, -32202.98525130573, -33712.66677530608, 0.738, -0.544, 0.47800000000000004, 192.0, 0.0, 0.0, 0.0, 0.0, 0.0, 0.0, 0.0, 0.0, 0.0, 1.6635876126599305E9, 0.0, 2022-09-19 16:40:12.659
200.0, -17223.159041781313, -21045.55321282783, -28185.25918546429, -17516.36922554603, 187500.0, 187500.0, -32264.38549332446, -33711.705650294505, 0.73, -0.548, 0.48, 192.0, 22.0, 208.0, 238.0, 224.0, 15.0, 0.0, 0.0, 0.0, 0.0, 1.6635876126628468E9, 0.0, 2022-09-19 16:40:12.662
201.0, -17208.07161427398, -21026.576581785273, -28175.58088011514, -17515.542211001186, 187500.0, 187500.0, -32299.63419433048, -33717.494752108425, 0.73, -0.548, 0.48, 192.0, 0.0, 0.0, 0.0, 0.0, 0.0, 0.0, 0.0, 0.0, 0.0, 1.6635876126668797E9, 0.0, 2022-09-19 16:40:12.666
202.0, -17180.86954127187, -21026.710692252003, -28166.86369977757, -17505.66273995194, 187500.0, 187500.0, -32294.96267973932, -33708.46464734848, 0.73, -0.548, 0.48, 192.0, 0.0, 0.0, 0.0, 0.0, 0.0, 0.0, 0.0, 0.0, 0.0, 1.6635876126708333E9, 0.0, 2022-09-19 16:40:12.670
203.0, -17164.48571258613, -21023.06735790579, -28170.775255057248, -17505.2827602962, 187500.0, 187500.0, -32264.09492064654, -33710.0069177159, 0.73, -0.548, 0.48, 192.0, 0.0, 0.0, 0.0, 0.0, 0.0, 0.0, 0.0, 0.0, 0.0, 1.6635876126758215E9, 0.0, 2022-09-19 16:40:12.675
204.0, -17175.01338422458, -21032.07511092128, -28174.3515341701, -17516.41392903494, 187500.0, 187500.0, -32278.19887139784, -33715.34898464072, 0.73, -0.548, 0.48, 192.0, 0.0, 0.0, 0.0, 0.0, 0.0, 0.0, 0.0, 0.0, 0.0, 1.6635876126799257E9, 0.0, 2022-09-19 16:40:12.679
205.0, -17179.371974393365, -21034.48909932245, -28161.789853786213, -17512.65883596645, 187500.0, 187500.0, -32336.134593025996, -33705.51421708038, 0.73, -0.548, 0.48, 192.0, 0.0, 0.0, 0.0, 0.0, 0.0, 0.0, 0.0, 0.0, 0.0, 1.6635876126839092E9, 0.0, 2022-09-19 16:40:12.683
206.0, -17176.890930758826, -21039.004151702422, -28159.91230725197, -17507.473231252818, 187500.0, 187500.0, -32362.59905846108, -33708.64346130413, 0.73, -0.548, 0.48, 192.0, 0.0, 0.0, 0.0, 0.0, 0.0, 0.0, 0.0, 0.0, 0.0, 1.663587612687934E9, 0.0, 2022-09-19 16:40:12.687
207.0, -17185.58575935194, -21053.421026876098, -28164.85204277659, -17510.244847565275, 187500.0, 187500.0, -32354.843003135087, -33719.662871320594, 0.73, -0.548, 0.48, 192.0, 0.0, 0.0, 0.0, 0.0, 0.0, 0.0, 0.0, 0.0, 0.0, 1.6635876126908925E9, 0.0, 2022-09-19 16:40:12.690
208.0, -17194.235884456146, -21075.571605631307, -28176.0502667487, -17523.119452371535, 187500.0, 187500.0, -32326.456287676847, -33730.25759819241, 0.73, -0.548, 0.48, 192.0, 0.0, 0.0, 0.0, 0.0, 0.0, 0.0, 0.0, 0.0, 0.0, 1.6635876126950488E9, 0.0, 2022-09-19 16:40:12.695
209.0, -17191.799544310517, -21053.912765254114, -28184.454522663895, -17529.847327452582, 187500.0, 187500.0, -32336.089889537085, -33731.553999370815, 0.73, -0.548, 0.48, 192.0, 0.0, 0.0, 0.0, 0.0, 0.0, 0.0, 0.0, 0.0, 0.0, 1.6635876127009063E9, 0.0, 2022-09-19 16:40:12.700
210.0, -17191.82189605497, -21033.349160355232, -28175.983211515333, -17513.999940633767, 187500.0, 187500.0, -32390.762256474765, -33715.77366778537, 0.738, -0.548, 0.48, 192.0, 23.0, 16.0, 238.0, 224.0, 15.0, 0.0, 0.0, 0.0, 0.0, 1.6635876127039404E9, 0.0, 2022-09-19 16:40:12.703
211.0, -17179.34962264891, -21020.206334615512, -28167.95893525588, -17501.885295138993, 187500.0, 187500.0, -32416.198541664904, -33710.096324693724, 0.738, -0.548, 0.48, 192.0, 0.0, 0.0, 0.0, 0.0, 0.0, 0.0, 0.0, 0.0, 0.0, 1.663587612708976E9, 0.0, 2022-09-19 16:40:12.708
212.0, -17172.845265012416, -21031.136337654156, -28172.406932402486, -17506.3332922856, 187500.0, 187500.0, -32410.40943985098, -33723.14974345562, 0.738, -0.548, 0.48, 192.0, 0.0, 0.0, 0.0, 0.0, 0.0, 0.0, 0.0, 0.0, 0.0, 1.6635876127129707E9, 0.0, 2022-09-19 16:40:12.712
213.0, -17161.2000061512, -21007.756412953906, -28179.738304583825, -17509.440184764884, 187500.0, 187500.0, -32372.724398699334, -33725.07199347878, 0.738, -0.548, 0.48, 192.0, 0.0, 0.0, 0.0, 0.0, 0.0, 0.0, 0.0, 0.0, 0.0, 1.663587612716961E9, 0.0, 2022-09-19 16:40:12.716
214.0, -17160.97648870665, -20996.558188981795, -28174.128016725543, -17498.3313677706, 187500.0, 187500.0, -32370.198651575884, -33708.554054326305, 0.738, -0.548, 0.48, 192.0, 0.0, 0.0, 0.0, 0.0, 0.0, 0.0, 0.0, 0.0, 0.0, 1.6635876127199569E9, 0.0, 2022-09-19 16:40:12.719
215.0, -17177.963814492683, -21015.087785135245, -28169.031818989733, -17491.93876885638, 187500.0, 187500.0, -32425.98860573633, -33699.63570828864, 0.738, -0.548, 0.48, 192.0, 0.0, 0.0, 0.0, 0.0, 0.0, 0.0, 0.0, 0.0, 0.0, 1.6635876127230392E9, 0.0, 2022-09-19 16:40:12.723
216.0, -17189.519666376076, -21022.97795092797, -28166.886051522026, -17489.591835688574, 187500.0, 187500.0, -32463.964219565896, -33698.94280421052, 0.738, -0.548, 0.48, 192.0, 0.0, 0.0, 0.0, 0.0, 0.0, 0.0, 0.0, 0.0, 0.0, 1.6635876127270777E9, 0.0, 2022-09-19 16:40:12.727
217.0, -17161.132950917836, -20997.653424460106, -28163.06390322017, -17483.199236774355, 187500.0, 187500.0, -32457.32575146267, -33696.595871042715, 0.738, -0.548, 0.48, 192.0, 0.0, 0.0, 0.0, 0.0, 0.0, 0.0, 0.0, 0.0, 0.0, 1.6635876127309325E9, 0.0, 2022-09-19 16:40:12.730
218.0, -17154.82975898144, -21003.084898362744, -28177.905461538492, -17499.963045115834, 187500.0, 187500.0, -32432.8058877952, -33713.06910670628, 0.738, -0.548, 0.48, 192.0, 0.0, 0.0, 0.0, 0.0, 0.0, 0.0, 0.0, 0.0, 0.0, 1.6635876127360048E9, 0.0, 2022-09-19 16:40:12.736
219.0, -17138.512985529065, -20988.042174344322, -28157.364208384064, -17489.390669988476, 187500.0, 187500.0, -32429.52018136027, -33698.562824554785, 0.738, -0.548, 0.48, 192.0, 0.0, 0.0, 0.0, 0.0, 0.0, 0.0, 0.0, 0.0, 0.0, 1.663587612740082E9, 0.0, 2022-09-19 16:40:12.740
220.0, -17147.63249726683, -21001.050889617312, -28148.088234435112, -17483.71332689683, 187500.0, 187500.0, -32483.99138259785, -33687.52106279386, 0.734, -0.548, 0.48, 192.0, 22.0, 240.0, 238.0, 224.0, 15.0, 0.0, 0.0, 0.0, 0.0, 1.6635876127430537E9, 0.0, 2022-09-19 16:40:12.743
221.0, -17154.00274443659, -21017.345311325233, -28153.296190893197, -17487.98251008779, 187500.0, 187500.0, -32522.145810383063, -33693.1537023966, 0.734, -0.548, 0.48, 192.0, 0.0, 0.0, 0.0, 0.0, 0.0, 0.0, 0.0, 0.0, 0.0, 1.6635876127469623E9, 0.0, 2022-09-19 16:40:12.746
222.0, -17150.58292753493, -20999.933302394547, -28147.261219890264, -17483.93684434138, 187500.0, 187500.0, -32508.53359800978, -33691.2538041179, 0.734, -0.548, 0.48, 192.0, 0.0, 0.0, 0.0, 0.0, 0.0, 0.0, 0.0, 0.0, 0.0, 1.6635876127509575E9, 0.0, 2022-09-19 16:40:12.750
223.0, -17148.05718041148, -20985.695241176516, -28153.18443217092, -17489.971815344314, 187500.0, 187500.0, -32467.071112045185, -33697.24407163192, 0.734, -0.548, 0.48, 192.0, 0.0, 0.0, 0.0, 0.0, 0.0, 0.0, 0.0, 0.0, 0.0, 1.6635876127550704E9, 0.0, 2022-09-19 16:40:12.755
224.0, -17158.406038094286, -20987.103401077202, -28163.24271717581, -17504.254580051253, 187500.0, 187500.0, -32467.920478334487, -33706.25182464741, 0.734, -0.548, 0.48, 192.0, 0.0, 0.0, 0.0, 0.0, 0.0, 0.0, 0.0, 0.0, 0.0, 1.6635876127589755E9, 0.0, 2022-09-19 16:40:12.758
225.0, -17172.86761675687, -20987.304566777297, -28163.823862531648, -17498.867809637526, 187500.0, 187500.0, -32520.938816182475, -33701.26738563387, 0.734, -0.548, 0.48, 192.0, 0.0, 0.0, 0.0, 0.0, 0.0, 0.0, 0.0, 0.0, 0.0, 1.663587612763994E9, 0.0, 2022-09-19 16:40:12.763
226.0, -17179.97547149366, -21005.320072808277, -28174.95503127039, -17502.958178872846, 187500.0, 187500.0, -32552.611238075646, -33708.24112990393, 0.734, -0.548, 0.48, 192.0, 0.0, 0.0, 0.0, 0.0, 0.0, 0.0, 0.0, 0.0, 0.0, 1.6635876127679915E9, 0.0, 2022-09-19 16:40:12.767
227.0, -17176.667413314273, -21019.602837515216, -28170.216461445867, -17501.907646883446, 187500.0, 187500.0, -32541.658883292544, -33705.1565891691, 0.734, -0.548, 0.48, 192.0, 0.0, 0.0, 0.0, 0.0, 0.0, 0.0, 0.0, 0.0, 0.0, 1.6635876127720003E9, 0.0, 2022-09-19 16:40:12.772
228.0, -17183.618805839873, -21054.493910609952, -28174.19507195891, -17503.47226899532, 187500.0, 187500.0, -32503.28093806278, -33706.8553217477, 0.734, -0.548, 0.48, 192.0, 0.0, 0.0, 0.0, 0.0, 0.0, 0.0, 0.0, 0.0, 0.0, 1.663587612776092E9, 0.0, 2022-09-19 16:40:12.776
229.0, -17181.271872672067, -21036.21018364551, -28177.458426649384, -17504.791021918183, 187500.0, 187500.0, -32495.7707519258, -33706.83297000325, 0.734, -0.548, 0.48, 192.0, 0.0, 0.0, 0.0, 0.0, 0.0, 0.0, 0.0, 0.0, 0.0, 1.6635876127800465E9, 0.0, 2022-09-19 16:40:12.780
230.0, -17176.667413314273, -20990.9031976346, -28171.266993435263, -17494.576274702107, 187500.0, 187500.0, -32544.38579611609, -33698.29460362132, 0.736, -0.542, 0.482, 192.0, 23.0, 0.0, 239.0, 16.0, 15.0, 16.0, 0.0, 0.0, 0.0, 1.6635876127830527E9, 0.0, 2022-09-19 16:40:12.783
231.0, -17183.127067461857, -20977.96153759498, -28173.502167880797, -17495.693861924872, 187500.0, 187500.0, -32574.672409853032, -33705.961251969486, 0.736, -0.542, 0.482, 192.0, 0.0, 0.0, 0.0, 0.0, 0.0, 0.0, 0.0, 0.0, 0.0, 1.6635876127890296E9, 0.0, 2022-09-19 16:40:12.789
232.0, -17168.039639954524, -20961.53300542033, -28164.405007887486, -17486.127315298, 187500.0, 187500.0, -32553.415900876036, -33694.56186229728, 0.736, -0.542, 0.482, 192.0, 0.0, 0.0, 0.0, 0.0, 0.0, 0.0, 0.0, 0.0, 0.0, 1.6635876127920325E9, 0.0, 2022-09-19 16:40:12.792
233.0, -17167.79377076552, -20979.01206958438, -28173.85979579208, -17488.47424846581, 187500.0, 187500.0, -32509.986461399374, -33701.08857167823, 0.736, -0.542, 0.482, 192.0, 0.0, 0.0, 0.0, 0.0, 0.0, 0.0, 0.0, 0.0, 0.0, 1.6635876127970676E9, 0.0, 2022-09-19 16:40:12.797
234.0, -17189.631425098352, -21006.862343175693, -28182.442865662917, -17498.666643937428, 187500.0, 187500.0, -32501.381039784083, -33706.587100814235, 0.736, -0.542, 0.482, 192.0, 0.0, 0.0, 0.0, 0.0, 0.0, 0.0, 0.0, 0.0, 0.0, 1.663587612800074E9, 0.0, 2022-09-19 16:40:12.800
235.0, -17203.55656189401, -21016.1606688691, -28175.357362670587, -17494.062184579634, 187500.0, 187500.0, -32546.509211839344, -33701.04386818932, 0.736, -0.542, 0.482, 192.0, 0.0, 0.0, 0.0, 0.0, 0.0, 0.0, 0.0, 0.0, 0.0, 1.663587612804041E9, 0.0, 2022-09-19 16:40:12.804
236.0, -17202.953064793714, -21016.02655840237, -28179.201862716898, -17493.32457701261, 187500.0, 187500.0, -32575.857052309166, -33702.04969668981, 0.736, -0.542, 0.482, 192.0, 0.0, 0.0, 0.0, 0.0, 0.0, 0.0, 0.0, 0.0, 0.0, 1.663587612807047E9, 0.0, 2022-09-19 16:40:12.807
237.0, -17187.48565763064, -21001.16264833959, -28185.080371508644, -17502.84642015057, 187500.0, 187500.0, -32567.475148138423, -33709.93986248253, 0.736, -0.542, 0.482, 192.0, 0.0, 0.0, 0.0, 0.0, 0.0, 0.0, 0.0, 0.0, 0.0, 1.6635876128111577E9, 0.0, 2022-09-19 16:40:12.811
238.0, -17165.78211376454, -21000.33563379474, -28193.462275679383, -17514.961065645348, 187500.0, 187500.0, -32525.073888906707, -33726.18958070154, 0.736, -0.542, 0.482, 192.0, 0.0, 0.0, 0.0, 0.0, 0.0, 0.0, 0.0, 0.0, 0.0, 1.6635876128150759E9, 0.0, 2022-09-19 16:40:12.815
239.0, -17151.655811268785, -20974.228796270945, -28185.125074997555, -17511.51889699923, 187500.0, 187500.0, -32508.980632898885, -33722.590949844234, 0.736, -0.542, 0.482, 192.0, 0.0, 0.0, 0.0, 0.0, 0.0, 0.0, 0.0, 0.0, 0.0, 1.6635876128190715E9, 0.0, 2022-09-19 16:40:12.819
240.0, -17146.38079957733, -20943.62925811163, -28166.52842361074, -17491.46938222282, 187500.0, 187500.0, -32552.45477586446, -33700.66388853358, 0.736, -0.542, 0.486, 192.0, 23.0, 0.0, 239.0, 16.0, 15.0, 48.0, 0.0, 0.0, 0.0, 1.6635876128241034E9, 0.0, 2022-09-19 16:40:12.824
241.0, -17150.53822404602, -20950.021857025848, -28164.91909800996, -17487.22255077631, 187500.0, 187500.0, -32594.274889740336, -33699.03221118834, 0.736, -0.542, 0.486, 192.0, 0.0, 0.0, 0.0, 0.0, 0.0, 0.0, 0.0, 0.0, 0.0, 1.6635876128271403E9, 0.0, 2022-09-19 16:40:12.827
242.0, -17158.2495758831, -20974.54172069332, -28167.57895560014, -17485.590873431072, 187500.0, 187500.0, -32600.443971210003, -33702.6531937901, 0.736, -0.542, 0.486, 192.0, 0.0, 0.0, 0.0, 0.0, 0.0, 0.0, 0.0, 0.0, 0.0, 1.6635876128310988E9, 0.0, 2022-09-19 16:40:12.831
243.0, -17167.525549832055, -21009.321035065776, -28167.646010833505, -17486.261425764733, 187500.0, 187500.0, -32573.510119141356, -33706.63180430315, 0.736, -0.542, 0.486, 192.0, 0.0, 0.0, 0.0, 0.0, 0.0, 0.0, 0.0, 0.0, 0.0, 1.6635876128351657E9, 0.0, 2022-09-19 16:40:12.835
244.0, -17179.170808693267, -21011.198581600023, -28167.91423176697, -17487.490771709774, 187500.0, 187500.0, -32572.437235407502, -33711.19156017203, 0.736, -0.542, 0.486, 192.0, 0.0, 0.0, 0.0, 0.0, 0.0, 0.0, 0.0, 0.0, 0.0, 1.6635876128391197E9, 0.0, 2022-09-19 16:40:12.839
245.0, -17182.92590176176, -20956.52621466234, -28152.08919669261, -17471.77749535769, 187500.0, 187500.0, -32633.904532659595, -33693.734847752436, 0.736, -0.542, 0.486, 192.0, 0.0, 0.0, 0.0, 0.0, 0.0, 0.0, 0.0, 0.0, 0.0, 1.6635876128431566E9, 0.0, 2022-09-19 16:40:12.843
246.0, -17184.043488984524, -20939.315371431752, -28135.23598137331, -17457.002992272734, 187500.0, 187500.0, -32681.916079749597, -33678.423902800554, 0.736, -0.542, 0.486, 192.0, 0.0, 0.0, 0.0, 0.0, 0.0, 0.0, 0.0, 0.0, 0.0, 1.6635876128471668E9, 0.0, 2022-09-19 16:40:12.847
247.0, -17177.963814492683, -20952.68171461603, -28128.306940592163, -17455.639535860962, 187500.0, 187500.0, -32695.32712642278, -33675.495824276906, 0.736, -0.542, 0.486, 192.0, 0.0, 0.0, 0.0, 0.0, 0.0, 0.0, 0.0, 0.0, 0.0, 1.663587612850201E9, 0.0, 2022-09-19 16:40:12.850
248.0, -17172.666451056775, -20949.038380269812, -28120.573237010627, -17456.086570750067, 187500.0, 187500.0, -32683.19012918355, -33672.32187656425, 0.736, -0.542, 0.486, 192.0, 0.0, 0.0, 0.0, 0.0, 0.0, 0.0, 0.0, 0.0, 0.0, 1.6635876128562424E9, 0.0, 2022-09-19 16:40:12.856
249.0, -17148.101883900392, -20913.744975774884, -28101.216626312333, -17452.130311981477, 187500.0, 187500.0, -32697.070562490295, -33664.67757996054, 0.736, -0.542, 0.486, 192.0, 0.0, 0.0, 0.0, 0.0, 0.0, 0.0, 0.0, 0.0, 0.0, 1.6635876128591464E9, 0.0, 2022-09-19 16:40:12.859
250.0, -17144.257383854077, -20906.726528015915, -28086.531530205197, -17436.46173911831, 187500.0, 187500.0, -32773.62528724972, -33655.491012989405, 0.73, -0.536, 0.484, 192.0, 22.0, 208.0, 239.0, 64.0, 15.0, 32.0, 0.0, 0.0, 0.0, 1.6635876128631947E9, 0.0, 2022-09-19 16:40:12.863
251.0, -17137.44010179521, -20908.08998442769, -28069.566556163616, -17419.072081932078, 187500.0, 187500.0, -32837.39481418071, -33648.0925855747, 0.73, -0.536, 0.484, 192.0, 0.0, 0.0, 0.0, 0.0, 0.0, 0.0, 0.0, 0.0, 0.0, 1.6635876128681972E9, 0.0, 2022-09-19 16:40:12.868
252.0, -17132.18744184821, -20896.914112200036, -28060.178823492388, -17408.320892849075, 187500.0, 187500.0, -32863.74752089352, -33642.66111167206, 0.73, -0.536, 0.484, 192.0, 0.0, 0.0, 0.0, 0.0, 0.0, 0.0, 0.0, 0.0, 0.0, 1.6635876128721914E9, 0.0, 2022-09-19 16:40:12.872
253.0, -17100.179743788212, -20870.56140548723, -28034.9660557468, -17392.24998858571, 187500.0, 187500.0, -32860.99825632552, -33636.827306369225, 0.73, -0.536, 0.484, 192.0, 0.0, 0.0, 0.0, 0.0, 0.0, 0.0, 0.0, 0.0, 0.0, 1.663587612877236E9, 0.0, 2022-09-19 16:40:12.877
254.0, -17095.150601285768, -20867.119236841114, -28022.292616640643, -17383.86808441497, 187500.0, 187500.0, -32877.89617513373, -33634.74859413488, 0.73, -0.536, 0.484, 192.0, 0.0, 0.0, 0.0, 0.0, 0.0, 0.0, 0.0, 0.0, 0.0, 1.6635876128801944E9, 0.0, 2022-09-19 16:40:12.880
255.0, -17089.85323784986, -20850.75775989983, -28007.004023433212, -17365.941985361813, 187500.0, 187500.0, -32950.56169635793, -33614.43085842501, 0.73, -0.536, 0.484, 192.0, 0.0, 0.0, 0.0, 0.0, 0.0, 0.0, 0.0, 0.0, 0.0, 1.6635876128832188E9, 0.0, 2022-09-19 16:40:12.883
0.0, -17079.034993533493, -20843.471091207397, -27996.34224132803, -17351.793331121604, 187500.0, 187500.0, -33017.12519134583, -33595.83420703819, 0.73, -0.536, 0.484, 192.0, 0.0, 0.0, 0.0, 0.0, 0.0, 0.0, 0.0, 0.0, 0.0, 1.6635876128873281E9, 0.0, 2022-09-19 16:40:12.887
1.0, -17077.202150488156, -20844.99100983036, -28000.45496230781, -17353.894395100404, 187500.0, 187500.0, -33048.037653927524, -33592.570852347715, 0.73, -0.536, 0.484, 192.0, 0.0, 0.0, 0.0, 0.0, 0.0, 0.0, 0.0, 0.0, 0.0, 1.6635876128912773E9, 0.0, 2022-09-19 16:40:12.891
2.0, -17066.540368382975, -20848.299068009743, -28000.96905243028, -17350.51928168765, 187500.0, 187500.0, -33035.34186307691, -33589.575718590706, 0.73, -0.536, 0.484, 192.0, 0.0, 0.0, 0.0, 0.0, 0.0, 0.0, 0.0, 0.0, 0.0, 1.6635876128952475E9, 0.0, 2022-09-19 16:40:12.895
3.0, -17048.18958618517, -20835.089187036658, -28003.517151298187, -17345.82541535204, 187500.0, 187500.0, -33038.82873521194, -33582.66902955402, 0.73, -0.536, 0.484, 192.0, 0.0, 0.0, 0.0, 0.0, 0.0, 0.0, 0.0, 0.0, 0.0, 1.6635876128992586E9, 0.0, 2022-09-19 16:40:12.899
4.0, -17039.539461080964, -20806.814230300693, -27994.86702619398, -17327.42992966532, 187500.0, 187500.0, -33103.760552854605, -33560.898430454545, 0.734, -0.544, 0.47800000000000004, 192.0, 22.0, 240.0, 239.0, 0.0, 14.0, 240.0, 0.0, 0.0, 0.0, 1.6635876129032872E9, 0.0, 2022-09-19 16:40:12.903
5.0, -17033.07980693338, -20799.30404416371, -27979.153749841902, -17310.643769579383, 187500.0, 187500.0, -33152.1744313448, -33540.893619167044, 0.734, -0.544, 0.47800000000000004, 192.0, 0.0, 0.0, 0.0, 0.0, 0.0, 0.0, 0.0, 0.0, 0.0, 1.6635876129072468E9, 0.0, 2022-09-19 16:40:12.907
6.0, -17023.401501584234, -20797.001814484815, -27966.502662480198, -17300.42902236331, 187500.0, 187500.0, -33158.61173374793, -33527.147296327035, 0.734, -0.544, 0.47800000000000004, 192.0, 0.0, 0.0, 0.0, 0.0, 0.0, 0.0, 0.0, 0.0, 0.0, 1.6635876129102626E9, 0.0, 2022-09-19 16:40:12.910
7.0, -17015.064300902402, -20802.679157576462, -27977.164444585378, -17302.32892064201, 187500.0, 187500.0, -33134.04716659155, -33532.95874988541, 0.734, -0.544, 0.47800000000000004, 192.0, 0.0, 0.0, 0.0, 0.0, 0.0, 0.0, 0.0, 0.0, 0.0, 1.6635876129142725E9, 0.0, 2022-09-19 16:40:12.914
8.0, -17020.80869922742, -20806.16602971149, -27990.061401136092, -17306.53104859961, 187500.0, 187500.0, -33123.474791464185, -33532.42230801848, 0.734, -0.544, 0.47800000000000004, 192.0, 0.0, 0.0, 0.0, 0.0, 0.0, 0.0, 0.0, 0.0, 0.0, 1.6635876129192848E9, 0.0, 2022-09-19 16:40:12.919
9.0, -17038.08659769137, -20811.08341349166, -27993.369459315476, -17306.53104859961, 187500.0, 187500.0, -33182.23752763719, -33514.22798803187, 0.734, -0.544, 0.47800000000000004, 192.0, 0.0, 0.0, 0.0, 0.0, 0.0, 0.0, 0.0, 0.0, 0.0, 1.6635876129233036E9, 0.0, 2022-09-19 16:40:12.923
10.0, -17045.41796987271, -20807.820058801182, -27988.988517402235, -17303.021824720123, 187500.0, 187500.0, -33237.46868818625, -33511.03168857476, 0.734, -0.544, 0.47800000000000004, 192.0, 0.0, 0.0, 0.0, 0.0, 0.0, 0.0, 0.0, 0.0, 0.0, 1.6635876129272676E9, 0.0, 2022-09-19 16:40:12.927
11.0, -17037.75132152454, -20810.50226813582, -27989.16733135788, -17302.75360378666, 187500.0, 187500.0, -33252.22083952676, -33512.01516533079, 0.734, -0.544, 0.47800000000000004, 192.0, 0.0, 0.0, 0.0, 0.0, 0.0, 0.0, 0.0, 0.0, 0.0, 1.6635876129314837E9, 0.0, 2022-09-19 16:40:12.931
12.0, -17036.589030812866, -20815.754928082817, -27999.96322392979, -17304.586446831996, 187500.0, 187500.0, -33234.54060966261, -33515.72555491037, 0.734, -0.544, 0.47800000000000004, 192.0, 0.0, 0.0, 0.0, 0.0, 0.0, 0.0, 0.0, 0.0, 0.0, 1.6635876129353237E9, 0.0, 2022-09-19 16:40:12.935
13.0, -17046.26733616201, -20820.091166507147, -28006.177008888368, -17309.883810267904, 187500.0, 187500.0, -33228.706804359776, -33516.01612758829, 0.734, -0.544, 0.47800000000000004, 192.0, 0.0, 0.0, 0.0, 0.0, 0.0, 0.0, 0.0, 0.0, 0.0, 1.6635876129403636E9, 0.0, 2022-09-19 16:40:12.940
14.0, -17061.175949713703, -20823.578038642176, -28007.45105832232, -17316.835202793503, 187500.0, 187500.0, -33288.475369033265, -33511.32226125267, 0.734, -0.544, 0.47800000000000004, 192.0, 0.0, 0.0, 0.0, 0.0, 0.0, 0.0, 0.0, 0.0, 0.0, 1.663587612944466E9, 0.0, 2022-09-19 16:40:12.944
15.0, -17066.316850938423, -20827.400186944033, -28010.155619401412, -17319.360949916954, 187500.0, 187500.0, -33340.10789872502, -33510.361136241096, 0.736, -0.55, 0.484, 192.0, 23.0, 0.0, 238.0, 208.0, 15.0, 32.0, 0.0, 0.0, 0.0, 1.6635876129474325E9, 0.0, 2022-09-19 16:40:12.947
16.0, -17055.498606622055, -20824.69562586494, -28023.857238752516, -17326.312342442554, 187500.0, 187500.0, -33357.2740384667, -33523.12398232508, 0.736, -0.55, 0.484, 192.0, 0.0, 0.0, 0.0, 0.0, 0.0, 0.0, 0.0, 0.0, 0.0, 1.6635876129523468E9, 0.0, 2022-09-19 16:40:12.952
17.0, -17042.46753960461, -20818.07950950617, -28026.606503320516, -17335.409502435865, 187500.0, 187500.0, -33339.45969813582, -33535.171572586485, 0.736, -0.55, 0.484, 192.0, 0.0, 0.0, 0.0, 0.0, 0.0, 0.0, 0.0, 0.0, 0.0, 1.6635876129563923E9, 0.0, 2022-09-19 16:40:12.956
18.0, -17042.2216704156, -20826.50611716582, -28033.401433634932, -17340.326886216033, 187500.0, 187500.0, -33328.06030846361, -33537.02676737628, 0.736, -0.55, 0.484, 192.0, 0.0, 0.0, 0.0, 0.0, 0.0, 0.0, 0.0, 0.0, 0.0, 1.6635876129614637E9, 0.0, 2022-09-19 16:40:12.961
19.0, -17041.282897148478, -20816.492535649842, -28025.10893644201, -17329.10631049947, 187500.0, 187500.0, -33378.55289918815, -33521.02291834628, 0.736, -0.55, 0.484, 192.0, 0.0, 0.0, 0.0, 0.0, 0.0, 0.0, 0.0, 0.0, 0.0, 1.6635876129644036E9, 0.0, 2022-09-19 16:40:12.964
20.0, -17034.532670322977, -20818.83946881765, -28023.63372130796, -17324.725368586227, 187500.0, 187500.0, -33429.91720794645, -33517.49134272234, 0.736, -0.55, 0.484, 192.0, 0.0, 0.0, 0.0, 0.0, 0.0, 0.0, 0.0, 0.0, 0.0, 1.66358761296736E9, 0.0, 2022-09-19 16:40:12.967
21.0, -17033.593897055853, -20828.137794511058, -28037.111823214513, -17332.57083089004, 187500.0, 187500.0, -33444.512897075765, -33528.041366105244, 0.736, -0.55, 0.484, 192.0, 0.0, 0.0, 0.0, 0.0, 0.0, 0.0, 0.0, 0.0, 0.0, 1.6635876129704428E9, 0.0, 2022-09-19 16:40:12.970
22.0, -17033.638600544764, -20838.061969049213, -28048.98059952028, -17343.210261250766, 187500.0, 187500.0, -33422.697594487385, -33542.63705523456, 0.736, -0.55, 0.484, 192.0, 0.0, 0.0, 0.0, 0.0, 0.0, 0.0, 0.0, 0.0, 0.0, 1.6635876129744484E9, 0.0, 2022-09-19 16:40:12.974
23.0, -17031.626943543786, -20839.22425976089, -28055.864936812515, -17347.25592699718, 187500.0, 187500.0, -33410.42648678142, -33543.844049435145, 0.736, -0.55, 0.484, 192.0, 0.0, 0.0, 0.0, 0.0, 0.0, 0.0, 0.0, 0.0, 0.0, 1.663587612979426E9, 0.0, 2022-09-19 16:40:12.979
24.0, -17045.46267336162, -20836.586753915162, -28047.863012297516, -17338.56109840406, 187500.0, 187500.0, -33463.735397307326, -33532.2658458073, 0.736, -0.55, 0.484, 192.0, 0.0, 0.0, 0.0, 0.0, 0.0, 0.0, 0.0, 0.0, 0.0, 1.6635876129833643E9, 0.0, 2022-09-19 16:40:12.983
25.0, -17055.856234533338, -20836.966733570902, -28043.280904684176, -17328.972200032735, 187500.0, 187500.0, -33511.09874380812, -33529.3154155392, 0.742, -0.556, 0.47400000000000003, 192.0, 23.0, 48.0, 238.0, 160.0, 14.0, 208.0, 0.0, 0.0, 0.0, 1.6635876129873958E9, 0.0, 2022-09-19 16:40:12.987
26.0, -17062.204129958645, -20842.50996619582, -28051.46164315482, -17331.408540178363, 187500.0, 187500.0, -33516.01612758829, -33532.77993592977, 0.742, -0.556, 0.47400000000000003, 192.0, 0.0, 0.0, 0.0, 0.0, 0.0, 0.0, 0.0, 0.0, 0.0, 1.6635876129904807E9, 0.0, 2022-09-19 16:40:12.990
27.0, -17056.437379889176, -20841.906469095527, -28061.586983393074, -17341.48917692771, 187500.0, 187500.0, -33490.53513890924, -33545.58748550266, 0.742, -0.556, 0.47400000000000003, 192.0, 0.0, 0.0, 0.0, 0.0, 0.0, 0.0, 0.0, 0.0, 0.0, 1.6635876129944756E9, 0.0, 2022-09-19 16:40:12.994
28.0, -17070.00488877355, -20863.162978072523, -28071.868785842515, -17353.894395100404, 187500.0, 187500.0, -33478.48754864783, -33560.630209521085, 0.742, -0.556, 0.47400000000000003, 192.0, 0.0, 0.0, 0.0, 0.0, 0.0, 0.0, 0.0, 0.0, 0.0, 1.6635876129984255E9, 0.0, 2022-09-19 16:40:12.998
29.0, -17078.94558655567, -20856.07747508019, -28060.64821012595, -17343.746703117693, 187500.0, 187500.0, -33522.386374758054, -33548.672026237495, 0.742, -0.556, 0.47400000000000003, 192.0, 0.0, 0.0, 0.0, 0.0, 0.0, 0.0, 0.0, 0.0, 0.0, 1.663587613002426E9, 0.0, 2022-09-19 16:40:13.002
30.0, -17081.270167979023, -20848.25436452083, -28050.03113150968, -17332.257906467665, 187500.0, 187500.0, -33561.9713141884, -33534.3669097861, 0.742, -0.556, 0.47400000000000003, 192.0, 0.0, 0.0, 0.0, 0.0, 0.0, 0.0, 0.0, 0.0, 0.0, 1.6635876130074437E9, 0.0, 2022-09-19 16:40:13.007
31.0, -17085.76286861454, -20877.691611968472, -28061.65403862644, -17338.449339681785, 187500.0, 187500.0, -33569.1238724141, -33542.860572679114, 0.742, -0.556, 0.47400000000000003, 192.0, 0.0, 0.0, 0.0, 0.0, 0.0, 0.0, 0.0, 0.0, 0.0, 1.6635876130115623E9, 0.0, 2022-09-19 16:40:13.011
32.0, -17059.790141557474, -20907.46413558294, -28067.957230562835, -17351.256889254677, 187500.0, 187500.0, -33536.89265690955, -33556.11515714111, 0.742, -0.556, 0.47400000000000003, 192.0, 0.0, 0.0, 0.0, 0.0, 0.0, 0.0, 0.0, 0.0, 0.0, 1.6635876130154335E9, 0.0, 2022-09-19 16:40:13.015
33.0, -17065.065153248925, -20880.843207936672, -28074.08160854359, -17357.649488168896, 187500.0, 187500.0, -33512.909235109, -33559.60202927614, 0.742, -0.556, 0.47400000000000003, 192.0, 0.0, 0.0, 0.0, 0.0, 0.0, 0.0, 0.0, 0.0, 0.0, 1.6635876130194793E9, 0.0, 2022-09-19 16:40:13.019
34.0, -17096.201133275168, -20835.871498092594, -28068.69483812986, -17353.2461945112, 187500.0, 187500.0, -33551.331883827675, -33553.142375128555, 0.742, -0.556, 0.47400000000000003, 192.0, 0.0, 0.0, 0.0, 0.0, 0.0, 0.0, 0.0, 0.0, 0.0, 1.6635876130235193E9, 0.0, 2022-09-19 16:40:13.023
35.0, -17135.71901747215, -20821.07464326318, -28069.566556163616, -17347.926479330836, 187500.0, 187500.0, -33593.755494803845, -33546.72742446988, 0.742, -0.552, 0.47600000000000003, 192.0, 23.0, 48.0, 238.0, 192.0, 14.0, 224.0, 0.0, 0.0, 0.0, 1.6635876130284472E9, 0.0, 2022-09-19 16:40:13.028
36.0, -17097.89986585377, -20837.3690649711, -28076.74146613377, -17357.62713642444, 187500.0, 187500.0, -33600.01398325133, -33555.109328640625, 0.742, -0.552, 0.47600000000000003, 192.0, 0.0, 0.0, 0.0, 0.0, 0.0, 0.0, 0.0, 0.0, 0.0, 1.6635876130325253E9, 0.0, 2022-09-19 16:40:13.032
37.0, -17046.401446628744, -20900.557446546252, -28082.552919692152, -17370.43468599733, 187500.0, 187500.0, -33569.861479981126, -33568.676837524996, 0.742, -0.552, 0.47600000000000003, 192.0, 0.0, 0.0, 0.0, 0.0, 0.0, 0.0, 0.0, 0.0, 0.0, 1.6635876130365329E9, 0.0, 2022-09-19 16:40:13.036
38.0, -17039.94179248116, -20896.467077310932, -28098.445009999876, -17381.20822682479, 187500.0, 187500.0, -33543.084090123666, -33584.658334810534, 0.742, -0.552, 0.47600000000000003, 192.0, 0.0, 0.0, 0.0, 0.0, 0.0, 0.0, 0.0, 0.0, 0.0, 1.6635876130405433E9, 0.0, 2022-09-19 16:40:13.040
39.0, -17060.259528191036, -20867.74508568586, -28090.957175607346, -17368.82536039655, 187500.0, 187500.0, -33574.51064282783, -33568.54272705826, 0.742, -0.552, 0.47600000000000003, 192.0, 0.0, 0.0, 0.0, 0.0, 0.0, 0.0, 0.0, 0.0, 0.0, 1.6635876130435293E9, 0.0, 2022-09-19 16:40:13.043
40.0, -17092.870723351327, -20841.70530339543, -28081.927070847403, -17350.586336921016, 187500.0, 187500.0, -33607.83709381069, -33551.175421616485, 0.742, -0.552, 0.47600000000000003, 192.0, 0.0, 0.0, 0.0, 0.0, 0.0, 0.0, 0.0, 0.0, 0.0, 1.6635876130475404E9, 0.0, 2022-09-19 16:40:13.047
41.0, -17079.839656333883, -20810.50226813582, -28075.668582399918, -17349.602860164985, 187500.0, 187500.0, -33608.79821882227, -33547.53208727027, 0.742, -0.552, 0.47600000000000003, 192.0, 0.0, 0.0, 0.0, 0.0, 0.0, 0.0, 0.0, 0.0, 0.0, 1.663587613050552E9, 0.0, 2022-09-19 16:40:13.050
42.0, -17074.743458598074, -20824.114480509103, -28069.611259652527, -17365.025563839146, 187500.0, 187500.0, -33580.9255934865, -33558.663256009015, 0.742, -0.552, 0.47600000000000003, 192.0, 0.0, 0.0, 0.0, 0.0, 0.0, 0.0, 0.0, 0.0, 0.0, 1.6635876130545678E9, 0.0, 2022-09-19 16:40:13.054
43.0, -17060.66185959123, -20842.08528305117, -28064.582117150083, -17373.183950565333, 187500.0, 187500.0, -33551.35423557213, -33560.607857776624, 0.742, -0.552, 0.47600000000000003, 192.0, 0.0, 0.0, 0.0, 0.0, 0.0, 0.0, 0.0, 0.0, 0.0, 1.6635876130585213E9, 0.0, 2022-09-19 16:40:13.058
44.0, -17074.29642370897, -20841.370027228597, -28058.144814746956, -17379.554197735095, 187500.0, 187500.0, -33588.81575927923, -33555.0199216628, 0.742, -0.552, 0.47600000000000003, 192.0, 0.0, 0.0, 0.0, 0.0, 0.0, 0.0, 0.0, 0.0, 0.0, 1.663587613062656E9, 0.0, 2022-09-19 16:40:13.062
45.0, -17090.076755294413, -20847.82968137618, -28042.699759328338, -17377.274319800654, 187500.0, 187500.0, -33627.394870209086, -33546.8168314477, 0.706, -0.522, 0.484, 192.0, 22.0, 16.0, 239.0, 176.0, 15.0, 32.0, 0.0, 0.0, 0.0, 1.6635876130676122E9, 0.0, 2022-09-19 16:40:13.067
46.0, -17104.761851401552, -20864.88406239558, -28034.943704002348, -17382.325814047555, 187500.0, 187500.0, -33633.60865516766, -33549.40963380452, 0.706, -0.522, 0.484, 192.0, 0.0, 0.0, 0.0, 0.0, 0.0, 0.0, 0.0, 0.0, 0.0, 1.6635876130705965E9, 0.0, 2022-09-19 16:40:13.070
47.0, -17132.925049415237, -20889.247463851865, -28046.611314608017, -17400.2072096118, 187500.0, 187500.0, -33613.5814921357, -33565.9722764459, 0.706, -0.522, 0.484, 192.0, 0.0, 0.0, 0.0, 0.0, 0.0, 0.0, 0.0, 0.0, 0.0, 1.6635876130746317E9, 0.0, 2022-09-19 16:40:13.074
48.0, -17143.810348964973, -20882.921920171015, -28041.202192449833, -17397.904979932904, 187500.0, 187500.0, -33579.2268609079, -33560.04906416524, 0.706, -0.522, 0.484, 192.0, 0.0, 0.0, 0.0, 0.0, 0.0, 0.0, 0.0, 0.0, 0.0, 1.6635876130786536E9, 0.0, 2022-09-19 16:40:13.078
49.0, -17166.139741675823, -20868.303879297244, -28030.138078944456, -17384.0021948817, 187500.0, 187500.0, -33611.0333932678, -33539.73132845537, 0.706, -0.522, 0.484, 192.0, 0.0, 0.0, 0.0, 0.0, 0.0, 0.0, 0.0, 0.0, 0.0, 1.6635876130826817E9, 0.0, 2022-09-19 16:40:13.082
50.0, -17191.39721291032, -20863.49825423935, -28022.78435501866, -17377.542540734117, 187500.0, 187500.0, -33656.87682114563, -33529.98596787285, 0.706, -0.522, 0.484, 192.0, 0.0, 0.0, 0.0, 0.0, 0.0, 0.0, 0.0, 0.0, 0.0, 1.6635876130866587E9, 0.0, 2022-09-19 16:40:13.086
51.0, -17225.528326693577, -20870.0249636203, -28034.630779579973, -17386.72910770525, 187500.0, 187500.0, -33675.58523125473, -33537.1161743541, 0.706, -0.522, 0.484, 192.0, 0.0, 0.0, 0.0, 0.0, 0.0, 0.0, 0.0, 0.0, 0.0, 1.663587613090618E9, 0.0, 2022-09-19 16:40:13.090
52.0, -17246.65072520384, -20876.17169334551, -28052.422768166398, -17398.73199447775, 187500.0, 187500.0, -33661.72714969244, -33553.634113506574, 0.706, -0.522, 0.484, 192.0, 0.0, 0.0, 0.0, 0.0, 0.0, 0.0, 0.0, 0.0, 0.0, 1.6635876130956683E9, 0.0, 2022-09-19 16:40:13.095
53.0, -17277.31731859652, -20886.90053068406, -28065.811463095128, -17407.82915447106, 187500.0, 187500.0, -33640.76121339336, -33569.83912823667, 0.706, -0.522, 0.484, 192.0, 0.0, 0.0, 0.0, 0.0, 0.0, 0.0, 0.0, 0.0, 0.0, 1.6635876130996308E9, 0.0, 2022-09-19 16:40:13.099
54.0, -17317.215182449243, -20900.177466890513, -28061.31876245961, -17405.906904447904, 187500.0, 187500.0, -33690.13621689513, -33559.06558740921, 0.706, -0.522, 0.484, 192.0, 0.0, 0.0, 0.0, 0.0, 0.0, 0.0, 0.0, 0.0, 0.0, 1.6635876131036255E9, 0.0, 2022-09-19 16:40:13.103
55.0, -17341.19860424979, -20886.833475450694, -28057.11663450201, -17401.369500323475, 187500.0, 187500.0, -33757.25850549442, -33555.0199216628, 0.7000000000000001, -0.52, 0.488, 192.0, 21.0, 224.0, 239.0, 192.0, 15.0, 64.0, 0.0, 0.0, 0.0, 1.6635876131076071E9, 0.0, 2022-09-19 16:40:13.107
56.0, -17333.151976245877, -20866.716905440917, -28070.058294541635, -17392.697023474815, 187500.0, 187500.0, -33776.30219177034, -33551.041311149755, 0.7000000000000001, -0.52, 0.488, 192.0, 0.0, 0.0, 0.0, 0.0, 0.0, 0.0, 0.0, 0.0, 0.0, 1.663587613110688E9, 0.0, 2022-09-19 16:40:13.110
57.0, -17336.392979191896, -20871.097847354158, -28086.397419738463, -17392.115878118977, 187500.0, 187500.0, -33761.34887472974, -33556.78570947477, 0.7000000000000001, -0.52, 0.488, 192.0, 0.0, 0.0, 0.0, 0.0, 0.0, 0.0, 0.0, 0.0, 0.0, 1.663587613114672E9, 0.0, 2022-09-19 16:40:13.114
58.0, -17355.90605210138, -20878.965661402424, -28100.635480956495, -17405.39281432543, 187500.0, 187500.0, -33745.85911582221, -33572.431930593484, 0.7000000000000001, -0.52, 0.488, 192.0, 0.0, 0.0, 0.0, 0.0, 0.0, 0.0, 0.0, 0.0, 0.0, 1.663587613120669E9, 0.0, 2022-09-19 16:40:13.120
59.0, -17368.423028996353, -20876.395210790066, -28102.200103068368, -17401.30244509011, 187500.0, 187500.0, -33791.70254370005, -33568.36391310262, 0.7000000000000001, -0.52, 0.488, 192.0, 0.0, 0.0, 0.0, 0.0, 0.0, 0.0, 0.0, 0.0, 0.0, 1.6635876131247015E9, 0.0, 2022-09-19 16:40:13.124
60.0, -17376.24613955571, -20878.295109068767, -28107.408059526453, -17393.92636941986, 187500.0, 187500.0, -33853.30395141887, -33564.56411654522, 0.7000000000000001, -0.52, 0.488, 192.0, 0.0, 0.0, 0.0, 0.0, 0.0, 0.0, 0.0, 0.0, 0.0, 1.6635876131277382E9, 0.0, 2022-09-19 16:40:13.127
61.0, -17367.975994107248, -20883.056030637745, -28118.829800943113, -17392.093526374523, 187500.0, 187500.0, -33875.83450982982, -33569.9732387034, 0.7000000000000001, -0.52, 0.488, 192.0, 0.0, 0.0, 0.0, 0.0, 0.0, 0.0, 0.0, 0.0, 0.0, 1.6635876131316886E9, 0.0, 2022-09-19 16:40:13.131
62.0, -17344.3949037069, -20886.542902772773, -28119.43329804341, -17390.931235662847, 187500.0, 187500.0, -33865.284486446915, -33572.34252361566, 0.7000000000000001, -0.52, 0.488, 192.0, 0.0, 0.0, 0.0, 0.0, 0.0, 0.0, 0.0, 0.0, 0.0, 1.6635876131346853E9, 0.0, 2022-09-19 16:40:13.134
63.0, -17321.976104018224, -20873.60124273315, -28129.692748748395, -17393.72520371976, 187500.0, 187500.0, -33848.297160660884, -33581.61849756462, 0.7000000000000001, -0.52, 0.488, 192.0, 0.0, 0.0, 0.0, 0.0, 0.0, 0.0, 0.0, 0.0, 0.0, 1.6635876131386452E9, 0.0, 2022-09-19 16:40:13.138
64.0, -17324.323037186034, -20868.639155464072, -28132.062033660655, -17391.95941590779, 187500.0, 187500.0, -33896.129893795245, -33578.77982601879, 0.7000000000000001, -0.52, 0.488, 192.0, 0.0, 0.0, 0.0, 0.0, 0.0, 0.0, 0.0, 0.0, 0.0, 1.6635876131427937E9, 0.0, 2022-09-19 16:40:13.142
65.0, -17324.14422323039, -20873.55653924424, -28135.638312773506, -17389.59013099553, 187500.0, 187500.0, -33954.17737414567, -33574.465939338916, 0.746, -0.5640000000000001, 0.47600000000000003, 192.0, 23.0, 80.0, 238.0, 96.0, 14.0, 224.0, 0.0, 0.0, 0.0, 1.6635876131466548E9, 0.0, 2022-09-19 16:40:13.146
66.0, -17314.13064171441, -20882.050202137256, -28137.359397096563, -17386.997328638714, 187500.0, 187500.0, -33971.87995575428, -33572.722503271405, 0.746, -0.5640000000000001, 0.47600000000000003, 192.0, 0.0, 0.0, 0.0, 0.0, 0.0, 0.0, 0.0, 0.0, 0.0, 1.663587613149768E9, 0.0, 2022-09-19 16:40:13.149
67.0, -17293.74585077117, -20867.946251385958, -28142.14267041, -17385.186837337835, 187500.0, 187500.0, -33952.63510377826, -33581.93142198699, 0.746, -0.5640000000000001, 0.47600000000000003, 192.0, 0.0, 0.0, 0.0, 0.0, 0.0, 0.0, 0.0, 0.0, 0.0, 1.6635876131537285E9, 0.0, 2022-09-19 16:40:13.153
68.0, -17279.105458152946, -20868.08036185269, -28149.988132713814, -17388.29372981712, 187500.0, 187500.0, -33922.08026910785, -33589.73218080189, 0.746, -0.5640000000000001, 0.47600000000000003, 192.0, 0.0, 0.0, 0.0, 0.0, 0.0, 0.0, 0.0, 0.0, 0.0, 1.6635876131577027E9, 0.0, 2022-09-19 16:40:13.157
69.0, -17297.992682217682, -20884.732411471894, -28166.751941055292, -17404.364634080488, 187500.0, 187500.0, -33963.9674382171, -33606.60774786565, 0.746, -0.5640000000000001, 0.47600000000000003, 192.0, 0.0, 0.0, 0.0, 0.0, 0.0, 0.0, 0.0, 0.0, 0.0, 1.6635876131627288E9, 0.0, 2022-09-19 16:40:13.162
70.0, -17300.697243296774, -20875.210568333932, -28162.48275786433, -17402.263570101688, 187500.0, 187500.0, -34011.196674251165, -33605.713678087435, 0.746, -0.5640000000000001, 0.47600000000000003, 192.0, 0.0, 0.0, 0.0, 0.0, 0.0, 0.0, 0.0, 0.0, 0.0, 1.6635876131667929E9, 0.0, 2022-09-19 16:40:13.166
71.0, -17294.952844971758, -20867.56627173022, -28161.409874130473, -17397.30148283261, 187500.0, 187500.0, -34010.23554923959, -33602.94206177498, 0.746, -0.5640000000000001, 0.47600000000000003, 192.0, 0.0, 0.0, 0.0, 0.0, 0.0, 0.0, 0.0, 0.0, 0.0, 1.6635876131707604E9, 0.0, 2022-09-19 16:40:13.170
72.0, -17297.09861243947, -20877.579853246196, -28177.659592349482, -17401.88359044595, 187500.0, 187500.0, -33978.9207552577, -33611.860407812645, 0.746, -0.5640000000000001, 0.47600000000000003, 192.0, 0.0, 0.0, 0.0, 0.0, 0.0, 0.0, 0.0, 0.0, 0.0, 1.6635876131748073E9, 0.0, 2022-09-19 16:40:13.174
73.0, -17294.99754846067, -20871.388420032075, -28180.09593249511, -17400.67659624536, 187500.0, 187500.0, -33932.20560934611, -33608.574701377715, 0.746, -0.5640000000000001, 0.47600000000000003, 192.0, 0.0, 0.0, 0.0, 0.0, 0.0, 0.0, 0.0, 0.0, 0.0, 1.663587613178826E9, 0.0, 2022-09-19 16:40:13.178
74.0, -17302.641845064383, -20873.51183575533, -28169.0988742231, -17394.3063490756, 187500.0, 187500.0, -33952.679807267166, -33608.75351533336, 0.746, -0.5640000000000001, 0.47600000000000003, 192.0, 0.0, 0.0, 0.0, 0.0, 0.0, 0.0, 0.0, 0.0, 0.0, 1.663587613183781E9, 0.0, 2022-09-19 16:40:13.183
75.0, -17302.61949331993, -20870.159074087034, -28163.28742066472, -17392.58526475254, 187500.0, 187500.0, -33995.08106649889, -33613.469733413425, 0.764, -0.588, 0.458, 192.0, 23.0, 224.0, 237.0, 160.0, 14.0, 80.0, 0.0, 0.0, 0.0, 1.6635876131877053E9, 0.0, 2022-09-19 16:40:13.187
76.0, -17281.51944655412, -20870.47199850941, -28171.49051087982, -17391.57943625205, 187500.0, 187500.0, -33992.95765077563, -33615.83901832569, 0.764, -0.588, 0.458, 192.0, 0.0, 0.0, 0.0, 0.0, 0.0, 0.0, 0.0, 0.0, 0.0, 1.6635876131918228E9, 0.0, 2022-09-19 16:40:13.191
77.0, -17269.829484203994, -20885.402963805554, -28188.611947132584, -17401.72712823476, 187500.0, 187500.0, -33956.97134220259, -33624.17621900752, 0.764, -0.588, 0.458, 192.0, 0.0, 0.0, 0.0, 0.0, 0.0, 0.0, 0.0, 0.0, 0.0, 1.6635876131957884E9, 0.0, 2022-09-19 16:40:13.195
78.0, -17262.60987074493, -20890.56621677473, -28193.551682657206, -17406.935084692846, 187500.0, 187500.0, -33907.23871078953, -33629.87591384362, 0.764, -0.588, 0.458, 192.0, 0.0, 0.0, 0.0, 0.0, 0.0, 0.0, 0.0, 0.0, 0.0, 1.6635876131998434E9, 0.0, 2022-09-19 16:40:13.199
79.0, -17283.41934483282, -20902.52440005832, -28199.318432726675, -17418.3121226206, 187500.0, 187500.0, -33916.04529810492, -33636.38027148012, 0.764, -0.588, 0.458, 192.0, 0.0, 0.0, 0.0, 0.0, 0.0, 0.0, 0.0, 0.0, 0.0, 1.6635876132037888E9, 0.0, 2022-09-19 16:40:13.203
80.0, -17282.860551221438, -20899.261045367843, -28195.205711746898, -17411.941875450837, 187500.0, 187500.0, -33943.739109485046, -33629.11595453214, 0.764, -0.588, 0.458, 192.0, 0.0, 0.0, 0.0, 0.0, 0.0, 0.0, 0.0, 0.0, 0.0, 1.6635876132068343E9, 0.0, 2022-09-19 16:40:13.206
81.0, -17266.096742879956, -20890.879141197103, -28197.977328059358, -17407.784450982148, 187500.0, 187500.0, -33936.89947568172, -33635.0391668128, 0.764, -0.588, 0.458, 192.0, 0.0, 0.0, 0.0, 0.0, 0.0, 0.0, 0.0, 0.0, 0.0, 1.6635876132099085E9, 0.0, 2022-09-19 16:40:13.209
82.0, -17248.97530662719, -20892.71198424244, -28202.000642061314, -17412.657131273405, 187500.0, 187500.0, -33890.54195768142, -33645.05274832878, 0.764, -0.588, 0.458, 192.0, 0.0, 0.0, 0.0, 0.0, 0.0, 0.0, 0.0, 0.0, 0.0, 1.6635876132168489E9, 0.0, 2022-09-19 16:40:13.216
83.0, -17251.165777583814, -20911.465097840442, -28220.373776003573, -17433.93599199486, 187500.0, 187500.0, -33830.97455870802, -33670.019646885354, 0.764, -0.588, 0.458, 192.0, 0.0, 0.0, 0.0, 0.0, 0.0, 0.0, 0.0, 0.0, 0.0, 1.66358761322077E9, 0.0, 2022-09-19 16:40:13.220
84.0, -17267.46019929173, -20924.607923580163, -28232.555476731715, -17448.419922401896, 187500.0, 187500.0, -33829.32052961833, -33684.41417031457, 0.764, -0.588, 0.458, 192.0, 0.0, 0.0, 0.0, 0.0, 0.0, 0.0, 0.0, 0.0, 0.0, 1.66358761322391E9, 0.0, 2022-09-19 16:40:13.223
85.0, -17275.976213929203, -20920.919885745036, -28229.113308085598, -17448.956364268823, 187500.0, 187500.0, -33851.64992232918, -33686.403475571096, 0.766, -0.592, 0.45, 192.0, 23.0, 240.0, 237.0, 128.0, 14.0, 16.0, 0.0, 0.0, 0.0, 1.6635876132268903E9, 0.0, 2022-09-19 16:40:13.226
86.0, -17291.913007725838, -20921.81395552325, -28235.930590144468, -17451.325649181086, 187500.0, 187500.0, -33833.92498897612, -33695.277118119855, 0.766, -0.592, 0.45, 192.0, 0.0, 0.0, 0.0, 0.0, 0.0, 0.0, 0.0, 0.0, 0.0, 1.6635876132308047E9, 0.0, 2022-09-19 16:40:13.230
87.0, -17311.403728890866, -20943.942182534003, -28265.099616658645, -17471.330460468587, 187500.0, 187500.0, -33783.767674418414, -33712.53266483935, 0.766, -0.592, 0.45, 192.0, 0.0, 0.0, 0.0, 0.0, 0.0, 0.0, 0.0, 0.0, 0.0, 1.6635876132338357E9, 0.0, 2022-09-19 16:40:13.233
88.0, -17318.80215630557, -20958.984906552425, -28280.097637188155, -17486.730812398295, 187500.0, 187500.0, -33718.88056026465, -33723.32855741126, 0.766, -0.592, 0.45, 192.0, 0.0, 0.0, 0.0, 0.0, 0.0, 0.0, 0.0, 0.0, 0.0, 1.6635876132378976E9, 0.0, 2022-09-19 16:40:13.237
89.0, -17314.890601025894, -20940.120034232146, -28277.281317386787, -17485.590873431072, 187500.0, 187500.0, -33705.961251969486, -33720.3110719098, 0.766, -0.592, 0.45, 192.0, 0.0, 0.0, 0.0, 0.0, 0.0, 0.0, 0.0, 0.0, 0.0, 1.6635876132418396E9, 0.0, 2022-09-19 16:40:13.241
90.0, -17308.90033351187, -20930.754653305372, -28279.69530578796, -17480.27115825071, 187500.0, 187500.0, -33723.32855741126, -33721.58512134375, 0.766, -0.592, 0.45, 192.0, 0.0, 0.0, 0.0, 0.0, 0.0, 0.0, 0.0, 0.0, 0.0, 1.6635876132469044E9, 0.0, 2022-09-19 16:40:13.246
91.0, -17301.32309214152, -20933.99565625139, -28290.379439637596, -17476.627823904495, 187500.0, 187500.0, -33703.86018799069, -33727.30716792431, 0.766, -0.592, 0.45, 192.0, 0.0, 0.0, 0.0, 0.0, 0.0, 0.0, 0.0, 0.0, 0.0, 1.6635876132508717E9, 0.0, 2022-09-19 16:40:13.250
92.0, -17327.67579885433, -20985.76229640988, -28318.900265562566, -17503.628731206507, 187500.0, 187500.0, -33660.49780374739, -33747.62490363418, 0.766, -0.592, 0.45, 192.0, 0.0, 0.0, 0.0, 0.0, 0.0, 0.0, 0.0, 0.0, 0.0, 1.6635876132548277E9, 0.0, 2022-09-19 16:40:13.254
93.0, -17366.746648162203, -21034.86907897819, -28342.70487340747, -17529.55675477466, 187500.0, 187500.0, -33598.27054718382, -33759.2701624954, 0.766, -0.592, 0.45, 192.0, 0.0, 0.0, 0.0, 0.0, 0.0, 0.0, 0.0, 0.0, 0.0, 1.6635876132589078E9, 0.0, 2022-09-19 16:40:13.258
94.0, -17353.022677066645, -20989.53974122283, -28339.285056505807, -17524.19233610539, 187500.0, 187500.0, -33577.88575624058, -33756.029159549376, 0.766, -0.592, 0.45, 192.0, 0.0, 0.0, 0.0, 0.0, 0.0, 0.0, 0.0, 0.0, 0.0, 1.6635876132628891E9, 0.0, 2022-09-19 16:40:13.262
95.0, -17335.029522780125, -20935.917906274546, -28325.56108541025, -17514.245809822776, 187500.0, 187500.0, -33597.398829150065, -33752.028197291875, 0.76, -0.578, 0.452, 192.0, 23.0, 192.0, 237.0, 240.0, 14.0, 32.0, 0.0, 0.0, 0.0, 1.6635876132680833E9, 0.0, 2022-09-19 16:40:13.268
96.0, -17344.95369731828, -20946.847909313194, -28342.168431540544, -17522.09127212659, 187500.0, 187500.0, -33586.66999181151, -33763.96402883101, 0.76, -0.578, 0.452, 192.0, 0.0, 0.0, 0.0, 0.0, 0.0, 0.0, 0.0, 0.0, 0.0, 1.6635876132718527E9, 0.0, 2022-09-19 16:40:13.271
97.0, -17348.507624686674, -20969.601985168694, -28359.401626515584, -17533.065978654144, 187500.0, 187500.0, -33536.4679737649, -33784.95231687454, 0.76, -0.578, 0.452, 192.0, 0.0, 0.0, 0.0, 0.0, 0.0, 0.0, 0.0, 0.0, 0.0, 1.6635876132758849E9, 0.0, 2022-09-19 16:40:13.275
98.0, -17368.065401085067, -21015.959503169, -28378.534719769326, -17555.216557409352, 187500.0, 187500.0, -33466.19408919741, -33814.14369513318, 0.76, -0.578, 0.452, 192.0, 0.0, 0.0, 0.0, 0.0, 0.0, 0.0, 0.0, 0.0, 0.0, 1.6635876132799983E9, 0.0, 2022-09-19 16:40:13.279
99.0, -17407.40447132641, -21072.26354745192, -28395.34323159972, -17579.33408967663, 187500.0, 187500.0, -33451.66545530146, -33826.8841894727, 0.76, -0.578, 0.452, 192.0, 0.0, 0.0, 0.0, 0.0, 0.0, 0.0, 0.0, 0.0, 0.0, 1.6635876132829828E9, 0.0, 2022-09-19 16:40:13.282
100.0, -17411.83011672856, -21041.999285459435, -28383.452103549494, -17566.928871503937, 187500.0, 187500.0, -33460.13676645002, -33810.45565729805, 0.76, -0.578, 0.452, 192.0, 0.0, 0.0, 0.0, 0.0, 0.0, 0.0, 0.0, 0.0, 0.0, 1.6635876132889185E9, 0.0, 2022-09-19 16:40:13.288
101.0, -17400.363671822986, -20985.24820628741, -28371.404513288086, -17554.322487631143, 187500.0, 187500.0, -33436.64508302749, -33800.21855833752, 0.76, -0.578, 0.452, 192.0, 0.0, 0.0, 0.0, 0.0, 0.0, 0.0, 0.0, 0.0, 0.0, 1.6635876132920318E9, 0.0, 2022-09-19 16:40:13.292
102.0, -17389.813648440082, -20978.56503469527, -28378.534719769326, -17564.626641825038, 187500.0, 187500.0, -33383.62674517951, -33814.36721257773, 0.76, -0.578, 0.452, 192.0, 0.0, 0.0, 0.0, 0.0, 0.0, 0.0, 0.0, 0.0, 0.0, 1.6635876132949853E9, 0.0, 2022-09-19 16:40:13.294
103.0, -17383.599863481508, -21007.555247253807, -28382.066295393266, -17577.00950825328, 187500.0, 187500.0, -33301.72995349526, -33826.95124470607, 0.76, -0.578, 0.452, 192.0, 0.0, 0.0, 0.0, 0.0, 0.0, 0.0, 0.0, 0.0, 0.0, 1.6635876132979689E9, 0.0, 2022-09-19 16:40:13.297
104.0, -17405.59398002553, -21031.15868939861, -28390.71642049747, -17585.302005446196, 187500.0, 187500.0, -33271.17511882485, -33834.21556165404, 0.76, -0.578, 0.452, 192.0, 0.0, 0.0, 0.0, 0.0, 0.0, 0.0, 0.0, 0.0, 0.0, 1.6635876133019829E9, 0.0, 2022-09-19 16:40:13.301
105.0, -17422.82717500057, -21043.765073271403, -28397.220778133964, -17598.44483118592, 187500.0, 187500.0, -33276.941868894326, -33845.3914338817, 0.726, -0.546, 0.47200000000000003, 192.0, 22.0, 176.0, 238.0, 240.0, 14.0, 192.0, 0.0, 0.0, 0.0, 1.6635876133069916E9, 0.0, 2022-09-19 16:40:13.306
106.0, -17414.959360952304, -21048.525994840384, -28377.461836035473, -17593.080412516643, 187500.0, 187500.0, -33241.2461329992, -33837.34480587779, 0.726, -0.546, 0.47200000000000003, 192.0, 0.0, 0.0, 0.0, 0.0, 0.0, 0.0, 0.0, 0.0, 0.0, 1.6635876133109524E9, 0.0, 2022-09-19 16:40:13.310
107.0, -17435.522965851185, -21072.017678262913, -28381.865129693168, -17604.032767299745, 187500.0, 187500.0, -33177.27544036811, -33848.56538159435, 0.726, -0.546, 0.47200000000000003, 192.0, 0.0, 0.0, 0.0, 0.0, 0.0, 0.0, 0.0, 0.0, 0.0, 1.6635876133139458E9, 0.0, 2022-09-19 16:40:13.313
108.0, -17439.97096299779, -21070.363649173218, -28391.43167632004, -17618.941380851436, 187500.0, 187500.0, -33086.639116601844, -33855.67323633114, 0.726, -0.546, 0.47200000000000003, 192.0, 0.0, 0.0, 0.0, 0.0, 0.0, 0.0, 0.0, 0.0, 0.0, 1.663587613317992E9, 0.0, 2022-09-19 16:40:13.317
109.0, -17424.995294212735, -21076.8233033208, -28380.47932153694, -17617.53322095075, 187500.0, 187500.0, -33044.08139515894, -33838.372986122726, 0.726, -0.546, 0.47200000000000003, 192.0, 0.0, 0.0, 0.0, 0.0, 0.0, 0.0, 0.0, 0.0, 0.0, 1.663587613321955E9, 0.0, 2022-09-19 16:40:13.321
110.0, -17440.26153567571, -21087.3286232148, -28372.008010388377, -17623.188212297944, 187500.0, 187500.0, -33047.81413648297, -33837.255398899964, 0.726, -0.546, 0.47200000000000003, 192.0, 0.0, 0.0, 0.0, 0.0, 0.0, 0.0, 0.0, 0.0, 0.0, 1.6635876133259785E9, 0.0, 2022-09-19 16:40:13.325
111.0, -17439.658038575417, -21082.344184201265, -28379.540548269815, -17620.81892738568, 187500.0, 187500.0, -33018.06396461296, -33837.680082044615, 0.726, -0.546, 0.47200000000000003, 192.0, 0.0, 0.0, 0.0, 0.0, 0.0, 0.0, 0.0, 0.0, 0.0, 1.6635876133299809E9, 0.0, 2022-09-19 16:40:13.329
112.0, -17430.49382334874, -21087.842713337268, -28386.179016373044, -17615.05217731621, 187500.0, 187500.0, -32952.01455974753, -33837.76948902244, 0.726, -0.546, 0.47200000000000003, 192.0, 0.0, 0.0, 0.0, 0.0, 0.0, 0.0, 0.0, 0.0, 0.0, 1.6635876133350081E9, 0.0, 2022-09-19 16:40:13.335
113.0, -17436.126462951477, -21112.161411304645, -28392.325746098253, -17624.842241387636, 187500.0, 187500.0, -32868.06140757339, -33849.012416483456, 0.726, -0.546, 0.47200000000000003, 192.0, 0.0, 0.0, 0.0, 0.0, 0.0, 0.0, 0.0, 0.0, 0.0, 1.6635876133390317E9, 0.0, 2022-09-19 16:40:13.339
114.0, -17453.382009670975, -21151.254612356977, -28400.171208402066, -17638.454453760918, 187500.0, 187500.0, -32852.12461377676, -33853.01337874096, 0.726, -0.546, 0.47200000000000003, 192.0, 0.0, 0.0, 0.0, 0.0, 0.0, 0.0, 0.0, 0.0, 0.0, 1.663587613343034E9, 0.0, 2022-09-19 16:40:13.343
115.0, -17454.209024215823, -21205.234075216544, -28383.630917505136, -17628.418520500483, 187500.0, 187500.0, -32873.78345415395, -33834.70730003206, 0.726, -0.546, 0.47200000000000003, 192.0, 0.0, 0.0, 0.0, 0.0, 0.0, 0.0, 0.0, 0.0, 0.0, 1.6635876133460338E9, 0.0, 2022-09-19 16:40:13.346
116.0, -17414.78054699666, -21201.34487168132, -28364.073141106743, -17610.313607491687, 187500.0, 187500.0, -32851.4540614431, -33824.1349249047, 0.724, -0.522, 0.492, 192.0, 22.0, 160.0, 239.0, 176.0, 15.0, 96.0, 0.0, 0.0, 0.0, 1.6635876133510692E9, 0.0, 2022-09-19 16:40:13.351
117.0, -17382.683441958838, -21167.973717209545, -28363.2461265619, -17608.145488279522, 187500.0, 187500.0, -32799.77682826243, -33832.74034651999, 0.724, -0.522, 0.492, 192.0, 0.0, 0.0, 0.0, 0.0, 0.0, 0.0, 0.0, 0.0, 0.0, 1.663587613356074E9, 0.0, 2022-09-19 16:40:13.356
118.0, -17348.842900853506, -21097.74453613097, -28373.349115055695, -17606.737328378837, 187500.0, 187500.0, -32721.501019179945, -33842.441003613596, 0.724, -0.522, 0.492, 192.0, 0.0, 0.0, 0.0, 0.0, 0.0, 0.0, 0.0, 0.0, 0.0, 1.6635876133600316E9, 0.0, 2022-09-19 16:40:13.360
119.0, -17355.883700356924, -21094.257663995944, -28375.47253077895, -17604.97154056687, 187500.0, 187500.0, -32706.972385283996, -33841.03284371291, 0.724, -0.522, 0.492, 192.0, 0.0, 0.0, 0.0, 0.0, 0.0, 0.0, 0.0, 0.0, 0.0, 1.663587613363056E9, 0.0, 2022-09-19 16:40:13.363
120.0, -17332.90610705687, -21086.658070881138, -28362.508518994873, -17586.10666824659, 187500.0, 187500.0, -32727.80421111634, -33827.35357610626, 0.724, -0.522, 0.492, 192.0, 0.0, 0.0, 0.0, 0.0, 0.0, 0.0, 0.0, 0.0, 0.0, 1.6635876133680592E9, 0.0, 2022-09-19 16:40:13.368
121.0, -17262.207539344734, -21113.815440394337, -28359.71455093796, -17579.11057223208, 187500.0, 187500.0, -32719.08703077877, -33832.20390465306, 0.724, -0.522, 0.492, 192.0, 0.0, 0.0, 0.0, 0.0, 0.0, 0.0, 0.0, 0.0, 0.0, 1.663587613371186E9, 0.0, 2022-09-19 16:40:13.371
122.0, -17165.558596319985, -21128.724053946025, -28366.308315552273, -17586.553703135694, 187500.0, 187500.0, -32679.166815181594, -33843.64799781418, 0.724, -0.522, 0.492, 192.0, 0.0, 0.0, 0.0, 0.0, 0.0, 0.0, 0.0, 0.0, 0.0, 1.6635876133750627E9, 0.0, 2022-09-19 16:40:13.375
123.0, -17039.807682014427, -21140.861051185257, -28369.7951876873, -17587.403069424996, 187500.0, 187500.0, -32611.44102948201, -33845.23497167051, 0.724, -0.522, 0.492, 192.0, 0.0, 0.0, 0.0, 0.0, 0.0, 0.0, 0.0, 0.0, 0.0, 1.6635876133781035E9, 0.0, 2022-09-19 16:40:13.378
124.0, -16958.469683941566, -21167.61608929826, -28375.070199378755, -17594.935607306434, 187500.0, 187500.0, -32599.54990143179, -33848.45362287207, 0.724, -0.522, 0.492, 192.0, 0.0, 0.0, 0.0, 0.0, 0.0, 0.0, 0.0, 0.0, 0.0, 1.6635876133821058E9, 0.0, 2022-09-19 16:40:13.382
125.0, -16844.744008152964, -21189.587854097826, -28362.687332950514, -17596.00849104029, 187500.0, 187500.0, -32630.37295703566, -33848.74419554999, 0.724, -0.522, 0.492, 192.0, 0.0, 0.0, 0.0, 0.0, 0.0, 0.0, 0.0, 0.0, 0.0, 1.6635876133861213E9, 0.0, 2022-09-19 16:40:13.386
126.0, -16721.429433993035, -21202.462458904083, -28367.76117894187, -17593.28157821674, 187500.0, 187500.0, -32623.421564510056, -33841.70339604657, 0.73, -0.506, 0.502, 192.0, 22.0, 208.0, 240.0, 48.0, 15.0, 176.0, 0.0, 0.0, 0.0, 1.6635876133901737E9, 0.0, 2022-09-19 16:40:13.390
127.0, -16614.699854218943, -21184.29049066192, -28360.31804803825, -17577.724764075847, 187500.0, 187500.0, -32567.810424305255, -33832.31566337534, 0.73, -0.506, 0.502, 192.0, 0.0, 0.0, 0.0, 0.0, 0.0, 0.0, 0.0, 0.0, 0.0, 1.6635876133951056E9, 0.0, 2022-09-19 16:40:13.395
128.0, -16523.03535020773, -21157.893080460202, -28359.8933648936, -17573.589691351615, 187500.0, 187500.0, -32489.646373945045, -33834.86376224324, 0.73, -0.506, 0.502, 192.0, 0.0, 0.0, 0.0, 0.0, 0.0, 0.0, 0.0, 0.0, 0.0, 1.6635876133980694E9, 0.0, 2022-09-19 16:40:13.398
129.0, -16444.357209725047, -21147.298353588387, -28344.962399597454, -17558.211691166365, 187500.0, 187500.0, -32456.208164239906, -33813.96488117753, 0.73, -0.506, 0.502, 192.0, 0.0, 0.0, 0.0, 0.0, 0.0, 0.0, 0.0, 0.0, 0.0, 1.663587613402106E9, 0.0, 2022-09-19 16:40:13.402
130.0, -16434.611849142533, -21165.22445264154, -28340.64851291758, -17549.114531173054, 187500.0, 187500.0, -32478.38109473957, -33813.920177688626, 0.73, -0.506, 0.502, 192.0, 0.0, 0.0, 0.0, 0.0, 0.0, 0.0, 0.0, 0.0, 0.0, 1.6635876134061987E9, 0.0, 2022-09-19 16:40:13.406
131.0, -16411.254276186737, -21218.265142233988, -28356.0935683362, -17564.38077263603, 187500.0, 187500.0, -32479.163405795505, -33837.21069541105, 0.73, -0.506, 0.502, 192.0, 0.0, 0.0, 0.0, 0.0, 0.0, 0.0, 0.0, 0.0, 0.0, 1.663587613410165E9, 0.0, 2022-09-19 16:40:13.410
132.0, -16325.870612367466, -21232.503203452015, -28340.492050706394, -17545.76176950476, 187500.0, 187500.0, -32419.03721321073, -33818.34582309077, 0.73, -0.506, 0.502, 192.0, 0.0, 0.0, 0.0, 0.0, 0.0, 0.0, 0.0, 0.0, 0.0, 1.663587613414154E9, 0.0, 2022-09-19 16:40:13.414
133.0, -16252.288669620595, -21150.24878385649, -28333.965341325445, -17536.15051938898, 187500.0, 187500.0, -32340.023796561218, -33813.473142799514, 0.73, -0.506, 0.502, 192.0, 0.0, 0.0, 0.0, 0.0, 0.0, 0.0, 0.0, 0.0, 0.0, 1.6635876134181588E9, 0.0, 2022-09-19 16:40:13.418
134.0, -16243.102102649464, -21098.21392276453, -28320.755460352357, -17525.511089028252, 187500.0, 187500.0, -32303.76926705471, -33800.553834504346, 0.73, -0.506, 0.502, 192.0, 0.0, 0.0, 0.0, 0.0, 0.0, 0.0, 0.0, 0.0, 0.0, 1.6635876134232352E9, 0.0, 2022-09-19 16:40:13.423
135.0, -16259.26241389065, -21103.51128620044, -28306.204474711954, -17509.46253650934, 187500.0, 187500.0, -32321.87418006351, -33782.62773545119, 0.73, -0.506, 0.502, 192.0, 0.0, 0.0, 0.0, 0.0, 0.0, 0.0, 0.0, 0.0, 0.0, 1.6635876134271584E9, 0.0, 2022-09-19 16:40:13.427
136.0, -16277.166161199351, -21114.64245493918, -28308.7302218354, -17498.08549858159, 187500.0, 187500.0, -32321.114220752028, -33779.40908424963, 0.75, -0.498, 0.502, 192.0, 23.0, 112.0, 240.0, 112.0, 15.0, 176.0, 0.0, 0.0, 0.0, 1.6635876134301486E9, 0.0, 2022-09-19 16:40:13.430
137.0, -16264.380963370915, -21109.859181625747, -28303.0305269993, -17484.406230974942, 187500.0, 187500.0, -32278.467092331302, -33767.16032828812, 0.75, -0.498, 0.502, 192.0, 0.0, 0.0, 0.0, 0.0, 0.0, 0.0, 0.0, 0.0, 0.0, 1.6635876134352078E9, 0.0, 2022-09-19 16:40:13.435
138.0, -16251.46165507575, -21113.74838516097, -28312.753535837357, -17486.686108909384, 187500.0, 187500.0, -32214.071716555565, -33772.86002312422, 0.75, -0.498, 0.502, 192.0, 0.0, 0.0, 0.0, 0.0, 0.0, 0.0, 0.0, 0.0, 0.0, 1.663587613439146E9, 0.0, 2022-09-19 16:40:13.439
139.0, -16385.929749718875, -21138.402359295174, -28319.302596962763, -17499.046623593167, 187500.0, 187500.0, -32196.883225069432, -33777.062151081824, 0.75, -0.498, 0.502, 192.0, 0.0, 0.0, 0.0, 0.0, 0.0, 0.0, 0.0, 0.0, 0.0, 1.663587613443197E9, 0.0, 2022-09-19 16:40:13.443
140.0, -16592.124592319084, -21160.32942060583, -28311.993576525878, -17487.758992643237, 187500.0, 187500.0, -32230.76846966368, -33753.90574382612, 0.75, -0.498, 0.502, 192.0, 0.0, 0.0, 0.0, 0.0, 0.0, 0.0, 0.0, 0.0, 0.0, 1.663587613448242E9, 0.0, 2022-09-19 16:40:13.448
141.0, -16625.048711901753, -21125.32658878882, -28315.74866959437, -17483.08747805208, 187500.0, 187500.0, -32229.405013251904, -33755.470365937996, 0.75, -0.498, 0.502, 192.0, 0.0, 0.0, 0.0, 0.0, 0.0, 0.0, 0.0, 0.0, 0.0, 1.6635876134512436E9, 0.0, 2022-09-19 16:40:13.451
142.0, -16536.669914325466, -21079.08082951079, -28307.009137512345, -17467.418905188908, 187500.0, 187500.0, -32181.751094073188, -33739.511220396904, 0.75, -0.498, 0.502, 192.0, 0.0, 0.0, 0.0, 0.0, 0.0, 0.0, 0.0, 0.0, 0.0, 1.6635876134542315E9, 0.0, 2022-09-19 16:40:13.454
143.0, -16564.967222805884, -21080.22076847801, -28312.999405026367, -17467.731829611283, 187500.0, 187500.0, -32117.176904341806, -33745.613246633206, 0.75, -0.498, 0.502, 192.0, 0.0, 0.0, 0.0, 0.0, 0.0, 0.0, 0.0, 0.0, 0.0, 1.6635876134572396E9, 0.0, 2022-09-19 16:40:13.457
144.0, -16527.192774676416, -21092.760097117436, -28317.022719028322, -17465.921338310403, 187500.0, 187500.0, -32079.53656667907, -33739.44416516354, 0.75, -0.498, 0.502, 192.0, 0.0, 0.0, 0.0, 0.0, 0.0, 0.0, 0.0, 0.0, 0.0, 1.6635876134622884E9, 0.0, 2022-09-19 16:40:13.462
145.0, -16502.471745308845, -21106.327606001807, -28311.568893381227, -17457.807655073128, 187500.0, 187500.0, -32100.368392511416, -33721.62982483266, 0.75, -0.498, 0.502, 192.0, 0.0, 0.0, 0.0, 0.0, 0.0, 0.0, 0.0, 0.0, 0.0, 1.6635876134663043E9, 0.0, 2022-09-19 16:40:13.466
146.0, -16497.956692928874, -21119.202210808064, -28317.916788806535, -17456.466550405807, 187500.0, 187500.0, -32104.861093146934, -33718.18765618654, 0.75, -0.51, 0.502, 192.0, 23.0, 112.0, 240.0, 16.0, 15.0, 176.0, 0.0, 0.0, 0.0, 1.663587613470209E9, 0.0, 2022-09-19 16:40:13.470
147.0, -16489.865361436052, -21092.69304188407, -28316.463925416938, -17453.51612013771, 187500.0, 187500.0, -32066.460796172716, -33718.74644979792, 0.75, -0.51, 0.502, 192.0, 0.0, 0.0, 0.0, 0.0, 0.0, 0.0, 0.0, 0.0, 0.0, 1.663587613474266E9, 0.0, 2022-09-19 16:40:13.474
148.0, -16478.533026997215, -21096.962225075036, -28312.150038737065, -17452.152663725934, 187500.0, 187500.0, -32000.076115140455, -33721.31690041028, 0.75, -0.51, 0.502, 192.0, 0.0, 0.0, 0.0, 0.0, 0.0, 0.0, 0.0, 0.0, 0.0, 1.6635876134773805E9, 0.0, 2022-09-19 16:40:13.477
149.0, -16486.84787593459, -21087.88741682618, -28315.681614361005, -17457.002992272734, 187500.0, 187500.0, -31963.642771678304, -33725.3625661567, 0.75, -0.51, 0.502, 192.0, 0.0, 0.0, 0.0, 0.0, 0.0, 0.0, 0.0, 0.0, 0.0, 1.6635876134813128E9, 0.0, 2022-09-19 16:40:13.481
150.0, -16546.482330141345, -21094.54823667386, -28313.759364337846, -17461.36158244152, 187500.0, 187500.0, -31986.82153067846, -33717.785324786346, 0.75, -0.51, 0.502, 192.0, 0.0, 0.0, 0.0, 0.0, 0.0, 0.0, 0.0, 0.0, 0.0, 1.6635876134853148E9, 0.0, 2022-09-19 16:40:13.485
151.0, -16626.836851458174, -21126.80180392287, -28302.695250832472, -17464.26730922071, 187500.0, 187500.0, -31991.984783647633, -33710.230435160454, 0.75, -0.51, 0.502, 192.0, 0.0, 0.0, 0.0, 0.0, 0.0, 0.0, 0.0, 0.0, 0.0, 1.6635876134902847E9, 0.0, 2022-09-19 16:40:13.490
152.0, -16680.123410239627, -21101.834905366293, -28304.349279922164, -17466.569538899606, 187500.0, 187500.0, -31958.43481522022, -33714.05258346231, 0.75, -0.51, 0.502, 192.0, 0.0, 0.0, 0.0, 0.0, 0.0, 0.0, 0.0, 0.0, 0.0, 1.663587613494352E9, 0.0, 2022-09-19 16:40:13.494
153.0, -16708.912457098064, -21082.03125977889, -28314.049937015767, -17475.242015748267, 187500.0, 187500.0, -31896.900462734757, -33718.32176665327, 0.75, -0.51, 0.502, 192.0, 0.0, 0.0, 0.0, 0.0, 0.0, 0.0, 0.0, 0.0, 0.0, 1.6635876134983015E9, 0.0, 2022-09-19 16:40:13.498
154.0, -16747.290402327824, -21098.191571020077, -28319.07907951821, -17486.79786763166, 187500.0, 187500.0, -31880.159006137732, -33716.82419977477, 0.75, -0.51, 0.502, 192.0, 0.0, 0.0, 0.0, 0.0, 0.0, 0.0, 0.0, 0.0, 0.0, 1.6635876135022507E9, 0.0, 2022-09-19 16:40:13.502
155.0, -16782.583806822757, -21116.385891006696, -28312.2841492038, -17490.50825721124, 187500.0, 187500.0, -31912.345518153375, -33712.15268518361, 0.75, -0.51, 0.502, 192.0, 0.0, 0.0, 0.0, 0.0, 0.0, 0.0, 0.0, 0.0, 0.0, 1.6635876135054123E9, 0.0, 2022-09-19 16:40:13.505
156.0, -16813.742138593454, -21091.50839942794, -28287.205491924942, -17474.057373292133, 187500.0, 187500.0, -31912.59138734238, -33695.79120824232, 0.742, -0.524, 0.496, 192.0, 23.0, 48.0, 239.0, 160.0, 15.0, 128.0, 0.0, 0.0, 0.0, 1.6635876135093436E9, 0.0, 2022-09-19 16:40:13.509
157.0, -16854.422313502113, -21062.138207213666, -28287.496064602863, -17468.760009856225, 187500.0, 187500.0, -31886.50690156304, -33688.88451920563, 0.742, -0.524, 0.496, 192.0, 0.0, 0.0, 0.0, 0.0, 0.0, 0.0, 0.0, 0.0, 0.0, 1.6635876135133302E9, 0.0, 2022-09-19 16:40:13.513
158.0, -16848.454397732545, -21086.88158832569, -28305.198646211466, -17480.002937317247, 187500.0, 187500.0, -31842.16104056371, -33696.12648440916, 0.742, -0.524, 0.496, 192.0, 0.0, 0.0, 0.0, 0.0, 0.0, 0.0, 0.0, 0.0, 0.0, 1.663587613519415E9, 0.0, 2022-09-19 16:40:13.519
159.0, -16824.69449337655, -21111.826135137813, -28317.1344777506, -17493.771611901717, 187500.0, 187500.0, -31826.67128165618, -33699.92628096656, 0.742, -0.524, 0.496, 192.0, 0.0, 0.0, 0.0, 0.0, 0.0, 0.0, 0.0, 0.0, 0.0, 1.6635876135224075E9, 0.0, 2022-09-19 16:40:13.522
160.0, -16764.724763002963, -21088.11093427073, -28322.32008246423, -17493.101059568056, 187500.0, 187500.0, -31859.997732639044, -33699.121618166166, 0.742, -0.524, 0.496, 192.0, 0.0, 0.0, 0.0, 0.0, 0.0, 0.0, 0.0, 0.0, 0.0, 1.6635876135263636E9, 0.0, 2022-09-19 16:40:13.526
161.0, -16704.553866929276, -21074.878701553193, -28312.88764630409, -17483.601568174552, 187500.0, 187500.0, -31871.86650894481, -33687.07402790475, 0.742, -0.524, 0.496, 192.0, 0.0, 0.0, 0.0, 0.0, 0.0, 0.0, 0.0, 0.0, 0.0, 1.6635876135324159E9, 0.0, 2022-09-19 16:40:13.532
162.0, -16624.556973523733, -21062.361724658218, -28303.36580316613, -17473.118600025013, 187500.0, 187500.0, -31840.127031818276, -33681.75431272439, 0.742, -0.524, 0.496, 192.0, 0.0, 0.0, 0.0, 0.0, 0.0, 0.0, 0.0, 0.0, 0.0, 1.663587613535438E9, 0.0, 2022-09-19 16:40:13.535
163.0, -16534.36768464657, -21077.06917250981, -28329.383233712106, -17493.346928757062, 187500.0, 187500.0, -31794.328307429354, -33704.28487113534, 0.742, -0.524, 0.496, 192.0, 0.0, 0.0, 0.0, 0.0, 0.0, 0.0, 0.0, 0.0, 0.0, 1.6635876135382955E9, 0.0, 2022-09-19 16:40:13.538
