%OpenBCI Raw EEG Data
%Number of channels = 8
%Sample Rate = 250 Hz
%Board = OpenBCI_GUI$BoardCytonSerial
Sample Index, EXG Channel 0, EXG Channel 1, EXG Channel 2, EXG Channel 3, EXG Channel 4, EXG Channel 5, EXG Channel 6, EXG Channel 7, Accel Channel 0, Accel Channel 1, Accel Channel 2, Other, Other, Other, Other, Other, Other, Other, Analog Channel 0, Analog Channel 1, Analog Channel 2, Timestamp, Other, Timestamp (Formatted)
155.0, -458.12135435597355, 10356.703145110983, -75422.6536062543, -55880.29991153478, -56589.69957705731, -187500.02235174447, -54782.87396226812, -42391.223298457066, 0.508, -0.834, 0.23800000000000002, 192.0, 15.0, 224.0, 229.0, 240.0, 7.0, 112.0, 0.0, 0.0, 0.0, 1.663592192706922E9, 0.0, 2022-09-19 17:56:32.706
156.0, -512.3019829156378, 10311.574973055718, -75384.65564068027, -55822.610059095634, -56549.08645738202, -187500.02235174447, -54737.1199413681, -42342.18357112212, 0.508, -0.834, 0.23800000000000002, 192.0, 0.0, 0.0, 0.0, 0.0, 0.0, 0.0, 0.0, 0.0, 0.0, 1.6635921927069476E9, 0.0, 2022-09-19 17:56:32.706
157.0, -497.39336936394807, 10313.94425796798, -75408.90728341429, -55833.875338301106, -56575.43916409483, -187500.02235174447, -54741.9702699149, -42363.1495074212, 0.508, -0.834, 0.23800000000000002, 192.0, 0.0, 0.0, 0.0, 0.0, 0.0, 0.0, 0.0, 0.0, 0.0, 1.6635921927069628E9, 0.0, 2022-09-19 17:56:32.706
0.0, 0.0, 0.0, 0.0, 0.0, 0.0, 0.0, 0.0, 0.0, 0.516, -0.844, 0.19, 192.0, 16.0, 32.0, 229.0, 160.0, 5.0, 240.0, 0.0, 0.0, 0.0, 1.6635921928098013E9, 0.0, 2022-09-19 17:56:32.809
1.0, -477.5673720320907, 10358.178360245032, -75957.01676094733, -49725.23298564351, -53386.336968700525, -187500.02235174447, -54084.672520717686, -41198.422455599604, 0.516, -0.844, 0.19, 192.0, 0.0, 0.0, 0.0, 0.0, 0.0, 0.0, 0.0, 0.0, 0.0, 1.6635921928257847E9, 0.0, 2022-09-19 17:56:32.825
2.0, -415.3177637240605, 10375.411555220075, -75999.41802017904, -49826.285222325954, -53427.173605820375, -187500.02235174447, -54093.23323884407, -41260.739119141, 0.516, -0.844, 0.19, 192.0, 0.0, 0.0, 0.0, 0.0, 0.0, 0.0, 0.0, 0.0, 0.0, 1.6635921928298132E9, 0.0, 2022-09-19 17:56:32.829
3.0, -530.3845441799813, 10284.84228668717, -75874.27060297377, -49723.95893620956, -53276.20992376923, -187500.02235174447, -54068.69102343214, -41135.72581240247, 0.516, -0.844, 0.19, 192.0, 0.0, 0.0, 0.0, 0.0, 0.0, 0.0, 0.0, 0.0, 0.0, 1.6635921928328128E9, 0.0, 2022-09-19 17:56:32.832
4.0, -640.869217022564, 10174.983462689337, -75760.38846497399, -49604.13123418466, -53154.25880602108, -187500.02235174447, -53961.849684935776, -41021.66486044703, 0.516, -0.844, 0.19, 192.0, 0.0, 0.0, 0.0, 0.0, 0.0, 0.0, 0.0, 0.0, 0.0, 1.6635921928358588E9, 0.0, 2022-09-19 17:56:32.835
5.0, -658.1247637420612, 10142.193453573402, -75759.9861335738, -49600.35378937171, -53175.67177720926, -187500.02235174447, -53880.44463162954, -41032.48310476341, 0.516, -0.844, 0.19, 192.0, 0.0, 0.0, 0.0, 0.0, 0.0, 0.0, 0.0, 0.0, 0.0, 1.6635921928398087E9, 0.0, 2022-09-19 17:56:32.839
6.0, -559.2853497606933, 10191.836678008638, -75857.86442254359, -49663.54217094686, -53265.70460387524, -187500.02235174447, -53951.94786214207, -41106.33326844374, 0.516, -0.844, 0.19, 192.0, 0.0, 0.0, 0.0, 0.0, 0.0, 0.0, 0.0, 0.0, 0.0, 1.6635921928438272E9, 0.0, 2022-09-19 17:56:32.843
7.0, -401.6831996063232, 10285.266969831822, -75971.25482216536, -49758.60414011528, -53362.08532596652, -187500.02235174447, -54076.558837480414, -41204.21155741353, 0.516, -0.844, 0.19, 192.0, 0.0, 0.0, 0.0, 0.0, 0.0, 0.0, 0.0, 0.0, 0.0, 1.6635921928488944E9, 0.0, 2022-09-19 17:56:32.848
8.0, -463.23990383623885, 10266.446801000453, -75872.19189073943, -49672.482868728985, -53249.320775189495, -187500.02235174447, -54047.38981096623, -41115.60924239269, 0.522, -0.846, 0.166, 192.0, 16.0, 80.0, 229.0, 144.0, 5.0, 48.0, 0.0, 0.0, 0.0, 1.6635921928529384E9, 0.0, 2022-09-19 17:56:32.852
9.0, -545.8072478541432, 10214.54605037523, -75795.16777934645, -49554.130381838135, -53146.61450941736, -187500.02235174447, -54008.38601689172, -41009.23729052988, 0.522, -0.846, 0.166, 192.0, 0.0, 0.0, 0.0, 0.0, 0.0, 0.0, 0.0, 0.0, 0.0, 1.6635921928558311E9, 0.0, 2022-09-19 17:56:32.855
10.0, -507.16108169091723, 10224.269059213288, -75811.32809058763, -49588.50736481039, -53182.690224968224, -187500.02235174447, -53959.10042036777, -41046.430593303514, 0.522, -0.846, 0.166, 192.0, 0.0, 0.0, 0.0, 0.0, 0.0, 0.0, 0.0, 0.0, 0.0, 1.6635921928598564E9, 0.0, 2022-09-19 17:56:32.859
11.0, -407.82992933153264, 10288.776193711305, -75898.45519047441, -49726.6858490331, -53294.40424375585, -187500.02235174447, -53963.72723147002, -41170.952161664034, 0.522, -0.846, 0.166, 192.0, 0.0, 0.0, 0.0, 0.0, 0.0, 0.0, 0.0, 0.0, 0.0, 1.6635921928637877E9, 0.0, 2022-09-19 17:56:32.863
12.0, -293.5901634204583, 10386.229799536444, -75990.67848809702, -49817.34452454383, -53396.3058467276, -187500.02235174447, -54031.72123810306, -41274.284276280916, 0.522, -0.846, 0.166, 192.0, 0.0, 0.0, 0.0, 0.0, 0.0, 0.0, 0.0, 0.0, 0.0, 1.6635921928678613E9, 0.0, 2022-09-19 17:56:32.867
13.0, -393.658923346868, 10354.400915432087, -75896.59999568464, -49657.797772621845, -53283.854220372945, -187500.02235174447, -54037.197415494615, -41146.901684630124, 0.522, -0.846, 0.166, 192.0, 0.0, 0.0, 0.0, 0.0, 0.0, 0.0, 0.0, 0.0, 0.0, 1.6635921928718448E9, 0.0, 2022-09-19 17:56:32.871
14.0, -493.3924071064481, 10286.988054154881, -75815.46316331187, -49519.48517793241, -53197.68824549774, -187500.02235174447, -53990.95165621658, -41041.64731999008, 0.522, -0.846, 0.166, 192.0, 0.0, 0.0, 0.0, 0.0, 0.0, 0.0, 0.0, 0.0, 0.0, 1.6635921928758788E9, 0.0, 2022-09-19 17:56:32.875
15.0, -443.25744429319434, 10309.429205588009, -75834.97623622135, -49518.79227385429, -53223.88448999936, -187500.02235174447, -53968.53285652791, -41066.52481156884, 0.522, -0.846, 0.166, 192.0, 0.0, 0.0, 0.0, 0.0, 0.0, 0.0, 0.0, 0.0, 0.0, 1.6635921928808613E9, 0.0, 2022-09-19 17:56:32.880
16.0, -311.7621316626229, 10386.140392558622, -75929.85939143412, -49627.39940016263, -53313.358523053954, -187500.02235174447, -53990.281103882924, -41174.304923332325, 0.522, -0.846, 0.166, 192.0, 0.0, 0.0, 0.0, 0.0, 0.0, 0.0, 0.0, 0.0, 0.0, 1.6635921928838997E9, 0.0, 2022-09-19 17:56:32.883
17.0, -191.95678138217704, 10482.521114649906, -76031.71629091696, -49755.743116825004, -53389.421509435364, -187500.02235174447, -54109.52766055199, -41273.859593136265, 0.522, -0.846, 0.166, 192.0, 0.0, 0.0, 0.0, 0.0, 0.0, 0.0, 0.0, 0.0, 0.0, 1.6635921928878913E9, 0.0, 2022-09-19 17:56:32.887
18.0, -260.66604383779094, 10452.25685265742, -75927.51245826631, -49678.31667403182, -53247.26441469961, -187500.02235174447, -54106.35371283934, -41154.85890565621, 0.526, -0.846, 0.15, 192.0, 16.0, 112.0, 229.0, 144.0, 4.0, 176.0, 0.0, 0.0, 0.0, 1.6635921928919005E9, 0.0, 2022-09-19 17:56:32.891
19.0, -364.2440276436839, 10393.091785084223, -75840.31830314617, -49579.991350172924, -53147.396820473296, -187500.02235174447, -54009.16832794766, -41076.09135819571, 0.526, -0.846, 0.15, 192.0, 0.0, 0.0, 0.0, 0.0, 0.0, 0.0, 0.0, 0.0, 0.0, 1.663592192895942E9, 0.0, 2022-09-19 17:56:32.895
20.0, -336.08082962999697, 10411.375512048664, -75883.34541122263, -49608.221603419974, -53190.84861169441, -187500.02235174447, -54021.484139142536, -41127.36625997618, 0.526, -0.846, 0.15, 192.0, 0.0, 0.0, 0.0, 0.0, 0.0, 0.0, 0.0, 0.0, 0.0, 1.663592192899928E9, 0.0, 2022-09-19 17:56:32.899
21.0, -226.98196494364322, 10486.276207718398, -75974.45112162246, -49750.26693943345, -53303.21083107124, -187500.02235174447, -54027.02737176745, -41227.658537347146, 0.526, -0.846, 0.15, 192.0, 0.0, 0.0, 0.0, 0.0, 0.0, 0.0, 0.0, 0.0, 0.0, 1.6635921929038649E9, 0.0, 2022-09-19 17:56:32.903
22.0, -121.57113809241511, 10574.297377383396, -76060.57239300876, -49907.01972329852, -53368.9473115143, -187500.02235174447, -54120.54707056846, -41321.58056754834, 0.526, -0.846, 0.15, 192.0, 0.0, 0.0, 0.0, 0.0, 0.0, 0.0, 0.0, 0.0, 0.0, 1.6635921929088757E9, 0.0, 2022-09-19 17:56:32.908
23.0, -209.2123281016741, 10542.624955490226, -75949.10424341014, -49886.277304444, -53177.23639932113, -187500.02235174447, -54122.558727569434, -41199.31652537781, 0.526, -0.846, 0.15, 192.0, 0.0, 0.0, 0.0, 0.0, 0.0, 0.0, 0.0, 0.0, 0.0, 1.6635921929119534E9, 0.0, 2022-09-19 17:56:32.911
24.0, -309.03521883907547, 10479.414222170619, -75872.08013201716, -49753.61970110175, -53020.930650345166, -187500.02235174447, -54053.760058135995, -41097.16905321706, 0.526, -0.846, 0.15, 192.0, 0.0, 0.0, 0.0, 0.0, 0.0, 0.0, 0.0, 0.0, 0.0, 1.663592192915958E9, 0.0, 2022-09-19 17:56:32.915
25.0, -304.1848902922738, 10484.823344328803, -75910.01104235782, -49758.55943662637, -53042.20951106662, -187500.02235174447, -54058.74449714953, -41122.11360002919, 0.526, -0.846, 0.15, 192.0, 0.0, 0.0, 0.0, 0.0, 0.0, 0.0, 0.0, 0.0, 0.0, 1.6635921929199684E9, 0.0, 2022-09-19 17:56:32.919
26.0, -195.51070875057087, 10553.33144108432, -76005.56474990425, -49847.40762083622, -53143.64172740481, -187500.02235174447, -54086.50536376302, -41211.989964483975, 0.526, -0.846, 0.15, 192.0, 0.0, 0.0, 0.0, 0.0, 0.0, 0.0, 0.0, 0.0, 0.0, 1.6635921929239697E9, 0.0, 2022-09-19 17:56:32.923
27.0, -93.3408848453623, 10630.646125155226, -76076.35272459421, -49940.05560160346, -53219.749417275125, -187500.02235174447, -54142.67529757921, -41298.804139948385, 0.526, -0.846, 0.15, 192.0, 0.0, 0.0, 0.0, 0.0, 0.0, 0.0, 0.0, 0.0, 0.0, 1.6635921929280808E9, 0.0, 2022-09-19 17:56:32.928
28.0, -218.75652298409022, 10571.458705837573, -75945.10328115264, -49843.540769045445, -53091.539811079485, -187500.02235174447, -54076.60354096932, -41182.64212401416, 0.528, -0.848, 0.14400000000000002, 192.0, 16.0, 128.0, 229.0, 128.0, 4.0, 128.0, 0.0, 0.0, 0.0, 1.663592192932026E9, 0.0, 2022-09-19 17:56:32.932
29.0, -332.39279179487136, 10499.150812524655, -75857.81971905468, -49765.15320124069, -53000.523507657475, -187500.02235174447, -53987.04010093691, -41106.26621321037, 0.528, -0.848, 0.14400000000000002, 192.0, 0.0, 0.0, 0.0, 0.0, 0.0, 0.0, 0.0, 0.0, 0.0, 1.663592192936942E9, 0.0, 2022-09-19 17:56:32.936
30.0, -312.0974078294525, 10502.257705003942, -75898.5669491967, -49808.82850990636, -53035.034601096464, -187500.02235174447, -54009.9506390036, -41132.95419609001, 0.528, -0.848, 0.14400000000000002, 192.0, 0.0, 0.0, 0.0, 0.0, 0.0, 0.0, 0.0, 0.0, 0.0, 1.6635921929399624E9, 0.0, 2022-09-19 17:56:32.939
31.0, -208.02768564554285, 10560.32753709883, -76036.92424737505, -49911.31125823394, -53134.70102962268, -187500.02235174447, -54150.654870349754, -41226.20567395755, 0.528, -0.848, 0.14400000000000002, 192.0, 0.0, 0.0, 0.0, 0.0, 0.0, 0.0, 0.0, 0.0, 0.0, 1.6635921929440503E9, 0.0, 2022-09-19 17:56:32.944
32.0, -97.09597791385389, 10629.685000143649, -76100.00087022792, -49968.26350310606, -53186.132393614345, -187500.02235174447, -54214.96083914767, -41297.57479400335, 0.528, -0.848, 0.14400000000000002, 192.0, 0.0, 0.0, 0.0, 0.0, 0.0, 0.0, 0.0, 0.0, 0.0, 1.6635921929490058E9, 0.0, 2022-09-19 17:56:32.949
33.0, -254.51931411258153, 10555.700725996581, -75917.29771105024, -49831.82845495087, -53017.37672297678, -187500.02235174447, -54040.974860307564, -41175.422510555094, 0.528, -0.848, 0.14400000000000002, 192.0, 0.0, 0.0, 0.0, 0.0, 0.0, 0.0, 0.0, 0.0, 0.0, 1.663592192952041E9, 0.0, 2022-09-19 17:56:32.952
34.0, -374.16820218184023, 10475.055632001833, -75830.9529222194, -49714.95118319407, -52915.89980314968, -187500.02235174447, -53951.05379236386, -41082.48395710993, 0.528, -0.848, 0.14400000000000002, 192.0, 0.0, 0.0, 0.0, 0.0, 0.0, 0.0, 0.0, 0.0, 0.0, 1.663592192955018E9, 0.0, 2022-09-19 17:56:32.955
35.0, -356.5773792955136, 10460.616405083705, -75881.06553328819, -49676.43912749757, -52948.68981226561, -187500.02235174447, -54008.944810503104, -41087.46839612346, 0.528, -0.848, 0.14400000000000002, 192.0, 0.0, 0.0, 0.0, 0.0, 0.0, 0.0, 0.0, 0.0, 0.0, 1.6635921929600132E9, 0.0, 2022-09-19 17:56:32.960
36.0, -249.9819099881542, 10507.108033550743, -75985.06820023873, -49740.365116639754, -53069.88097070229, -187500.02235174447, -54056.39756398172, -41181.39042632466, 0.528, -0.848, 0.14400000000000002, 192.0, 0.0, 0.0, 0.0, 0.0, 0.0, 0.0, 0.0, 0.0, 0.0, 1.6635921929639876E9, 0.0, 2022-09-19 17:56:32.963
37.0, -188.11228133586425, 10546.201234603077, -76023.66966291305, -49780.82177410385, -53130.23068073162, -187500.02235174447, -54072.289654289445, -41235.056964761854, 0.528, -0.848, 0.14400000000000002, 192.0, 0.0, 0.0, 0.0, 0.0, 0.0, 0.0, 0.0, 0.0, 0.0, 1.6635921929680223E9, 0.0, 2022-09-19 17:56:32.968
38.0, -337.48898953068135, 10448.278242144375, -75858.44556789941, -49612.289620910844, -52963.97840547305, -187500.02235174447, -53992.58333356182, -41067.68710228051, 0.536, -0.844, 0.136, 192.0, 16.0, 192.0, 229.0, 160.0, 4.0, 64.0, 0.0, 0.0, 0.0, 1.6635921929720376E9, 0.0, 2022-09-19 17:56:32.972
39.0, -465.65389223741204, 10341.503958881374, -75759.85202310706, -49503.727198091416, -52858.2770059439, -187500.02235174447, -53904.0704255188, -40985.276220473796, 0.536, -0.844, 0.136, 192.0, 0.0, 0.0, 0.0, 0.0, 0.0, 0.0, 0.0, 0.0, 0.0, 1.6635921929770372E9, 0.0, 2022-09-19 17:56:32.977
40.0, -475.3545493310153, 10309.809185243748, -75768.8374243781, -49499.92740153401, -52879.68997713208, -187500.02235174447, -53870.65456755812, -41014.31113652124, 0.536, -0.844, 0.136, 192.0, 0.0, 0.0, 0.0, 0.0, 0.0, 0.0, 0.0, 0.0, 0.0, 1.6635921929800196E9, 0.0, 2022-09-19 17:56:32.980
41.0, -410.06510377706337, 10330.32808665372, -75845.1015764596, -49522.41325645605, -52950.85793147778, -187500.02235174447, -53886.92663752159, -41065.00489294588, 0.536, -0.844, 0.136, 192.0, 0.0, 0.0, 0.0, 0.0, 0.0, 0.0, 0.0, 0.0, 0.0, 1.6635921929830508E9, 0.0, 2022-09-19 17:56:32.983
42.0, -360.57834155301356, 10343.225043204433, -75889.1121612921, -49532.04685831629, -52953.83071349034, -187500.02235174447, -53999.35591213178, -41050.140982883095, 0.536, -0.844, 0.136, 192.0, 0.0, 0.0, 0.0, 0.0, 0.0, 0.0, 0.0, 0.0, 0.0, 1.6635921929880507E9, 0.0, 2022-09-19 17:56:32.988
43.0, -526.6070993670344, 10207.348788660622, -75705.40317361393, -49362.24065568932, -52748.351126712696, -187500.02235174447, -53939.36383001374, -40868.175431272444, 0.536, -0.844, 0.136, 192.0, 0.0, 0.0, 0.0, 0.0, 0.0, 0.0, 0.0, 0.0, 0.0, 1.6635921929920382E9, 0.0, 2022-09-19 17:56:32.992
44.0, -676.8331738511532, 10058.530874077187, -75561.65910502186, -49268.72095688832, -52620.85677633963, -187500.02235174447, -53744.61308057464, -40752.70631941633, 0.536, -0.844, 0.136, 192.0, 0.0, 0.0, 0.0, 0.0, 0.0, 0.0, 0.0, 0.0, 0.0, 1.6635921929960597E9, 0.0, 2022-09-19 17:56:32.996
45.0, -723.0118778958175, 9986.044166808626, -75530.2772558066, -49269.32445398861, -52593.69940682643, -187500.02235174447, -53644.790189837244, -40739.67525239888, 0.536, -0.844, 0.136, 192.0, 0.0, 0.0, 0.0, 0.0, 0.0, 0.0, 0.0, 0.0, 0.0, 1.6635921930001335E9, 0.0, 2022-09-19 17:56:33.000
46.0, -654.03439450674, 9982.937274329339, -75592.9962507482, -49356.29509166421, -52666.18611409499, -187500.02235174447, -53651.38395445156, -40810.7314480223, 0.536, -0.844, 0.136, 192.0, 0.0, 0.0, 0.0, 0.0, 0.0, 0.0, 0.0, 0.0, 0.0, 1.6635921930051212E9, 0.0, 2022-09-19 17:56:33.005
47.0, -617.8022167446873, 9976.097640526013, -75589.0399919796, -49407.324124255676, -52663.61566348263, -187500.02235174447, -53679.21187629842, -40807.490445076284, 0.536, -0.844, 0.136, 192.0, 0.0, 0.0, 0.0, 0.0, 0.0, 0.0, 0.0, 0.0, 0.0, 1.6635921930081482E9, 0.0, 2022-09-19 17:56:33.008
48.0, -785.2614862038478, 9837.60623188093, -75397.95492863118, -49229.58305234707, -52452.90576850245, -187500.02235174447, -53589.73784324382, -40624.45200973177, 0.536, -0.846, 0.134, 192.0, 16.0, 192.0, 229.0, 144.0, 4.0, 48.0, 0.0, 0.0, 0.0, 1.6635921930141213E9, 0.0, 2022-09-19 17:56:33.014
49.0, -909.1795574640701, 9717.085625777916, -75297.59559602685, -49141.33836523752, -52321.54456633861, -187500.02235174447, -53460.321242847596, -40544.09748841495, 0.536, -0.846, 0.134, 192.0, 0.0, 0.0, 0.0, 0.0, 0.0, 0.0, 0.0, 0.0, 0.0, 1.6635921930180807E9, 0.0, 2022-09-19 17:56:33.018
50.0, -858.5528562727995, 9712.369407697846, -75351.21743097514, -49193.529688540664, -52319.21998491526, -187500.02235174447, -53525.2307087458, -40557.75440427714, 0.536, -0.846, 0.134, 192.0, 0.0, 0.0, 0.0, 0.0, 0.0, 0.0, 0.0, 0.0, 0.0, 1.6635921930210984E9, 0.0, 2022-09-19 17:56:33.021
51.0, -690.1548135465162, 9796.724891272175, -75469.10053123243, -49284.054253584654, -52457.890207515986, -187500.02235174447, -53560.85938940757, -40683.5053185827, 0.536, -0.846, 0.134, 192.0, 0.0, 0.0, 0.0, 0.0, 0.0, 0.0, 0.0, 0.0, 0.0, 1.6635921930241368E9, 0.0, 2022-09-19 17:56:33.024
52.0, -600.1890421139052, 9870.61975844142, -75502.13640953737, -49314.36321906605, -52530.30985955118, -187500.02235174447, -53558.2889387952, -40738.82588610958, 0.536, -0.846, 0.134, 192.0, 0.0, 0.0, 0.0, 0.0, 0.0, 0.0, 0.0, 0.0, 0.0, 1.6635921930281527E9, 0.0, 2022-09-19 17:56:33.028
53.0, -699.5872497066557, 9824.239888696658, -75364.74023637059, -49189.39461581643, -52375.591084431544, -187500.02235174447, -53506.63405735899, -40591.41613142683, 0.536, -0.846, 0.134, 192.0, 0.0, 0.0, 0.0, 0.0, 0.0, 0.0, 0.0, 0.0, 0.0, 1.6635921930341384E9, 0.0, 2022-09-19 17:56:33.034
54.0, -733.7183634899096, 9794.266199382091, -75334.31951216693, -49144.44525771681, -52313.16266216787, -187500.02235174447, -53483.25413265874, -40552.41233735232, 0.536, -0.846, 0.134, 192.0, 0.0, 0.0, 0.0, 0.0, 0.0, 0.0, 0.0, 0.0, 0.0, 1.6635921930371883E9, 0.0, 2022-09-19 17:56:33.037
55.0, -660.5387521432343, 9846.703391874242, -75401.79942867749, -49206.89603172494, -52377.960369343804, -187500.02235174447, -53489.11028970603, -40617.63472767291, 0.536, -0.846, 0.134, 192.0, 0.0, 0.0, 0.0, 0.0, 0.0, 0.0, 0.0, 0.0, 0.0, 1.663592193041217E9, 0.0, 2022-09-19 17:56:33.041
56.0, -491.783081505666, 9982.087908040037, -75556.20527937476, -49367.403908658496, -52525.83951066012, -187500.02235174447, -53573.55518025818, -40764.44098525536, 0.536, -0.846, 0.134, 192.0, 0.0, 0.0, 0.0, 0.0, 0.0, 0.0, 0.0, 0.0, 0.0, 1.6635921930442455E9, 0.0, 2022-09-19 17:56:33.044
57.0, -366.59096081149113, 10103.681397876906, -75647.26628628568, -49489.91382001803, -52604.85292730963, -187500.02235174447, -53693.09230960516, -40884.536908213726, 0.536, -0.846, 0.134, 192.0, 0.0, 0.0, 0.0, 0.0, 0.0, 0.0, 0.0, 0.0, 0.0, 1.66359219304819E9, 0.0, 2022-09-19 17:56:33.048
58.0, -438.20595004629496, 10092.304359949156, -75531.95363664076, -49391.4096822035, -52476.50921064725, -187500.02235174447, -53675.63559718557, -40789.519642534215, 0.536, -0.848, 0.138, 192.0, 16.0, 192.0, 229.0, 128.0, 4.0, 80.0, 0.0, 0.0, 0.0, 1.6635921930521812E9, 0.0, 2022-09-19 17:56:33.052
59.0, -430.785170887133, 10104.977799055314, -75516.6203399444, -49353.00938522928, -52445.373230621015, -187500.02235174447, -53668.30422500423, -40712.29436544113, 0.536, -0.848, 0.138, 192.0, 0.0, 0.0, 0.0, 0.0, 0.0, 0.0, 0.0, 0.0, 0.0, 1.6635921930562396E9, 0.0, 2022-09-19 17:56:33.056
60.0, -331.1187423609188, 10190.786146019238, -75607.65899511088, -49440.40470604953, -52529.1475688395, -187500.02235174447, -53711.33133308069, -40786.18923261038, 0.536, -0.848, 0.138, 192.0, 0.0, 0.0, 0.0, 0.0, 0.0, 0.0, 0.0, 0.0, 0.0, 1.6635921930602007E9, 0.0, 2022-09-19 17:56:33.060
61.0, -152.66241462974725, 10347.203653717477, -75781.62262220653, -49614.68125756756, -52686.213277126946, -187500.02235174447, -53852.99668943843, -40934.24718788233, 0.536, -0.848, 0.138, 192.0, 0.0, 0.0, 0.0, 0.0, 0.0, 0.0, 0.0, 0.0, 0.0, 1.6635921930642476E9, 0.0, 2022-09-19 17:56:33.064
62.0, -31.6500701487148, 10465.98082375298, -75861.28423944525, -49679.30015078785, -52750.385135458135, -187500.02235174447, -53962.22966459151, -41013.46177023194, 0.536, -0.848, 0.138, 192.0, 0.0, 0.0, 0.0, 0.0, 0.0, 0.0, 0.0, 0.0, 0.0, 1.6635921930672233E9, 0.0, 2022-09-19 17:56:33.067
63.0, -134.71396383213568, 10439.87398622918, -75723.373976156, -49566.42384128855, -52615.7158751149, -187500.02235174447, -53854.42720108357, -40902.932393900446, 0.536, -0.848, 0.138, 192.0, 0.0, 0.0, 0.0, 0.0, 0.0, 0.0, 0.0, 0.0, 0.0, 1.663592193071252E9, 0.0, 2022-09-19 17:56:33.071
64.0, -190.10158659238658, 10433.839015226247, -75695.90368222042, -49538.08182931922, -52585.60807533361, -187500.02235174447, -53786.723767128446, -40865.42616670444, 0.536, -0.848, 0.138, 192.0, 0.0, 0.0, 0.0, 0.0, 0.0, 0.0, 0.0, 0.0, 0.0, 1.6635921930762095E9, 0.0, 2022-09-19 17:56:33.076
65.0, -123.60514683784805, 10502.950609082058, -75773.41953199143, -49600.890231238634, -52643.72261091741, -187500.02235174447, -53819.69259020002, -40942.405574608514, 0.536, -0.848, 0.138, 192.0, 0.0, 0.0, 0.0, 0.0, 0.0, 0.0, 0.0, 0.0, 0.0, 1.663592193080208E9, 0.0, 2022-09-19 17:56:33.080
66.0, 40.031974319454946, 10634.647087412726, -75920.18108608498, -49778.4971926805, -52795.960342402504, -187500.02235174447, -53879.30469266233, -41126.22632100896, 0.536, -0.848, 0.138, 192.0, 0.0, 0.0, 0.0, 0.0, 0.0, 0.0, 0.0, 0.0, 0.0, 1.6635921930842433E9, 0.0, 2022-09-19 17:56:33.084
67.0, 118.57600433540397, 10727.183309457698, -75978.58619434669, -49863.43382161067, -52855.14776172015, -187500.02235174447, -53953.78070518741, -41170.14749886364, 0.536, -0.848, 0.138, 192.0, 0.0, 0.0, 0.0, 0.0, 0.0, 0.0, 0.0, 0.0, 0.0, 1.6635921930882554E9, 0.0, 2022-09-19 17:56:33.088
68.0, -26.531520668449485, 10676.333090821874, -75850.77891955125, -49702.12128187672, -52714.08590246271, -187500.02235174447, -53913.81578610132, -41025.37525002661, 0.534, -0.844, 0.134, 192.0, 16.0, 176.0, 229.0, 160.0, 4.0, 48.0, 0.0, 0.0, 0.0, 1.66359219309127E9, 0.0, 2022-09-19 17:56:33.091
69.0, -71.190306090153, 10651.477950987572, -75855.13750972004, -49580.7513094844, -52691.6894545185, -187500.02235174447, -53941.911928881644, -40995.692133389966, 0.534, -0.844, 0.134, 192.0, 0.0, 0.0, 0.0, 0.0, 0.0, 0.0, 0.0, 0.0, 0.0, 1.6635921930952744E9, 0.0, 2022-09-19 17:56:33.095
70.0, 8.694828593114448, 10707.022035959011, -75936.00612115934, -49669.77830764989, -52762.99151933093, -187500.02235174447, -53989.387034104715, -41075.4431576065, 0.534, -0.844, 0.134, 192.0, 0.0, 0.0, 0.0, 0.0, 0.0, 0.0, 0.0, 0.0, 0.0, 1.6635921930993497E9, 0.0, 2022-09-19 17:56:33.099
71.0, 132.5905481088815, 10826.492110072626, -76060.17006160857, -49806.079245338355, -52916.23507931651, -187500.02235174447, -53997.32190338635, -41200.34470562276, 0.534, -0.844, 0.134, 192.0, 0.0, 0.0, 0.0, 0.0, 0.0, 0.0, 0.0, 0.0, 0.0, 1.6635921931042905E9, 0.0, 2022-09-19 17:56:33.104
72.0, 174.50006896258225, 10899.06822431901, -76104.65003307462, -49867.323025145895, -52952.422553589655, -187500.02235174447, -54078.6151979703, -41258.45924120656, 0.534, -0.844, 0.134, 192.0, 0.0, 0.0, 0.0, 0.0, 0.0, 0.0, 0.0, 0.0, 0.0, 1.663592193108297E9, 0.0, 2022-09-19 17:56:33.108
73.0, 26.79974160191317, 10832.616488053382, -75969.37727563111, -49727.64697404468, -52794.485127268454, -187500.02235174447, -54022.35585717629, -41130.897835600124, 0.534, -0.844, 0.134, 192.0, 0.0, 0.0, 0.0, 0.0, 0.0, 0.0, 0.0, 0.0, 0.0, 1.6635921931123357E9, 0.0, 2022-09-19 17:56:33.112
74.0, -38.08737255184324, 10794.573818990448, -75977.28979316828, -49656.72488888799, -52770.38994674563, -187500.02235174447, -54037.08565677234, -41095.313858427275, 0.534, -0.844, 0.134, 192.0, 0.0, 0.0, 0.0, 0.0, 0.0, 0.0, 0.0, 0.0, 0.0, 1.6635921931162927E9, 0.0, 2022-09-19 17:56:33.116
75.0, 42.04363132043258, 10842.518310847081, -76085.60634679871, -49727.60227055577, -52842.854302269734, -187500.02235174447, -54165.563483901446, -41173.120280876195, 0.534, -0.844, 0.134, 192.0, 0.0, 0.0, 0.0, 0.0, 0.0, 0.0, 0.0, 0.0, 0.0, 1.663592193119326E9, 0.0, 2022-09-19 17:56:33.119
76.0, 195.6001157283921, 10957.920367469833, -76200.62842376571, -49892.98282778059, -53003.026903036465, -187500.02235174447, -54143.949347013164, -41339.19374217913, 0.534, -0.844, 0.134, 192.0, 0.0, 0.0, 0.0, 0.0, 0.0, 0.0, 0.0, 0.0, 0.0, 1.6635921931232407E9, 0.0, 2022-09-19 17:56:33.123
77.0, 218.84592996191145, 11020.728769389245, -76200.42725806561, -49919.22377577112, -53021.623554423284, -187500.02235174447, -54115.60733504383, -41347.35212890532, 0.534, -0.844, 0.134, 192.0, 0.0, 0.0, 0.0, 0.0, 0.0, 0.0, 0.0, 0.0, 0.0, 1.663592193127365E9, 0.0, 2022-09-19 17:56:33.127
78.0, 69.91625665620049, 10943.436437062794, -76070.6083262692, -49798.122024312266, -52858.098191988254, -187500.02235174447, -54073.60840721231, -41195.09204567576, 0.536, -0.842, 0.126, 192.0, 16.0, 192.0, 229.0, 176.0, 3.0, 240.0, 0.0, 0.0, 0.0, 1.6635921931323078E9, 0.0, 2022-09-19 17:56:33.132
79.0, 11.131168738742916, 10905.751395911146, -76075.81628272728, -49742.44382887409, -52826.60458405073, -187500.02235174447, -54082.54910499443, -41156.132955090165, 0.536, -0.842, 0.126, 192.0, 0.0, 0.0, 0.0, 0.0, 0.0, 0.0, 0.0, 0.0, 0.0, 1.663592193136303E9, 0.0, 2022-09-19 17:56:33.136
80.0, 55.36527101579559, 10943.615251018437, -76161.75874015794, -49753.910273779664, -52898.33133200781, -187500.02235174447, -54135.58979458688, -41208.704258049045, 0.536, -0.842, 0.126, 192.0, 0.0, 0.0, 0.0, 0.0, 0.0, 0.0, 0.0, 0.0, 0.0, 1.6635921931403732E9, 0.0, 2022-09-19 17:56:33.140
81.0, 211.89453743631094, 11051.060086615096, -76325.39586131524, -49903.62225814132, -53057.78867695197, -187500.02235174447, -54240.46417957118, -41369.145079749236, 0.536, -0.842, 0.126, 192.0, 0.0, 0.0, 0.0, 0.0, 0.0, 0.0, 0.0, 0.0, 0.0, 1.6635921931443076E9, 0.0, 2022-09-19 17:56:33.144
82.0, 250.987738488643, 11109.688712321367, -76354.65429480723, -49981.272218379054, -53081.97326445261, -187500.02235174447, -54311.83329961697, -41413.78151342649, 0.536, -0.842, 0.126, 192.0, 0.0, 0.0, 0.0, 0.0, 0.0, 0.0, 0.0, 0.0, 0.0, 1.6635921931473093E9, 0.0, 2022-09-19 17:56:33.147
83.0, 94.50317555703826, 11032.798711395111, -76234.02192998194, -49879.50472587404, -52934.787027214414, -187500.02235174447, -54260.424287369766, -41277.52527922694, 0.536, -0.842, 0.126, 192.0, 0.0, 0.0, 0.0, 0.0, 0.0, 0.0, 0.0, 0.0, 0.0, 1.663592193151335E9, 0.0, 2022-09-19 17:56:33.151
84.0, 40.88134060875662, 11000.656902868379, -76200.5390167879, -49893.8768975588, -52922.60532648627, -187500.02235174447, -54140.037791733484, -41238.25326421896, 0.536, -0.842, 0.126, 192.0, 0.0, 0.0, 0.0, 0.0, 0.0, 0.0, 0.0, 0.0, 0.0, 1.663592193155368E9, 0.0, 2022-09-19 17:56:33.155
85.0, 87.79765222044614, 11041.448836499314, -76275.19384326861, -50030.557814903004, -52993.84033606534, -187500.02235174447, -54173.81127760545, -41332.82349500937, 0.536, -0.842, 0.126, 192.0, 0.0, 0.0, 0.0, 0.0, 0.0, 0.0, 0.0, 0.0, 0.0, 1.6635921931593966E9, 0.0, 2022-09-19 17:56:33.159
86.0, 249.19959893221844, 11160.20365479036, -76467.79882524, -50274.48240214377, -53157.18688454472, -187500.02235174447, -54387.56100983155, -41485.66472359475, 0.536, -0.842, 0.126, 192.0, 0.0, 0.0, 0.0, 0.0, 0.0, 0.0, 0.0, 0.0, 0.0, 1.663592193164291E9, 0.0, 2022-09-19 17:56:33.164
87.0, 291.08676804146387, 11218.184079907427, -76490.03881097303, -50273.990663765755, -53187.89818142631, -187500.02235174447, -54444.96028959278, -41509.20111050619, 0.536, -0.842, 0.126, 192.0, 0.0, 0.0, 0.0, 0.0, 0.0, 0.0, 0.0, 0.0, 0.0, 1.6635921931683743E9, 0.0, 2022-09-19 17:56:33.168
88.0, 104.67321928420297, 11136.667267878922, -76302.59708197083, -50069.986292122165, -53012.99578106353, -187500.02235174447, -54257.11622919038, -41337.71852704508, 0.538, -0.846, 0.128, 192.0, 16.0, 208.0, 229.0, 144.0, 4.0, 0.0, 0.0, 0.0, 0.0, 1.6635921931724265E9, 0.0, 2022-09-19 17:56:33.172
89.0, 16.89791880821214, 11097.305845893126, -76267.1025117758, -49998.326599398446, -52965.38656537373, -187500.02235174447, -54169.542094414486, -41296.993648647505, 0.538, -0.846, 0.128, 192.0, 0.0, 0.0, 0.0, 0.0, 0.0, 0.0, 0.0, 0.0, 0.0, 1.6635921931754236E9, 0.0, 2022-09-19 17:56:33.175
90.0, 47.63156743425935, 11138.142483012973, -76353.26848665101, -50032.90474807081, -53023.88108061327, -187500.02235174447, -54253.67406054426, -41392.61441142731, 0.538, -0.846, 0.128, 192.0, 0.0, 0.0, 0.0, 0.0, 0.0, 0.0, 0.0, 0.0, 0.0, 1.6635921931804228E9, 0.0, 2022-09-19 17:56:33.180
91.0, 215.82844446044498, 11248.649507600012, -76546.72283491169, -50176.00061607369, -53173.816582419466, -187500.02235174447, -54464.65217645791, -41545.36623303488, 0.538, -0.846, 0.128, 192.0, 0.0, 0.0, 0.0, 0.0, 0.0, 0.0, 0.0, 0.0, 0.0, 1.663592193184418E9, 0.0, 2022-09-19 17:56:33.184
92.0, 270.5902183759473, 11307.166374584005, -76532.6635876493, -50224.39214281942, -53152.6941839092, -187500.02235174447, -54455.37620250895, -41560.967750664684, 0.538, -0.846, 0.128, 192.0, 0.0, 0.0, 0.0, 0.0, 0.0, 0.0, 0.0, 0.0, 0.0, 1.6635921931874812E9, 0.0, 2022-09-19 17:56:33.187
93.0, 81.40505330622833, 11221.335675875625, -76355.54836458545, -50126.11152244944, -52973.65671082219, -187500.02235174447, -54284.206543470216, -41419.883539662784, 0.538, -0.846, 0.128, 192.0, 0.0, 0.0, 0.0, 0.0, 0.0, 0.0, 0.0, 0.0, 0.0, 1.6635921931924E9, 0.0, 2022-09-19 17:56:33.192
94.0, 7.957221026089314, 11184.991739391297, -76361.80685303293, -50156.822819331035, -52951.930815211635, -187500.02235174447, -54263.79940078252, -41417.804827428445, 0.538, -0.846, 0.128, 192.0, 0.0, 0.0, 0.0, 0.0, 0.0, 0.0, 0.0, 0.0, 0.0, 1.6635921931964464E9, 0.0, 2022-09-19 17:56:33.196
95.0, 52.034861091954845, 11220.888640986519, -76461.29446760351, -50213.1045118695, -53022.741141646045, -187500.02235174447, -54348.84778843496, -41462.30715063896, 0.538, -0.846, 0.128, 192.0, 0.0, 0.0, 0.0, 0.0, 0.0, 0.0, 0.0, 0.0, 0.0, 1.6635921932005048E9, 0.0, 2022-09-19 17:56:33.200
96.0, 207.06656063396463, 11327.305296338236, -76631.95003651977, -50336.82141742962, -53176.968178387666, -187500.02235174447, -54504.10300542152, -41616.75770482513, 0.538, -0.846, 0.128, 192.0, 0.0, 0.0, 0.0, 0.0, 0.0, 0.0, 0.0, 0.0, 0.0, 1.6635921932034717E9, 0.0, 2022-09-19 17:56:33.203
97.0, 215.60492701589192, 11365.10209621216, -76629.87132428543, -50341.29176632068, -53152.11303855337, -187500.02235174447, -54560.56351191563, -41623.686745606276, 0.538, -0.846, 0.128, 192.0, 0.0, 0.0, 0.0, 0.0, 0.0, 0.0, 0.0, 0.0, 0.0, 1.6635921932074664E9, 0.0, 2022-09-19 17:56:33.207
98.0, 27.514997424482996, 11273.258778245305, -76482.84154925842, -50217.93248867184, -52979.49051612503, -187500.02235174447, -54481.885371432945, -41487.67638059573, 0.538, -0.846, 0.128, 192.0, 0.0, 0.0, 0.0, 0.0, 0.0, 0.0, 0.0, 0.0, 0.0, 1.663592193211568E9, 0.0, 2022-09-19 17:56:33.211
99.0, -13.947488540111607, 11238.300649917204, -76514.64808161832, -50225.46502655328, -52953.607196045785, -187500.02235174447, -54537.2729941932, -41464.27410415102, 0.532, -0.848, 0.11800000000000001, 192.0, 16.0, 160.0, 229.0, 128.0, 3.0, 176.0, 0.0, 0.0, 0.0, 1.663592193215502E9, 0.0, 2022-09-19 17:56:33.215
100.0, 62.69664319713631, 11269.950720065919, -76564.40306477583, -50450.52474147377, -53019.90247010023, -187500.02235174447, -54493.35181633852, -41539.107744587396, 0.532, -0.848, 0.11800000000000001, 192.0, 0.0, 0.0, 0.0, 0.0, 0.0, 0.0, 0.0, 0.0, 0.0, 1.663592193220454E9, 0.0, 2022-09-19 17:56:33.220
101.0, 158.76444086604607, 11366.264386923836, -76664.87415610244, -50776.8825622657, -53158.72915491214, -187500.02235174447, -54433.024458053646, -41682.00244689017, 0.532, -0.848, 0.11800000000000001, 192.0, 0.0, 0.0, 0.0, 0.0, 0.0, 0.0, 0.0, 0.0, 0.0, 1.6635921932244728E9, 0.0, 2022-09-19 17:56:33.224
102.0, 155.0540512864651, 11395.656930882566, -76658.41450195486, -50813.137091772216, -53115.50088113557, -187500.02235174447, -54490.06610990359, -41649.99474883017, 0.532, -0.848, 0.11800000000000001, 192.0, 0.0, 0.0, 0.0, 0.0, 0.0, 0.0, 0.0, 0.0, 0.0, 1.6635921932285106E9, 0.0, 2022-09-19 17:56:33.228
103.0, -1.721084323058644, 11297.644531446043, -76528.17088701378, -50638.79348502082, -52971.30977765439, -187500.02235174447, -54424.15081550489, -41519.01352632207, 0.532, -0.848, 0.11800000000000001, 192.0, 0.0, 0.0, 0.0, 0.0, 0.0, 0.0, 0.0, 0.0, 0.0, 1.6635921932314925E9, 0.0, 2022-09-19 17:56:33.231
104.0, -58.29334953944082, 11258.528978649258, -76531.32248298198, -50624.510720313876, -52978.90937076919, -187500.02235174447, -54383.62710280742, -41494.985401032616, 0.532, -0.848, 0.11800000000000001, 192.0, 0.0, 0.0, 0.0, 0.0, 0.0, 0.0, 0.0, 0.0, 0.0, 1.6635921932354827E9, 0.0, 2022-09-19 17:56:33.235
105.0, 6.504357636494356, 11293.978845355374, -76615.40974562285, -50693.68936940305, -53066.05882240043, -187500.02235174447, -54427.32476321754, -41565.01341641109, 0.532, -0.848, 0.11800000000000001, 192.0, 0.0, 0.0, 0.0, 0.0, 0.0, 0.0, 0.0, 0.0, 0.0, 1.6635921932395136E9, 0.0, 2022-09-19 17:56:33.239
106.0, 163.19008626819686, 11389.689015113, -76781.1702825034, -50846.06121135488, -53215.0108474506, -187500.02235174447, -54580.4342127364, -41697.73807498671, 0.532, -0.848, 0.11800000000000001, 192.0, 0.0, 0.0, 0.0, 0.0, 0.0, 0.0, 0.0, 0.0, 0.0, 1.6635921932435093E9, 0.0, 2022-09-19 17:56:33.243
107.0, 178.4563277311716, 11418.187489293516, -76782.51138717073, -50880.63936002724, -53182.71257671268, -187500.02235174447, -54686.11326052109, -41694.67588599633, 0.532, -0.848, 0.11800000000000001, 192.0, 0.0, 0.0, 0.0, 0.0, 0.0, 0.0, 0.0, 0.0, 0.0, 1.6635921932485297E9, 0.0, 2022-09-19 17:56:33.248
108.0, 19.46836942057245, 11322.85729919163, -76628.53021961811, -50759.224684146015, -53037.04625809744, -187500.02235174447, -54563.335128228086, -41548.00373888061, 0.532, -0.848, 0.11800000000000001, 192.0, 0.0, 0.0, 0.0, 0.0, 0.0, 0.0, 0.0, 0.0, 0.0, 1.6635921932525406E9, 0.0, 2022-09-19 17:56:33.252
109.0, -16.920270552667446, 11285.686348162455, -76640.9354377908, -50729.005125642434, -53052.111333860325, -187500.02235174447, -54543.93381404088, -41531.195227050215, 0.534, -0.85, 0.124, 192.0, 16.0, 176.0, 229.0, 112.0, 3.0, 224.0, 0.0, 0.0, 0.0, 1.6635921932565708E9, 0.0, 2022-09-19 17:56:33.256
110.0, 61.84727690783464, 11328.020552160806, -76722.87693296396, -50748.36173634073, -53139.081971535925, -187500.02235174447, -54573.79574463317, -41599.79273078355, 0.534, -0.85, 0.124, 192.0, 0.0, 0.0, 0.0, 0.0, 0.0, 0.0, 0.0, 0.0, 0.0, 1.6635921932595744E9, 0.0, 2022-09-19 17:56:33.259
111.0, 203.8255576879451, 11425.608268452677, -76858.2390973853, -50876.191362880636, -53296.68412169029, -187500.02235174447, -54620.57794577813, -41746.576636621554, 0.534, -0.85, 0.124, 192.0, 0.0, 0.0, 0.0, 0.0, 0.0, 0.0, 0.0, 0.0, 0.0, 1.663592193263574E9, 0.0, 2022-09-19 17:56:33.263
112.0, 186.81588015745643, 11449.099951875205, -76827.34898654807, -50860.522790017465, -53271.136077777875, -187500.02235174447, -54611.95017241838, -41723.576691577044, 0.534, -0.85, 0.124, 192.0, 0.0, 0.0, 0.0, 0.0, 0.0, 0.0, 0.0, 0.0, 0.0, 1.6635921932675478E9, 0.0, 2022-09-19 17:56:33.267
113.0, 35.00283181701086, 11371.606453848655, -76704.07911587704, -50732.40259079965, -53131.460026676665, -187500.02235174447, -54538.1223604825, -41595.590602825956, 0.534, -0.85, 0.124, 192.0, 0.0, 0.0, 0.0, 0.0, 0.0, 0.0, 0.0, 0.0, 0.0, 1.6635921932715614E9, 0.0, 2022-09-19 17:56:33.271
114.0, 32.65589864920362, 11366.040869479284, -76734.63395054746, -50726.27821281889, -53154.41526823226, -187500.02235174447, -54545.431380919385, -41626.5254171521, 0.534, -0.85, 0.124, 192.0, 0.0, 0.0, 0.0, 0.0, 0.0, 0.0, 0.0, 0.0, 0.0, 1.663592193275556E9, 0.0, 2022-09-19 17:56:33.275
115.0, 95.39724533525055, 11404.508221686867, -76820.68816670039, -50781.017634989934, -53236.35676340542, -187500.02235174447, -54616.30876258716, -41697.76042673116, 0.534, -0.85, 0.124, 192.0, 0.0, 0.0, 0.0, 0.0, 0.0, 0.0, 0.0, 0.0, 0.0, 1.6635921932805777E9, 0.0, 2022-09-19 17:56:33.280
116.0, 217.57188052795894, 11469.082411418249, -76954.41865377649, -50928.807369328424, -53370.62369234845, -187500.02235174447, -54758.734078256384, -41819.353916568034, 0.534, -0.85, 0.124, 192.0, 0.0, 0.0, 0.0, 0.0, 0.0, 0.0, 0.0, 0.0, 0.0, 1.6635921932836497E9, 0.0, 2022-09-19 17:56:33.283
117.0, 207.6253542453473, 11456.967765923473, -76914.18551375694, -50880.88522921625, -53319.572308012524, -187500.02235174447, -54810.92540155952, -41763.161631007395, 0.534, -0.85, 0.124, 192.0, 0.0, 0.0, 0.0, 0.0, 0.0, 0.0, 0.0, 0.0, 0.0, 1.663592193287583E9, 0.0, 2022-09-19 17:56:33.287
118.0, 21.77059909946908, 11328.445235305457, -76734.85746799201, -50700.05961657281, -53128.26372721955, -187500.02235174447, -54621.784939978716, -41591.54493707955, 0.534, -0.85, 0.124, 192.0, 0.0, 0.0, 0.0, 0.0, 0.0, 0.0, 0.0, 0.0, 0.0, 1.6635921932916489E9, 0.0, 2022-09-19 17:56:33.291
119.0, -71.79380319044628, 11254.32685069166, -76674.15013005139, -50666.75551733441, -53091.85273550186, -187500.02235174447, -54450.436466984334, -41564.92400943327, 0.536, -0.85, 0.126, 192.0, 16.0, 192.0, 229.0, 112.0, 3.0, 240.0, 0.0, 0.0, 0.0, 1.6635921932956784E9, 0.0, 2022-09-19 17:56:33.295
120.0, -33.84054110533489, 11264.742763607832, -76734.41043310291, -50693.68936940305, -53150.45900946367, -187500.02235174447, -54461.053545600604, -41611.95207976724, 0.536, -0.85, 0.126, 192.0, 0.0, 0.0, 0.0, 0.0, 0.0, 0.0, 0.0, 0.0, 0.0, 1.663592193299671E9, 0.0, 2022-09-19 17:56:33.299
121.0, 108.69653328615824, 11350.126427427105, -76891.92317627945, -50811.97480106054, -53288.57043845302, -187500.02235174447, -54599.410843778955, -41734.05965972658, 0.536, -0.85, 0.126, 192.0, 0.0, 0.0, 0.0, 0.0, 0.0, 0.0, 0.0, 0.0, 0.0, 1.663592193303668E9, 0.0, 2022-09-19 17:56:33.303
122.0, 92.82679472289023, 11348.494750081867, -76856.65212352898, -50820.35670523128, -53235.619155838394, -187500.02235174447, -54640.783922765724, -41691.68075223932, 0.536, -0.85, 0.126, 192.0, 0.0, 0.0, 0.0, 0.0, 0.0, 0.0, 0.0, 0.0, 0.0, 1.6635921933086808E9, 0.0, 2022-09-19 17:56:33.308
123.0, -72.57611424638203, 11232.064513214173, -76722.78752598615, -50704.820538141794, -53067.26581660102, -187500.02235174447, -54570.241817264774, -41538.86187539838, 0.536, -0.85, 0.126, 192.0, 0.0, 0.0, 0.0, 0.0, 0.0, 0.0, 0.0, 0.0, 0.0, 1.663592193311752E9, 0.0, 2022-09-19 17:56:33.311
124.0, -121.45937937013858, 11168.272634538727, -76736.64560754843, -50677.52905816187, -53036.42040925269, -187500.02235174447, -54604.507041514764, -41532.35751776189, 0.536, -0.85, 0.126, 192.0, 0.0, 0.0, 0.0, 0.0, 0.0, 0.0, 0.0, 0.0, 0.0, 1.6635921933156877E9, 0.0, 2022-09-19 17:56:33.315
125.0, -47.38569824525097, 11185.058794624663, -76808.14883806097, -50778.00014948847, -53107.87893627631, -187500.02235174447, -54627.23876562581, -41614.70134433524, 0.536, -0.85, 0.126, 192.0, 0.0, 0.0, 0.0, 0.0, 0.0, 0.0, 0.0, 0.0, 0.0, 1.6635921933196912E9, 0.0, 2022-09-19 17:56:33.319
126.0, 99.62172503730358, 11277.32679573617, -76922.6568249055, -51011.68763776871, -53241.430609396775, -187500.02235174447, -54665.81787655567, -41758.62422688297, 0.536, -0.85, 0.126, 192.0, 0.0, 0.0, 0.0, 0.0, 0.0, 0.0, 0.0, 0.0, 0.0, 1.66359219332364E9, 0.0, 2022-09-19 17:56:33.323
127.0, 60.617930962792755, 11256.539673392734, -76848.51608854724, -50991.70517822566, -53172.833105663434, -187500.02235174447, -54622.276678356735, -41657.169658800325, 0.536, -0.85, 0.126, 192.0, 0.0, 0.0, 0.0, 0.0, 0.0, 0.0, 0.0, 0.0, 0.0, 1.66359219332779E9, 0.0, 2022-09-19 17:56:33.327
128.0, -131.6517748417586, 11132.263974221227, -76698.69234546332, -50836.87464438375, -53010.87236534028, -187500.02235174447, -54507.50047057873, -41480.03208399202, 0.536, -0.85, 0.126, 192.0, 0.0, 0.0, 0.0, 0.0, 0.0, 0.0, 0.0, 0.0, 0.0, 1.6635921933317096E9, 0.0, 2022-09-19 17:56:33.331
129.0, -138.6031673673591, 11091.606151057023, -76717.13253463895, -50826.39167623421, -53002.51281291399, -187500.02235174447, -54513.33427588156, -41482.043740992995, 0.538, -0.848, 0.126, 192.0, 16.0, 208.0, 229.0, 128.0, 3.0, 240.0, 0.0, 0.0, 0.0, 1.6635921933366735E9, 0.0, 2022-09-19 17:56:33.336
130.0, -85.18249811917522, 11116.975381013797, -76759.95847701532, -50902.83464227136, -53074.820706226914, -187500.02235174447, -54416.461815412265, -41563.89582918833, 0.538, -0.848, 0.126, 192.0, 0.0, 0.0, 0.0, 0.0, 0.0, 0.0, 0.0, 0.0, 0.0, 1.6635921933396325E9, 0.0, 2022-09-19 17:56:33.339
131.0, 37.0368405624438, 11200.012111665263, -76895.38769667002, -51024.606946063876, -53204.080844411954, -187500.02235174447, -54500.32556060858, -41691.94897317278, 0.538, -0.848, 0.126, 192.0, 0.0, 0.0, 0.0, 0.0, 0.0, 0.0, 0.0, 0.0, 0.0, 1.6635921933438864E9, 0.0, 2022-09-19 17:56:33.343
132.0, 7.890165792723393, 11192.703091228377, -76848.24786761378, -50952.6790324067, -53131.08004702092, -187500.02235174447, -54554.103857768045, -41616.981222269686, 0.538, -0.848, 0.126, 192.0, 0.0, 0.0, 0.0, 0.0, 0.0, 0.0, 0.0, 0.0, 0.0, 1.6635921933477E9, 0.0, 2022-09-19 17:56:33.347
133.0, -149.0190802835322, 11081.05612767412, -76708.97414791277, -50834.080676326834, -52967.77820203045, -187500.02235174447, -54471.31299630559, -41471.7395867991, 0.538, -0.848, 0.126, 192.0, 0.0, 0.0, 0.0, 0.0, 0.0, 0.0, 0.0, 0.0, 0.0, 1.663592193351712E9, 0.0, 2022-09-19 17:56:33.351
134.0, -178.8139556424565, 11037.269060286173, -76707.87891243445, -50852.833789924836, -52949.65093727719, -187500.02235174447, -54459.10894383299, -41451.39949934477, 0.538, -0.848, 0.126, 192.0, 0.0, 0.0, 0.0, 0.0, 0.0, 0.0, 0.0, 0.0, 0.0, 1.6635921933556578E9, 0.0, 2022-09-19 17:56:33.355
135.0, -107.33307687438452, 11063.107676876507, -76776.38700918997, -50898.87838350277, -53011.49821418503, -187500.02235174447, -54485.43929880134, -41529.47414272716, 0.538, -0.848, 0.126, 192.0, 0.0, 0.0, 0.0, 0.0, 0.0, 0.0, 0.0, 0.0, 0.0, 1.663592193359825E9, 0.0, 2022-09-19 17:56:33.359
136.0, 39.160256285697976, 11142.098741781563, -76909.35753695459, -50976.081308851404, -53131.102398765375, -187500.02235174447, -54614.632381753014, -41661.90822862485, 0.538, -0.848, 0.126, 192.0, 0.0, 0.0, 0.0, 0.0, 0.0, 0.0, 0.0, 0.0, 0.0, 1.6635921933647032E9, 0.0, 2022-09-19 17:56:33.364
137.0, -13.656915862192616, 11114.471985634802, -76807.76885840522, -50931.958965296624, -53030.094865571846, -187500.02235174447, -54579.383680747, -41560.92304717578, 0.538, -0.848, 0.126, 192.0, 0.0, 0.0, 0.0, 0.0, 0.0, 0.0, 0.0, 0.0, 0.0, 1.6635921933677285E9, 0.0, 2022-09-19 17:56:33.367
138.0, -209.1676246127635, 10982.730803815222, -76633.26878944263, -50807.81737659185, -52850.52095061791, -187500.02235174447, -54414.517213644656, -41385.931239835176, 0.538, -0.848, 0.126, 192.0, 0.0, 0.0, 0.0, 0.0, 0.0, 0.0, 0.0, 0.0, 0.0, 1.6635921933707108E9, 0.0, 2022-09-19 17:56:33.370
139.0, -234.33568886943925, 10935.993306159176, -76650.47963267323, -50852.99025213603, -52840.73088654648, -187500.02235174447, -54435.03611505462, -41398.157644052226, 0.536, -0.854, 0.136, 192.0, 16.0, 192.0, 229.0, 80.0, 4.0, 64.0, 0.0, 0.0, 0.0, 1.6635921933758025E9, 0.0, 2022-09-19 17:56:33.375
140.0, -159.27853098851813, 10962.256605894161, -76726.85554347701, -50956.858808619836, -52921.64420147469, -187500.02235174447, -54458.192522310324, -41473.170098444236, 0.536, -0.854, 0.136, 192.0, 0.0, 0.0, 0.0, 0.0, 0.0, 0.0, 0.0, 0.0, 0.0, 1.66359219337971E9, 0.0, 2022-09-19 17:56:33.379
141.0, -27.671459635670143, 11043.840473156033, -76835.2391523408, -51024.89751874179, -53027.23384228157, -187500.02235174447, -54524.957182998325, -41587.119291677394, 0.536, -0.854, 0.136, 192.0, 0.0, 0.0, 0.0, 0.0, 0.0, 0.0, 0.0, 0.0, 0.0, 1.663592193383766E9, 0.0, 2022-09-19 17:56:33.383
142.0, -57.846314650334676, 11026.383760736438, -76749.72137805479, -50986.631332234305, -52903.31577102134, -187500.02235174447, -54537.608270360026, -41502.65204938079, 0.536, -0.854, 0.136, 192.0, 0.0, 0.0, 0.0, 0.0, 0.0, 0.0, 0.0, 0.0, 0.0, 1.6635921933877857E9, 0.0, 2022-09-19 17:56:33.387
143.0, -205.32312456645067, 10919.16244258433, -76591.15810288885, -50905.3156859059, -52744.05959177728, -187500.02235174447, -54370.171352645324, -41352.7612510635, 0.536, -0.854, 0.136, 192.0, 0.0, 0.0, 0.0, 0.0, 0.0, 0.0, 0.0, 0.0, 0.0, 1.663592193392815E9, 0.0, 2022-09-19 17:56:33.392
144.0, -259.99549150413173, 10882.594988655448, -76576.8753381819, -50945.74999162555, -52742.0479347763, -187500.02235174447, -54257.94324373523, -41358.796222066434, 0.536, -0.854, 0.136, 192.0, 0.0, 0.0, 0.0, 0.0, 0.0, 0.0, 0.0, 0.0, 0.0, 1.6635921933957891E9, 0.0, 2022-09-19 17:56:33.395
145.0, -192.47087150464912, 10922.694018208269, -76664.09184504651, -51034.95580374668, -52816.50159555693, -187500.02235174447, -54309.75458738263, -41442.414098073736, 0.536, -0.854, 0.136, 192.0, 0.0, 0.0, 0.0, 0.0, 0.0, 0.0, 0.0, 0.0, 0.0, 1.663592193398812E9, 0.0, 2022-09-19 17:56:33.398
146.0, -34.24287250553042, 11014.000894308198, -76823.75035569076, -51155.43170636079, -52940.01733541696, -187500.02235174447, -54519.21278467331, -41565.862782700395, 0.536, -0.854, 0.136, 192.0, 0.0, 0.0, 0.0, 0.0, 0.0, 0.0, 0.0, 0.0, 0.0, 1.6635921934038146E9, 0.0, 2022-09-19 17:56:33.403
147.0, -36.120419039776216, 11011.743368118212, -76744.9157529969, -51111.10819710591, -52863.75318333545, -187500.02235174447, -54536.64714534845, -41506.78712210502, 0.536, -0.854, 0.136, 192.0, 0.0, 0.0, 0.0, 0.0, 0.0, 0.0, 0.0, 0.0, 0.0, 1.663592193407836E9, 0.0, 2022-09-19 17:56:33.407
148.0, -185.8100516569676, 10913.73096868169, -76576.9200416708, -50880.795822238426, -52712.43187337302, -187500.02235174447, -54324.394980000856, -41335.01396596598, 0.536, -0.854, 0.136, 192.0, 0.0, 0.0, 0.0, 0.0, 0.0, 0.0, 0.0, 0.0, 0.0, 1.6635921934118469E9, 0.0, 2022-09-19 17:56:33.411
149.0, -206.46306353367135, 10886.037157301565, -76588.07356215401, -50851.47033351306, -52699.199640655475, -187500.02235174447, -54291.537915651556, -41332.59997756481, 0.53, -0.846, 0.134, 192.0, 16.0, 144.0, 229.0, 144.0, 4.0, 48.0, 0.0, 0.0, 0.0, 1.6635921934158263E9, 0.0, 2022-09-19 17:56:33.415
150.0, -89.94341968815561, 10937.893204437876, -76722.96633994179, -50972.95206462766, -52789.83596442175, -187500.02235174447, -54465.90387414741, -41427.77370545551, 0.53, -0.846, 0.134, 192.0, 0.0, 0.0, 0.0, 0.0, 0.0, 0.0, 0.0, 0.0, 0.0, 1.6635921934198449E9, 0.0, 2022-09-19 17:56:33.419
151.0, 76.9347044151669, 11043.169920822373, -76829.3382918046, -51149.93317722478, -52920.548965996386, -187500.02235174447, -54526.16417719891, -41567.02507341207, 0.53, -0.846, 0.134, 192.0, 0.0, 0.0, 0.0, 0.0, 0.0, 0.0, 0.0, 0.0, 0.0, 1.6635921934238274E9, 0.0, 2022-09-19 17:56:33.423
152.0, 2.6151541012709263, 11027.747217148211, -76687.87410114695, -51113.49983376263, -52815.13813914516, -187500.02235174447, -54386.97986447572, -41476.70167406818, 0.53, -0.846, 0.134, 192.0, 0.0, 0.0, 0.0, 0.0, 0.0, 0.0, 0.0, 0.0, 0.0, 1.6635921934267788E9, 0.0, 2022-09-19 17:56:33.426
153.0, -161.62546415632536, 10930.07009387852, -76547.12516631189, -50993.47096603763, -52690.817736484736, -187500.02235174447, -54231.45642655569, -41336.019794466476, 0.53, -0.846, 0.134, 192.0, 0.0, 0.0, 0.0, 0.0, 0.0, 0.0, 0.0, 0.0, 0.0, 1.6635921934319E9, 0.0, 2022-09-19 17:56:33.431
154.0, -163.03362405700972, 10909.707654679734, -76581.01041090614, -51000.981152174616, -52720.1432252101, -187500.02235174447, -54245.89565347382, -41338.97022473458, 0.53, -0.846, 0.134, 192.0, 0.0, 0.0, 0.0, 0.0, 0.0, 0.0, 0.0, 0.0, 0.0, 1.6635921934358315E9, 0.0, 2022-09-19 17:56:33.435
155.0, -57.15341057222016, 10965.989347218198, -76699.47465651926, -51125.122740879386, -52822.76008400442, -187500.02235174447, -54348.19958784576, -41430.031231645495, 0.53, -0.846, 0.134, 192.0, 0.0, 0.0, 0.0, 0.0, 0.0, 0.0, 0.0, 0.0, 0.0, 1.663592193439859E9, 0.0, 2022-09-19 17:56:33.439
156.0, 108.18244316368619, 11076.85399971652, -76842.14584137748, -51299.82397554207, -52931.25545159048, -187500.02235174447, -54492.524801793676, -41565.50515478911, 0.53, -0.846, 0.134, 192.0, 0.0, 0.0, 0.0, 0.0, 0.0, 0.0, 0.0, 0.0, 0.0, 1.663592193443869E9, 0.0, 2022-09-19 17:56:33.443
157.0, 62.71899494159162, 11065.879293188966, -76749.05082572113, -51267.65981527088, -52815.048732167335, -187500.02235174447, -54485.2604848457, -41510.989250062616, 0.53, -0.846, 0.134, 192.0, 0.0, 0.0, 0.0, 0.0, 0.0, 0.0, 0.0, 0.0, 0.0, 1.6635921934478328E9, 0.0, 2022-09-19 17:56:33.447
158.0, -51.94545411413361, 10992.386757419916, -76649.2949902171, -51168.194552444766, -52678.63603575659, -187500.02235174447, -54423.3461527045, -41393.553184694436, 0.53, -0.846, 0.134, 192.0, 0.0, 0.0, 0.0, 0.0, 0.0, 0.0, 0.0, 0.0, 0.0, 1.6635921934518857E9, 0.0, 2022-09-19 17:56:33.451
159.0, -29.325488725362867, 11001.483917413225, -76690.95864188179, -51197.60944814795, -52711.04606521679, -187500.02235174447, -54427.928260317836, -41427.28196707749, 0.528, -0.846, 0.14, 192.0, 16.0, 128.0, 229.0, 144.0, 4.0, 96.0, 0.0, 0.0, 0.0, 1.6635921934548852E9, 0.0, 2022-09-19 17:56:33.454
160.0, 80.46628003910543, 11083.850095731032, -76796.16830303291, -51304.98722851124, -52823.07300842679, -187500.02235174447, -54459.06424034408, -41530.23410203864, 0.528, -0.846, 0.14, 192.0, 0.0, 0.0, 0.0, 0.0, 0.0, 0.0, 0.0, 0.0, 0.0, 1.6635921934600124E9, 0.0, 2022-09-19 17:56:33.460
161.0, 249.55722684350334, 11219.41342585247, -76931.44106047644, -51416.8353577656, -52950.56735879986, -187500.02235174447, -54547.21952047581, -41649.07832730751, 0.528, -0.846, 0.14, 192.0, 0.0, 0.0, 0.0, 0.0, 0.0, 0.0, 0.0, 0.0, 0.0, 1.66359219346391E9, 0.0, 2022-09-19 17:56:33.463
162.0, 203.35617105438365, 11228.84586201261, -76856.7415305068, -51325.550833410125, -52847.88344477218, -187500.02235174447, -54564.34095672858, -41566.46627980069, 0.528, -0.846, 0.14, 192.0, 0.0, 0.0, 0.0, 0.0, 0.0, 0.0, 0.0, 0.0, 0.0, 1.6635921934679084E9, 0.0, 2022-09-19 17:56:33.467
163.0, 102.01336169402144, 11173.368832274537, -76770.95553528733, -51201.23043074971, -52724.47946363443, -187500.02235174447, -54509.9144589799, -41476.96989500164, 0.528, -0.846, 0.14, 192.0, 0.0, 0.0, 0.0, 0.0, 0.0, 0.0, 0.0, 0.0, 0.0, 1.6635921934719112E9, 0.0, 2022-09-19 17:56:33.471
164.0, 136.81502781093454, 11195.586466263112, -76804.08082057009, -51222.732808915716, -52746.40652494509, -187500.02235174447, -54481.23717084374, -41501.08742726892, 0.528, -0.846, 0.14, 192.0, 0.0, 0.0, 0.0, 0.0, 0.0, 0.0, 0.0, 0.0, 0.0, 1.6635921934759576E9, 0.0, 2022-09-19 17:56:33.475
165.0, 240.08008719445317, 11277.013871313797, -76907.07765902016, -51337.509016693715, -52842.36256389172, -187500.02235174447, -54516.843499761046, -41632.426277688304, 0.528, -0.846, 0.14, 192.0, 0.0, 0.0, 0.0, 0.0, 0.0, 0.0, 0.0, 0.0, 0.0, 1.6635921934799447E9, 0.0, 2022-09-19 17:56:33.479
166.0, 380.337283651505, 11388.102041256672, -77047.44661419948, -51490.752576679304, -52954.791838501915, -187500.02235174447, -54668.63419635704, -41769.17425026587, 0.528, -0.846, 0.14, 192.0, 0.0, 0.0, 0.0, 0.0, 0.0, 0.0, 0.0, 0.0, 0.0, 1.6635921934829037E9, 0.0, 2022-09-19 17:56:33.482
167.0, 299.4239687232934, 11354.417962362524, -76926.23310401835, -51400.429177335405, -52820.569613047795, -187500.02235174447, -54615.86172769806, -41642.283396993094, 0.528, -0.846, 0.14, 192.0, 0.0, 0.0, 0.0, 0.0, 0.0, 0.0, 0.0, 0.0, 0.0, 1.6635921934869106E9, 0.0, 2022-09-19 17:56:33.486
168.0, 137.59733886687027, 11250.951737278907, -76785.93120407239, -51317.75007459523, -52675.95382642196, -187500.02235174447, -54453.789228652626, -41492.459653909165, 0.528, -0.846, 0.14, 192.0, 0.0, 0.0, 0.0, 0.0, 0.0, 0.0, 0.0, 0.0, 0.0, 1.6635921934919631E9, 0.0, 2022-09-19 17:56:33.491
169.0, 134.51279813203791, 11230.276373657749, -76800.86216936853, -51378.59152300257, -52675.59619851068, -187500.02235174447, -54440.17701627935, -41482.803700304474, 0.526, -0.846, 0.14, 192.0, 16.0, 112.0, 229.0, 144.0, 4.0, 96.0, 0.0, 0.0, 0.0, 1.6635921934959972E9, 0.0, 2022-09-19 17:56:33.495
170.0, 241.42119186177158, 11275.292786990738, -76919.32641498165, -51514.26661184629, -52768.17712404456, -187500.02235174447, -54555.89199732447, -41582.313666619506, 0.526, -0.846, 0.14, 192.0, 0.0, 0.0, 0.0, 0.0, 0.0, 0.0, 0.0, 0.0, 0.0, 1.6635921934999957E9, 0.0, 2022-09-19 17:56:33.499
171.0, 354.8339432279996, 11354.954404229451, -77023.75376507685, -51685.79389879631, -52873.0291572844, -187500.02235174447, -54663.49329513232, -41699.10153139848, 0.526, -0.846, 0.14, 192.0, 0.0, 0.0, 0.0, 0.0, 0.0, 0.0, 0.0, 0.0, 0.0, 1.6635921935040407E9, 0.0, 2022-09-19 17:56:33.504
172.0, 244.12575294086375, 11294.202362799926, -76890.96205126787, -51626.67353471203, -52732.03435326032, -187500.02235174447, -54612.01722765175, -41573.50707930411, 0.526, -0.846, 0.14, 192.0, 0.0, 0.0, 0.0, 0.0, 0.0, 0.0, 0.0, 0.0, 0.0, 1.663592193507012E9, 0.0, 2022-09-19 17:56:33.507
173.0, 80.3768730612842, 11172.586521218602, -76733.47165983578, -51456.08502102912, -52576.04152870674, -187500.02235174447, -54425.62603063894, -41428.33249906689, 0.526, -0.846, 0.14, 192.0, 0.0, 0.0, 0.0, 0.0, 0.0, 0.0, 0.0, 0.0, 0.0, 1.663592193511027E9, 0.0, 2022-09-19 17:56:33.511
174.0, 37.41682021818402, 11121.758654327234, -76711.67870899185, -51424.971392747335, -52568.01725244728, -187500.02235174447, -54334.76618942812, -41422.23047283059, 0.526, -0.846, 0.14, 192.0, 0.0, 0.0, 0.0, 0.0, 0.0, 0.0, 0.0, 0.0, 0.0, 1.66359219351494E9, 0.0, 2022-09-19 17:56:33.514
175.0, 104.092073928365, 11137.807206846144, -76795.90008209946, -51501.593172740126, -52651.18809356548, -187500.02235174447, -54378.68736728279, -41468.05154896397, 0.526, -0.846, 0.14, 192.0, 0.0, 0.0, 0.0, 0.0, 0.0, 0.0, 0.0, 0.0, 0.0, 1.6635921935201292E9, 0.0, 2022-09-19 17:56:33.520
176.0, 206.73128446713503, 11185.058794624663, -76893.21957745786, -51619.58803171969, -52739.20926323048, -187500.02235174447, -54492.100118649025, -41569.930800191265, 0.526, -0.846, 0.14, 192.0, 0.0, 0.0, 0.0, 0.0, 0.0, 0.0, 0.0, 0.0, 0.0, 1.6635921935240123E9, 0.0, 2022-09-19 17:56:33.524
177.0, 90.88219295527851, 11098.222267415795, -76763.73592182827, -51548.91181575201, -52589.07259572418, -187500.02235174447, -54492.4130430714, -41442.99524342957, 0.526, -0.846, 0.14, 192.0, 0.0, 0.0, 0.0, 0.0, 0.0, 0.0, 0.0, 0.0, 0.0, 1.66359219352804E9, 0.0, 2022-09-19 17:56:33.528
178.0, -37.930910340656084, 10978.975710746732, -76640.06371975705, -51464.533980433225, -52457.57728309361, -187500.02235174447, -54387.85158250947, -41301.7992737054, 0.526, -0.846, 0.14, 192.0, 0.0, 0.0, 0.0, 0.0, 0.0, 0.0, 0.0, 0.0, 0.0, 1.6635921935320451E9, 0.0, 2022-09-19 17:56:33.532
179.0, -65.04357636494355, 10936.172120114818, -76620.86357126995, -51442.65162261148, -52460.97474825082, -187500.02235174447, -54275.69052883274, -41301.97808766104, 0.524, -0.846, 0.14400000000000002, 192.0, 16.0, 96.0, 229.0, 144.0, 4.0, 128.0, 0.0, 0.0, 0.0, 1.6635921935351067E9, 0.0, 2022-09-19 17:56:33.535
180.0, -0.9164215226675896, 10967.710431541256, -76700.48048501974, -51514.26661184629, -52554.80737147419, -187500.02235174447, -54270.43786888575, -41389.14989103674, 0.524, -0.846, 0.14400000000000002, 192.0, 0.0, 0.0, 0.0, 0.0, 0.0, 0.0, 0.0, 0.0, 0.0, 1.6635921935390067E9, 0.0, 2022-09-19 17:56:33.539
181.0, 111.42344610970571, 11029.356542748994, -76793.03905880917, -51639.54813951828, -52651.18809356548, -187500.02235174447, -54372.5853410465, -41477.55104035748, 0.524, -0.846, 0.14400000000000002, 192.0, 0.0, 0.0, 0.0, 0.0, 0.0, 0.0, 0.0, 0.0, 0.0, 1.6635921935430403E9, 0.0, 2022-09-19 17:56:33.543
182.0, -1.0281802449441249, 10954.54525405708, -76653.3406559635, -51546.43077211747, -52508.58396394062, -187500.02235174447, -54339.415352274824, -41343.217056181085, 0.524, -0.846, 0.14400000000000002, 192.0, 0.0, 0.0, 0.0, 0.0, 0.0, 0.0, 0.0, 0.0, 0.0, 1.663592193547073E9, 0.0, 2022-09-19 17:56:33.547
183.0, -126.66733582822512, 10844.865244014889, -76552.75780591462, -51442.22693946683, -52404.268372567705, -187500.02235174447, -54268.09093571793, -41229.603139114755, 0.524, -0.846, 0.14400000000000002, 192.0, 0.0, 0.0, 0.0, 0.0, 0.0, 0.0, 0.0, 0.0, 0.0, 1.663592193552104E9, 0.0, 2022-09-19 17:56:33.552
184.0, -108.67418154170294, 10818.691351257725, -76573.74609395815, -51479.219076540365, -52443.09335268657, -187500.02235174447, -54264.469953116175, -41255.329996982815, 0.524, -0.846, 0.14400000000000002, 192.0, 0.0, 0.0, 0.0, 0.0, 0.0, 0.0, 0.0, 0.0, 0.0, 1.6635921935560937E9, 0.0, 2022-09-19 17:56:33.556
185.0, -7.241965203519488, 10865.920587291788, -76661.27552524513, -51574.16928698651, -52547.096019637116, -187500.02235174447, -54296.142375009345, -41352.53773361895, 0.524, -0.846, 0.14400000000000002, 192.0, 0.0, 0.0, 0.0, 0.0, 0.0, 0.0, 0.0, 0.0, 0.0, 1.6635921935600271E9, 0.0, 2022-09-19 17:56:33.560
186.0, 122.19698693716371, 10952.488893567193, -76762.99831426125, -51698.22146871346, -52643.074410328205, -187500.02235174447, -54413.39962642189, -41468.54328734199, 0.524, -0.846, 0.14400000000000002, 192.0, 0.0, 0.0, 0.0, 0.0, 0.0, 0.0, 0.0, 0.0, 0.0, 1.663592193563012E9, 0.0, 2022-09-19 17:56:33.563
187.0, 20.116570009776357, 10899.671721419301, -76619.61187358045, -51577.58910388817, -52508.96394359636, -187500.02235174447, -54340.13060809739, -41331.34827987532, 0.524, -0.846, 0.14400000000000002, 192.0, 0.0, 0.0, 0.0, 0.0, 0.0, 0.0, 0.0, 0.0, 0.0, 1.6635921935670962E9, 0.0, 2022-09-19 17:56:33.567
188.0, -114.46328335562747, 10802.508688272083, -76507.87550304836, -51406.710017527344, -52412.94084941636, -187500.02235174447, -54201.572144218946, -41205.23973765847, 0.524, -0.846, 0.14400000000000002, 192.0, 0.0, 0.0, 0.0, 0.0, 0.0, 0.0, 0.0, 0.0, 0.0, 1.6635921935711203E9, 0.0, 2022-09-19 17:56:33.571
189.0, -108.09303618586496, 10786.303673541985, -76538.49739295214, -51425.597241592084, -52454.023355725214, -187500.02235174447, -54198.4428999952, -41217.19792094206, 0.53, -0.842, 0.134, 192.0, 16.0, 144.0, 229.0, 176.0, 4.0, 48.0, 0.0, 0.0, 0.0, 1.6635921935760744E9, 0.0, 2022-09-19 17:56:33.576
190.0, -12.695790850614411, 10837.846796255923, -76652.55834490756, -51532.662097533, -52560.55176979921, -187500.02235174447, -54264.24643567162, -41315.456189567594, 0.53, -0.842, 0.134, 192.0, 0.0, 0.0, 0.0, 0.0, 0.0, 0.0, 0.0, 0.0, 0.0, 1.6635921935801227E9, 0.0, 2022-09-19 17:56:33.580
191.0, 99.42055933720582, 10908.120680823407, -76751.10718621101, -51625.399485278074, -52644.41551499552, -187500.02235174447, -54394.46769886824, -41408.90883313523, 0.53, -0.842, 0.134, 192.0, 0.0, 0.0, 0.0, 0.0, 0.0, 0.0, 0.0, 0.0, 0.0, 1.6635921935841055E9, 0.0, 2022-09-19 17:56:33.584
192.0, -20.22832873205289, 10830.671886285769, -76583.60321326295, -51533.310298122204, -52480.86780081604, -187500.02235174447, -54314.2696397626, -41275.960657115065, 0.53, -0.842, 0.134, 192.0, 0.0, 0.0, 0.0, 0.0, 0.0, 0.0, 0.0, 0.0, 0.0, 1.6635921935880804E9, 0.0, 2022-09-19 17:56:33.588
193.0, -164.71000489115775, 10722.020056488522, -76463.66375251577, -51440.23763421031, -52359.54253191263, -187500.02235174447, -54183.8919143548, -41147.393423008136, 0.53, -0.842, 0.134, 192.0, 0.0, 0.0, 0.0, 0.0, 0.0, 0.0, 0.0, 0.0, 0.0, 1.6635921935911264E9, 0.0, 2022-09-19 17:56:33.591
194.0, -148.1697139942305, 10699.154221910741, -76504.63450010234, -51455.459172184375, -52373.98175883076, -187500.02235174447, -54210.13286234532, -41164.447804027535, 0.53, -0.842, 0.134, 192.0, 0.0, 0.0, 0.0, 0.0, 0.0, 0.0, 0.0, 0.0, 0.0, 1.6635921935952103E9, 0.0, 2022-09-19 17:56:33.595
195.0, -31.672421893170107, 10760.710926140659, -76630.40776615236, -51549.67177506349, -52497.56455392415, -187500.02235174447, -54290.80030808453, -41283.783767674424, 0.53, -0.842, 0.134, 192.0, 0.0, 0.0, 0.0, 0.0, 0.0, 0.0, 0.0, 0.0, 0.0, 1.6635921935991693E9, 0.0, 2022-09-19 17:56:33.599
196.0, 106.3272483738957, 10845.20052018172, -76736.19857265933, -51668.98538696592, -52593.855869037616, -187500.02235174447, -54433.784417365125, -41386.64649565775, 0.53, -0.842, 0.134, 192.0, 0.0, 0.0, 0.0, 0.0, 0.0, 0.0, 0.0, 0.0, 0.0, 1.663592193603134E9, 0.0, 2022-09-19 17:56:33.603
197.0, -5.230308202541853, 10788.717661943158, -76552.13195706987, -51579.176077744494, -52441.5287305747, -187500.02235174447, -54238.474874314656, -41244.19882824407, 0.53, -0.842, 0.134, 192.0, 0.0, 0.0, 0.0, 0.0, 0.0, 0.0, 0.0, 0.0, 0.0, 1.6635921936081595E9, 0.0, 2022-09-19 17:56:33.608
198.0, -137.77615282251273, 10712.945248239666, -76439.61327548185, -51460.398907708994, -52338.01780200217, -187500.02235174447, -54052.575415679865, -41148.13103057516, 0.53, -0.842, 0.134, 192.0, 0.0, 0.0, 0.0, 0.0, 0.0, 0.0, 0.0, 0.0, 0.0, 1.6635921936121652E9, 0.0, 2022-09-19 17:56:33.612
199.0, -112.71984728811351, 10720.433082632195, -76499.20302619971, -51461.6953088874, -52388.55509621562, -187500.02235174447, -54084.60546548432, -41195.18145265358, 0.532, -0.836, 0.132, 192.0, 16.0, 160.0, 229.0, 224.0, 4.0, 32.0, 0.0, 0.0, 0.0, 1.6635921936161683E9, 0.0, 2022-09-19 17:56:33.616
200.0, 28.587881158337733, 10807.80605170799, -76660.67202814485, -51601.19254603297, -52531.695667707405, -187500.02235174447, -54230.51765328857, -41321.75938150399, 0.532, -0.836, 0.132, 192.0, 0.0, 0.0, 0.0, 0.0, 0.0, 0.0, 0.0, 0.0, 0.0, 1.6635921936191266E9, 0.0, 2022-09-19 17:56:33.619
201.0, 159.59145541089242, 10911.607552958436, -76776.63287837898, -51738.27579477737, -52617.70518037143, -187500.02235174447, -54414.785434578116, -41426.65611823274, 0.532, -0.836, 0.132, 192.0, 0.0, 0.0, 0.0, 0.0, 0.0, 0.0, 0.0, 0.0, 0.0, 1.6635921936231887E9, 0.0, 2022-09-19 17:56:33.623
202.0, 65.8258874208793, 10862.076087245476, -76635.95099877728, -51646.097200643686, -52460.23714068379, -187500.02235174447, -54376.89922772637, -41307.476616797045, 0.532, -0.836, 0.132, 192.0, 0.0, 0.0, 0.0, 0.0, 0.0, 0.0, 0.0, 0.0, 0.0, 1.6635921936271806E9, 0.0, 2022-09-19 17:56:33.627
203.0, -39.048497563421435, 10786.594246219904, -76522.7617648556, -51546.475475606385, -52366.27040699368, -187500.02235174447, -54196.67711218323, -41216.21444418603, 0.532, -0.836, 0.132, 192.0, 0.0, 0.0, 0.0, 0.0, 0.0, 0.0, 0.0, 0.0, 0.0, 1.6635921936311505E9, 0.0, 2022-09-19 17:56:33.631
204.0, -32.79000911593546, 10794.618522479359, -76549.7179686687, -51566.457935149425, -52399.55215448763, -187500.02235174447, -54162.680108866705, -41229.91606353713, 0.532, -0.836, 0.132, 192.0, 0.0, 0.0, 0.0, 0.0, 0.0, 0.0, 0.0, 0.0, 0.0, 1.6635921936362147E9, 0.0, 2022-09-19 17:56:33.636
205.0, 97.1630331472198, 10878.01288104211, -76689.84105465902, -51685.70449181849, -52531.20392932939, -187500.02235174447, -54269.722613063175, -41350.23550394005, 0.532, -0.836, 0.132, 192.0, 0.0, 0.0, 0.0, 0.0, 0.0, 0.0, 0.0, 0.0, 0.0, 1.6635921936402457E9, 0.0, 2022-09-19 17:56:33.640
206.0, 200.51749950855967, 10965.318794884539, -76759.31027642611, -51770.64112074866, -52595.57695336067, -187500.02235174447, -54362.79527697507, -41418.76595244002, 0.532, -0.836, 0.132, 192.0, 0.0, 0.0, 0.0, 0.0, 0.0, 0.0, 0.0, 0.0, 0.0, 1.663592193644242E9, 0.0, 2022-09-19 17:56:33.644
207.0, 54.91823612668945, 10900.96812259771, -76595.87432096891, -51660.22350313944, -52419.69107624186, -187500.02235174447, -54280.22793295717, -41273.63607569171, 0.532, -0.836, 0.132, 192.0, 0.0, 0.0, 0.0, 0.0, 0.0, 0.0, 0.0, 0.0, 0.0, 1.6635921936471505E9, 0.0, 2022-09-19 17:56:33.647
208.0, -52.81717214789059, 10824.659267027291, -76520.14661075432, -51552.4657431204, -52331.37933389895, -187500.02235174447, -54192.51968771454, -41191.00167644044, 0.532, -0.836, 0.132, 192.0, 0.0, 0.0, 0.0, 0.0, 0.0, 0.0, 0.0, 0.0, 0.0, 1.6635921936512177E9, 0.0, 2022-09-19 17:56:33.651
209.0, -29.77252361446901, 10829.196671151718, -76567.37584678839, -51599.29264775427, -52373.26650300819, -187500.02235174447, -54215.743150203605, -41232.195941471575, 0.532, -0.836, 0.132, 192.0, 0.0, 0.0, 0.0, 0.0, 0.0, 0.0, 0.0, 0.0, 0.0, 1.663592193655269E9, 0.0, 2022-09-19 17:56:33.655
210.0, 100.3146291154181, 10908.947695368255, -76717.13253463895, -51742.85790239071, -52506.617010428556, -187500.02235174447, -54351.82057044752, -41354.99642550903, 0.53, -0.848, 0.128, 192.0, 16.0, 144.0, 229.0, 128.0, 4.0, 0.0, 0.0, 0.0, 0.0, 1.6635921936592703E9, 0.0, 2022-09-19 17:56:33.659
211.0, 223.91977595326617, 10992.163239975363, -76806.11482931553, -51831.50492090046, -52586.92682825647, -187500.02235174447, -54496.32459835108, -41433.58515901389, 0.53, -0.848, 0.128, 192.0, 0.0, 0.0, 0.0, 0.0, 0.0, 0.0, 0.0, 0.0, 0.0, 1.6635921936632676E9, 0.0, 2022-09-19 17:56:33.663
212.0, 87.90941094272267, 10913.082768092487, -76627.41263239535, -51694.19815471151, -52427.894166456965, -187500.02235174447, -54372.92061721333, -41294.15497710169, 0.53, -0.848, 0.128, 192.0, 0.0, 0.0, 0.0, 0.0, 0.0, 0.0, 0.0, 0.0, 0.0, 1.6635921936683133E9, 0.0, 2022-09-19 17:56:33.668
213.0, -45.46344822209456, 10834.42697935426, -76517.7102706087, -51597.079825053195, -52350.62418587496, -187500.02235174447, -54179.0862892969, -41224.12696172321, 0.53, -0.848, 0.128, 192.0, 0.0, 0.0, 0.0, 0.0, 0.0, 0.0, 0.0, 0.0, 0.0, 1.6635921936722617E9, 0.0, 2022-09-19 17:56:33.672
214.0, -32.20886376009748, 10837.042133455532, -76551.75197741414, -51586.596856903656, -52383.570657202086, -187500.02235174447, -54150.36429767183, -41253.56420917084, 0.53, -0.848, 0.128, 192.0, 0.0, 0.0, 0.0, 0.0, 0.0, 0.0, 0.0, 0.0, 0.0, 1.6635921936752224E9, 0.0, 2022-09-19 17:56:33.675
215.0, 100.09111167086503, 10917.419006516815, -76698.87115941897, -51709.03971302983, -52505.275905761235, -187500.02235174447, -54283.69245334774, -41356.67280634318, 0.53, -0.848, 0.128, 192.0, 0.0, 0.0, 0.0, 0.0, 0.0, 0.0, 0.0, 0.0, 0.0, 1.6635921936793344E9, 0.0, 2022-09-19 17:56:33.679
216.0, 202.03741813152055, 10993.45964115377, -76755.04109323515, -51826.07344699782, -52559.72475525436, -187500.02235174447, -54368.629082277905, -41425.65028973226, 0.53, -0.848, 0.128, 192.0, 0.0, 0.0, 0.0, 0.0, 0.0, 0.0, 0.0, 0.0, 0.0, 1.663592193683319E9, 0.0, 2022-09-19 17:56:33.683
217.0, 40.814285375390696, 10901.81748888701, -76582.79855046255, -51699.27200070286, -52378.541514699646, -187500.02235174447, -54264.44760137172, -41270.30566576787, 0.53, -0.848, 0.128, 192.0, 0.0, 0.0, 0.0, 0.0, 0.0, 0.0, 0.0, 0.0, 0.0, 1.663592193687288E9, 0.0, 2022-09-19 17:56:33.687
218.0, -66.96582638809996, 10822.535851304037, -76515.81037233, -51611.004961848856, -52292.48729854671, -187500.02235174447, -54212.07746411294, -41166.45946102851, 0.53, -0.848, 0.128, 192.0, 0.0, 0.0, 0.0, 0.0, 0.0, 0.0, 0.0, 0.0, 0.0, 1.6635921936912968E9, 0.0, 2022-09-19 17:56:33.691
219.0, -30.66659339268129, 10832.795302009023, -76570.88507066788, -51652.735668746915, -52340.47649389225, -187500.02235174447, -54238.22900512565, -41222.048249488864, 0.53, -0.848, 0.128, 192.0, 0.0, 0.0, 0.0, 0.0, 0.0, 0.0, 0.0, 0.0, 0.0, 1.6635921936963203E9, 0.0, 2022-09-19 17:56:33.696
220.0, 106.95309721864429, 10920.97293388521, -76691.94211863782, -51791.495298325455, -52476.889190302994, -187500.02235174447, -54278.05981374501, -41361.4113761677, 0.53, -0.852, 0.134, 192.0, 16.0, 144.0, 229.0, 96.0, 4.0, 48.0, 0.0, 0.0, 0.0, 1.663592193700312E9, 0.0, 2022-09-19 17:56:33.700
221.0, 190.23569705911842, 10990.553914374581, -76757.27626768069, -51855.26482525645, -52539.89875792251, -187500.02235174447, -54380.47550683922, -41405.75723716703, 0.53, -0.852, 0.134, 192.0, 0.0, 0.0, 0.0, 0.0, 0.0, 0.0, 0.0, 0.0, 0.0, 1.6635921937032752E9, 0.0, 2022-09-19 17:56:33.703
222.0, 38.40029697421753, 10899.716424908213, -76584.36317257442, -51715.25349798841, -52360.19073250183, -187500.02235174447, -54291.29204646254, -41238.99087178599, 0.53, -0.852, 0.134, 192.0, 0.0, 0.0, 0.0, 0.0, 0.0, 0.0, 0.0, 0.0, 0.0, 1.6635921937074068E9, 0.0, 2022-09-19 17:56:33.707
223.0, -75.9512276591334, 10809.929467431244, -76490.3070319065, -51602.22072627792, -52275.9917111387, -187500.02235174447, -54131.72294279611, -41170.21455409701, 0.53, -0.852, 0.134, 192.0, 0.0, 0.0, 0.0, 0.0, 0.0, 0.0, 0.0, 0.0, 0.0, 1.6635921937113047E9, 0.0, 2022-09-19 17:56:33.711
224.0, -61.33318678536258, 10806.979037163144, -76548.89095412385, -51619.20805206395, -52317.990638970216, -187500.02235174447, -54115.96496295511, -41200.47881608949, 0.53, -0.852, 0.134, 192.0, 0.0, 0.0, 0.0, 0.0, 0.0, 0.0, 0.0, 0.0, 0.0, 1.6635921937153492E9, 0.0, 2022-09-19 17:56:33.715
225.0, 75.16891660319766, 10881.432697943772, -76703.38621179893, -51739.0134023444, -52450.42472486791, -187500.02235174447, -54218.58182174943, -41331.884721742244, 0.53, -0.852, 0.134, 192.0, 0.0, 0.0, 0.0, 0.0, 0.0, 0.0, 0.0, 0.0, 0.0, 1.6635921937192852E9, 0.0, 2022-09-19 17:56:33.719
226.0, 163.48065894611585, 10936.149768370364, -76757.34332291405, -51819.85966203924, -52484.73465260681, -187500.02235174447, -54337.873081907404, -41377.884611831265, 0.53, -0.852, 0.134, 192.0, 0.0, 0.0, 0.0, 0.0, 0.0, 0.0, 0.0, 0.0, 0.0, 1.663592193723374E9, 0.0, 2022-09-19 17:56:33.723
227.0, -0.29057267791899183, 10827.43088333975, -76584.18435861879, -51697.88619254663, -52312.15683366738, -187500.02235174447, -54242.520540061065, -41203.42924635759, 0.53, -0.852, 0.134, 192.0, 0.0, 0.0, 0.0, 0.0, 0.0, 0.0, 0.0, 0.0, 0.0, 1.663592193727336E9, 0.0, 2022-09-19 17:56:33.727
228.0, -117.90545200174475, 10737.308649695951, -76501.88523553434, -51611.608458949144, -52247.47088521372, -187500.02235174447, -54125.844434004364, -41113.955213303, 0.53, -0.852, 0.134, 192.0, 0.0, 0.0, 0.0, 0.0, 0.0, 0.0, 0.0, 0.0, 0.0, 1.6635921937303965E9, 0.0, 2022-09-19 17:56:33.730
229.0, -101.9239547162002, 10736.347524684374, -76553.98715185966, -51665.07383168624, -52291.95085667978, -187500.02235174447, -54158.992071031586, -41154.724795189475, 0.53, -0.852, 0.134, 192.0, 0.0, 0.0, 0.0, 0.0, 0.0, 0.0, 0.0, 0.0, 0.0, 1.6635921937353048E9, 0.0, 2022-09-19 17:56:33.735
230.0, 47.4751052230722, 10813.058711654987, -76701.70983096478, -51821.983077762496, -52434.443227582364, -187500.02235174447, -54266.83923802844, -41294.758474201975, 0.53, -0.852, 0.134, 192.0, 16.0, 144.0, 229.0, 96.0, 4.0, 48.0, 0.0, 0.0, 0.0, 1.6635921937394087E9, 0.0, 2022-09-19 17:56:33.739
231.0, 98.99587619255497, 10849.648517328325, -76713.26568284818, -51853.230816511015, -52473.98346352381, -187500.02235174447, -54269.11911596288, -41332.82349500937, 0.53, -0.852, 0.134, 192.0, 0.0, 0.0, 0.0, 0.0, 0.0, 0.0, 0.0, 0.0, 0.0, 1.6635921937433457E9, 0.0, 2022-09-19 17:56:33.743
232.0, -106.30489662944039, 10720.142509954276, -76503.87454079087, -51718.09216953423, -52276.818725683544, -187500.02235174447, -54110.17586114119, -41113.955213303, 0.53, -0.852, 0.134, 192.0, 0.0, 0.0, 0.0, 0.0, 0.0, 0.0, 0.0, 0.0, 0.0, 1.6635921937473352E9, 0.0, 2022-09-19 17:56:33.747
233.0, -213.14623512580815, 10622.621848895771, -76440.52969700453, -51745.04837334733, -52182.20379140422, -187500.02235174447, -54080.962131138105, -41011.07013357522, 0.53, -0.852, 0.134, 192.0, 0.0, 0.0, 0.0, 0.0, 0.0, 0.0, 0.0, 0.0, 0.0, 1.6635921937513404E9, 0.0, 2022-09-19 17:56:33.751
234.0, -150.89662681777799, 10619.939639561135, -76508.47900014865, -51809.35434214525, -52225.990858792175, -187500.02235174447, -54166.97164380213, -41055.326587596726, 0.53, -0.852, 0.134, 192.0, 0.0, 0.0, 0.0, 0.0, 0.0, 0.0, 0.0, 0.0, 0.0, 1.663592193755351E9, 0.0, 2022-09-19 17:56:33.755
235.0, -43.54119819893816, 10685.83258221538, -76595.51669305762, -51924.59993655681, -52367.052718049614, -187500.02235174447, -54126.00089621555, -41199.271821888906, 0.53, -0.852, 0.134, 192.0, 0.0, 0.0, 0.0, 0.0, 0.0, 0.0, 0.0, 0.0, 0.0, 1.6635921937584028E9, 0.0, 2022-09-19 17:56:33.758
236.0, -14.729799596047354, 10716.856803519346, -76593.63914652338, -51984.659073908224, -52379.569694944585, -187500.02235174447, -54119.18361415668, -41225.84804604627, 0.53, -0.852, 0.134, 192.0, 0.0, 0.0, 0.0, 0.0, 0.0, 0.0, 0.0, 0.0, 0.0, 1.6635921937633808E9, 0.0, 2022-09-19 17:56:33.763
237.0, -206.9995054005987, 10596.246790438508, -76399.73776337359, -51791.80822274783, -52165.97642492967, -187500.02235174447, -53998.327731886835, -41033.60069198617, 0.53, -0.852, 0.134, 192.0, 0.0, 0.0, 0.0, 0.0, 0.0, 0.0, 0.0, 0.0, 0.0, 1.6635921937673829E9, 0.0, 2022-09-19 17:56:33.767
238.0, -309.70577117273467, 10506.571591683816, -76330.15678288422, -51700.546050136814, -52084.37020592335, -187500.02235174447, -53905.16566099712, -40956.0177869818, 0.53, -0.852, 0.134, 192.0, 0.0, 0.0, 0.0, 0.0, 0.0, 0.0, 0.0, 0.0, 0.0, 1.6635921937714658E9, 0.0, 2022-09-19 17:56:33.771
239.0, -272.6912823547462, 10506.79510912837, -76380.4258561642, -51754.01142287391, -52114.88033710484, -187500.02235174447, -53926.86920486322, -40986.885546074576, 0.53, -0.852, 0.134, 192.0, 0.0, 0.0, 0.0, 0.0, 0.0, 0.0, 0.0, 0.0, 0.0, 1.6635921937754705E9, 0.0, 2022-09-19 17:56:33.775
240.0, -128.56723410692624, 10587.104926956288, -76533.60236091643, -51912.06060791738, -52246.24153926868, -187500.02235174447, -54052.95539533561, -41114.49165516993, 0.532, -0.846, 0.14, 192.0, 16.0, 160.0, 229.0, 144.0, 4.0, 96.0, 0.0, 0.0, 0.0, 1.6635921937794764E9, 0.0, 2022-09-19 17:56:33.779
241.0, -62.47312575258324, 10631.383732722252, -76559.50803274012, -52014.096321355864, -52266.112240089446, -187500.02235174447, -54153.3817831733, -41150.16503932059, 0.532, -0.846, 0.14, 192.0, 0.0, 0.0, 0.0, 0.0, 0.0, 0.0, 0.0, 0.0, 0.0, 1.6635921937834024E9, 0.0, 2022-09-19 17:56:33.783
242.0, -218.46595030617124, 10519.826176145814, -76363.01384723352, -51913.066436417874, -52065.50533360307, -187500.02235174447, -54012.14110996021, -40980.40354018254, 0.532, -0.846, 0.14, 192.0, 0.0, 0.0, 0.0, 0.0, 0.0, 0.0, 0.0, 0.0, 0.0, 1.6635921937864308E9, 0.0, 2022-09-19 17:56:33.786
243.0, -310.4210269953045, 10442.10916067471, -76296.31624177888, -51901.75645372349, -51990.51523095551, -187500.02235174447, -53890.70408233453, -40901.099550855106, 0.532, -0.846, 0.14, 192.0, 0.0, 0.0, 0.0, 0.0, 0.0, 0.0, 0.0, 0.0, 0.0, 1.6635921937904372E9, 0.0, 2022-09-19 17:56:33.790
244.0, -273.89827655533276, 10447.205358410522, -76358.49879485354, -51982.4686029516, -52032.91649018723, -187500.02235174447, -53939.252071291456, -40910.822559693166, 0.532, -0.846, 0.14, 192.0, 0.0, 0.0, 0.0, 0.0, 0.0, 0.0, 0.0, 0.0, 0.0, 1.6635921937955196E9, 0.0, 2022-09-19 17:56:33.795
245.0, -110.68583854268057, 10536.768798442936, -76516.99501478614, -52174.827715733976, -52191.3680066309, -187500.02235174447, -54069.94272112164, -41074.83966050621, 0.532, -0.846, 0.14, 192.0, 0.0, 0.0, 0.0, 0.0, 0.0, 0.0, 0.0, 0.0, 0.0, 1.663592193799441E9, 0.0, 2022-09-19 17:56:33.799
246.0, -59.25447455101902, 10573.582121560827, -76511.27296820558, -52267.83332441251, -52191.300951397534, -187500.02235174447, -54076.558837480414, -41099.292468940315, 0.532, -0.846, 0.14, 192.0, 0.0, 0.0, 0.0, 0.0, 0.0, 0.0, 0.0, 0.0, 0.0, 1.6635921938034189E9, 0.0, 2022-09-19 17:56:33.803
247.0, -260.35311941541664, 10452.189797424055, -76302.55237848191, -52135.77921817055, -51986.134289042275, -187500.02235174447, -53891.8216695573, -40900.473702010364, 0.532, -0.846, 0.14, 192.0, 0.0, 0.0, 0.0, 0.0, 0.0, 0.0, 0.0, 0.0, 0.0, 1.663592193807457E9, 0.0, 2022-09-19 17:56:33.807
248.0, -344.79800996756677, 10381.759450645382, -76255.90428780369, -52095.97076129565, -51932.40069537171, -187500.02235174447, -53824.20764258, -40837.79941055768, 0.532, -0.846, 0.14, 192.0, 0.0, 0.0, 0.0, 0.0, 0.0, 0.0, 0.0, 0.0, 0.0, 1.6635921938114989E9, 0.0, 2022-09-19 17:56:33.811
249.0, -283.9118580713103, 10407.307494557797, -76319.65146299022, -52187.65761705132, -51990.51523095551, -187500.02235174447, -53872.04037571435, -40895.936297885935, 0.532, -0.846, 0.14, 192.0, 0.0, 0.0, 0.0, 0.0, 0.0, 0.0, 0.0, 0.0, 0.0, 1.6635921938145835E9, 0.0, 2022-09-19 17:56:33.814
250.0, -115.75968453403527, 10516.920449366624, -76473.7443892651, -52360.771877857675, -52141.16598858428, -187500.02235174447, -53971.885618196204, -41056.39947133058, 0.532, -0.846, 0.134, 192.0, 16.0, 160.0, 229.0, 144.0, 4.0, 48.0, 0.0, 0.0, 0.0, 1.6635921938194797E9, 0.0, 2022-09-19 17:56:33.819
251.0, -71.01149213451053, 10570.318766870352, -76488.87652026136, -52400.982666132775, -52138.953165883206, -187500.02235174447, -54041.958337063596, -41063.641436534104, 0.532, -0.846, 0.134, 192.0, 0.0, 0.0, 0.0, 0.0, 0.0, 0.0, 0.0, 0.0, 0.0, 1.6635921938235152E9, 0.0, 2022-09-19 17:56:33.823
252.0, -243.61166281839166, 10470.004137754935, -76324.36768107029, -52269.263836057646, -51957.27818695047, -187500.02235174447, -53955.01005113245, -40902.26184156678, 0.532, -0.846, 0.134, 192.0, 0.0, 0.0, 0.0, 0.0, 0.0, 0.0, 0.0, 0.0, 0.0, 1.6635921938275158E9, 0.0, 2022-09-19 17:56:33.827
253.0, -288.69513138474605, 10430.665067513593, -76311.85070417532, -52244.96748983473, -51935.77580878446, -187500.02235174447, -53924.38816122868, -40872.33285574113, 0.532, -0.846, 0.134, 192.0, 0.0, 0.0, 0.0, 0.0, 0.0, 0.0, 0.0, 0.0, 0.0, 1.663592193831544E9, 0.0, 2022-09-19 17:56:33.831
254.0, -218.13067413934164, 10480.464754160019, -76389.14303650177, -52315.956630224784, -52004.48507124008, -187500.02235174447, -53963.14608611418, -40962.611551596114, 0.532, -0.846, 0.134, 192.0, 0.0, 0.0, 0.0, 0.0, 0.0, 0.0, 0.0, 0.0, 0.0, 1.663592193835524E9, 0.0, 2022-09-19 17:56:33.835
255.0, -43.63060517675939, 10613.256467968997, -76552.8695646369, -52513.657809931974, -52165.14941038482, -187500.02235174447, -54063.8630466298, -41131.031946066854, 0.532, -0.846, 0.134, 192.0, 0.0, 0.0, 0.0, 0.0, 0.0, 0.0, 0.0, 0.0, 0.0, 1.6635921938385143E9, 0.0, 2022-09-19 17:56:33.838
0.0, 11.242927461019452, 10680.468163546106, -76572.76261720213, -52587.37386314558, -52172.23491337716, -187500.02235174447, -54151.32542268341, -41147.50518173041, 0.532, -0.846, 0.134, 192.0, 0.0, 0.0, 0.0, 0.0, 0.0, 0.0, 0.0, 0.0, 0.0, 1.6635921938425176E9, 0.0, 2022-09-19 17:56:33.842
1.0, -153.62353964132544, 10588.066051967866, -76405.77273437653, -52469.87074254403, -51993.04097807896, -187500.02235174447, -54065.78529665295, -40977.14018549206, 0.532, -0.846, 0.134, 192.0, 0.0, 0.0, 0.0, 0.0, 0.0, 0.0, 0.0, 0.0, 0.0, 1.6635921938476524E9, 0.0, 2022-09-19 17:56:33.847
2.0, -227.45135157720466, 10549.665754993648, -76385.70086785566, -52447.2284254108, -51966.64356787725, -187500.02235174447, -54018.26548794097, -40953.804964280724, 0.532, -0.846, 0.134, 192.0, 0.0, 0.0, 0.0, 0.0, 0.0, 0.0, 0.0, 0.0, 0.0, 1.6635921938515704E9, 0.0, 2022-09-19 17:56:33.851
3.0, -141.30772844645125, 10606.14861323221, -76454.4995372891, -52512.741388409304, -52051.04375494048, -187500.02235174447, -54019.383075163736, -41028.21392157244, 0.532, -0.846, 0.134, 192.0, 0.0, 0.0, 0.0, 0.0, 0.0, 0.0, 0.0, 0.0, 0.0, 1.6635921938555593E9, 0.0, 2022-09-19 17:56:33.855
4.0, 18.95427929810039, 10737.576870629415, -76591.76159998913, -52670.27648333031, -52215.776111576095, -187500.02235174447, -54034.403447437704, -41196.70137127655, 0.544, -0.846, 0.13, 192.0, 17.0, 0.0, 229.0, 144.0, 4.0, 16.0, 0.0, 0.0, 0.0, 1.6635921938595607E9, 0.0, 2022-09-19 17:56:33.859
5.0, 55.3876227602509, 10796.361958546873, -76605.15029491787, -52701.45716684547, -52217.34073368797, -187500.02235174447, -54104.07383490489, -41225.95980476854, 0.544, -0.846, 0.13, 192.0, 0.0, 0.0, 0.0, 0.0, 0.0, 0.0, 0.0, 0.0, 0.0, 1.6635921938637097E9, 0.0, 2022-09-19 17:56:33.863
6.0, -111.89283274326715, 10701.098823678354, -76444.21773483965, -52544.436162046935, -52043.62297578132, -187500.02235174447, -54013.1022349718, -41062.099166166685, 0.544, -0.846, 0.13, 192.0, 0.0, 0.0, 0.0, 0.0, 0.0, 0.0, 0.0, 0.0, 0.0, 1.6635921938667371E9, 0.0, 2022-09-19 17:56:33.866
7.0, -158.4962199325824, 10671.460410530617, -76436.37227253584, -52521.72678968034, -52030.100170385864, -187500.02235174447, -53989.096461426794, -41036.08173562071, 0.544, -0.846, 0.13, 192.0, 0.0, 0.0, 0.0, 0.0, 0.0, 0.0, 0.0, 0.0, 0.0, 1.6635921938706005E9, 0.0, 2022-09-19 17:56:33.870
8.0, -71.88321016826751, 10727.518585624526, -76551.68492218076, -52611.044360523745, -52119.82007262947, -187500.02235174447, -54125.5762130709, -41097.616088106166, 0.544, -0.846, 0.13, 192.0, 0.0, 0.0, 0.0, 0.0, 0.0, 0.0, 0.0, 0.0, 0.0, 1.6635921938746343E9, 0.0, 2022-09-19 17:56:33.874
9.0, 122.75578054854638, 10851.324898162473, -76745.00515997472, -52723.83126304523, -52302.99261844071, -187500.02235174447, -54303.22787800168, -41268.85280237828, 0.544, -0.846, 0.13, 192.0, 0.0, 0.0, 0.0, 0.0, 0.0, 0.0, 0.0, 0.0, 0.0, 1.6635921938796473E9, 0.0, 2022-09-19 17:56:33.879
10.0, 131.24944344156307, 10909.193564557263, -76701.82158968707, -52757.06830705027, -52309.00523769918, -187500.02235174447, -54267.93447350675, -41274.66425593666, 0.544, -0.846, 0.13, 192.0, 0.0, 0.0, 0.0, 0.0, 0.0, 0.0, 0.0, 0.0, 0.0, 1.6635921938837037E9, 0.0, 2022-09-19 17:56:33.883
11.0, -39.07084930787675, 10825.061598427486, -76499.15832271079, -52618.35338096063, -52144.42934327476, -187500.02235174447, -54094.68610223367, -41119.94548081702, 0.544, -0.846, 0.13, 192.0, 0.0, 0.0, 0.0, 0.0, 0.0, 0.0, 0.0, 0.0, 0.0, 1.663592193887661E9, 0.0, 2022-09-19 17:56:33.887
12.0, -65.87059090978991, 10796.406662035783, -76490.5529010955, -52620.007410050326, -52149.570244499475, -187500.02235174447, -54042.89711033072, -41117.7550098604, 0.544, -0.846, 0.13, 192.0, 0.0, 0.0, 0.0, 0.0, 0.0, 0.0, 0.0, 0.0, 0.0, 1.663592193891606E9, 0.0, 2022-09-19 17:56:33.891
13.0, 0.8046628003910543, 10840.685467801746, -76581.18922486177, -52648.39412550857, -52242.419390966825, -187500.02235174447, -54083.53258175046, -41178.775272223385, 0.544, -0.846, 0.13, 192.0, 0.0, 0.0, 0.0, 0.0, 0.0, 0.0, 0.0, 0.0, 0.0, 1.6635921938945994E9, 0.0, 2022-09-19 17:56:33.894
14.0, 177.11522306385316, 10960.915501226844, -76775.51529115622, -52768.758269400394, -52416.51712852921, -187500.02235174447, -54282.865438802895, -41332.5552740759, 0.536, -0.842, 0.134, 192.0, 16.0, 192.0, 229.0, 176.0, 4.0, 48.0, 0.0, 0.0, 0.0, 1.6635921938986633E9, 0.0, 2022-09-19 17:56:33.898
15.0, 208.8994036792998, 10998.46643191176, -76756.7174740693, -52803.80580470632, -52409.56573600361, -187500.02235174447, -54333.067456849516, -41333.71756478758, 0.536, -0.842, 0.134, 192.0, 0.0, 0.0, 0.0, 0.0, 0.0, 0.0, 0.0, 0.0, 0.0, 1.6635921939027517E9, 0.0, 2022-09-19 17:56:33.902
16.0, 19.982459543044513, 10898.755299896635, -76557.13874782786, -52661.33578554819, -52231.802312350555, -187500.02235174447, -54129.80069277295, -41174.08140588777, 0.536, -0.842, 0.134, 192.0, 0.0, 0.0, 0.0, 0.0, 0.0, 0.0, 0.0, 0.0, 0.0, 1.6635921939076316E9, 0.0, 2022-09-19 17:56:33.907
17.0, -12.47227340606134, 10881.924436321788, -76551.95314311424, -52604.36118893161, -52224.33682970248, -187500.02235174447, -54095.51311677851, -41147.8628096417, 0.536, -0.842, 0.134, 192.0, 0.0, 0.0, 0.0, 0.0, 0.0, 0.0, 0.0, 0.0, 0.0, 1.663592193911652E9, 0.0, 2022-09-19 17:56:33.911
18.0, 63.88128565326758, 10933.221689846718, -76640.80132732408, -52614.97826754788, -52318.88470874843, -187500.02235174447, -54156.57808263041, -41215.52154010791, 0.536, -0.842, 0.134, 192.0, 0.0, 0.0, 0.0, 0.0, 0.0, 0.0, 0.0, 0.0, 0.0, 1.6635921939157045E9, 0.0, 2022-09-19 17:56:33.915
19.0, 230.17826440075214, 11051.685935459845, -76812.5297799742, -52726.20054795749, -52487.327454963626, -187500.02235174447, -54313.28616300657, -41396.704780662636, 0.536, -0.842, 0.134, 192.0, 0.0, 0.0, 0.0, 0.0, 0.0, 0.0, 0.0, 0.0, 0.0, 1.6635921939197314E9, 0.0, 2022-09-19 17:56:33.919
20.0, 243.25403490710676, 11081.950197452332, -76776.87874756799, -52735.23065271744, -52467.38969890949, -187500.02235174447, -54333.536843483074, -41385.03717005696, 0.536, -0.842, 0.134, 192.0, 0.0, 0.0, 0.0, 0.0, 0.0, 0.0, 0.0, 0.0, 0.0, 1.6635921939226933E9, 0.0, 2022-09-19 17:56:33.922
21.0, 43.921177854678376, 10968.448039108282, -76593.97442269021, -52534.02024913076, -52288.79926071159, -187500.02235174447, -54183.2884172545, -41186.91130720512, 0.536, -0.842, 0.134, 192.0, 0.0, 0.0, 0.0, 0.0, 0.0, 0.0, 0.0, 0.0, 0.0, 1.663592193926687E9, 0.0, 2022-09-19 17:56:33.926
22.0, -7.756055325991551, 10927.231422332696, -76588.11826564292, -52451.89994000196, -52288.66515024485, -187500.02235174447, -54146.96683251463, -41173.00852215392, 0.536, -0.842, 0.134, 192.0, 0.0, 0.0, 0.0, 0.0, 0.0, 0.0, 0.0, 0.0, 0.0, 1.6635921939306223E9, 0.0, 2022-09-19 17:56:33.930
23.0, 69.69273921164742, 10970.280882153616, -76685.43776100133, -52552.25927260629, -52395.864116652505, -187500.02235174447, -54205.30488554298, -41268.42811923363, 0.536, -0.842, 0.134, 192.0, 0.0, 0.0, 0.0, 0.0, 0.0, 0.0, 0.0, 0.0, 0.0, 1.6635921939357667E9, 0.0, 2022-09-19 17:56:33.935
24.0, 262.52123862758145, 11101.150345939439, -76869.03498995722, -52731.54261488231, -52567.2572931358, -187500.02235174447, -54388.72330054323, -41422.52104550851, 0.534, -0.846, 0.134, 192.0, 16.0, 176.0, 229.0, 144.0, 4.0, 48.0, 0.0, 0.0, 0.0, 1.663592193939752E9, 0.0, 2022-09-19 17:56:33.939
25.0, 272.13248874336347, 11129.224136975305, -76818.96708237733, -52773.11685956918, -52530.48867350682, -187500.02235174447, -54397.641646580894, -41396.30244926244, 0.534, -0.846, 0.134, 192.0, 0.0, 0.0, 0.0, 0.0, 0.0, 0.0, 0.0, 0.0, 0.0, 1.663592193943745E9, 0.0, 2022-09-19 17:56:33.943
26.0, 65.62472172078154, 11012.659789640878, -76621.5341236036, -52650.51754123182, -52357.59793014502, -187500.02235174447, -54189.591609190895, -41230.20663621505, 0.534, -0.846, 0.134, 192.0, 0.0, 0.0, 0.0, 0.0, 0.0, 0.0, 0.0, 0.0, 0.0, 1.6635921939477215E9, 0.0, 2022-09-19 17:56:33.947
27.0, 19.33425895384061, 10970.906730998366, -76629.13371671841, -52620.767369361805, -52349.528950396656, -187500.02235174447, -54171.62080664883, -41206.64789755916, 0.534, -0.846, 0.134, 192.0, 0.0, 0.0, 0.0, 0.0, 0.0, 0.0, 0.0, 0.0, 0.0, 1.663592193950726E9, 0.0, 2022-09-19 17:56:33.950
28.0, 104.89673672875604, 11018.761815877178, -76736.39973835943, -52723.875966534135, -52442.69102128637, -187500.02235174447, -54289.4144999283, -41299.295878326404, 0.534, -0.846, 0.134, 192.0, 0.0, 0.0, 0.0, 0.0, 0.0, 0.0, 0.0, 0.0, 0.0, 1.6635921939547038E9, 0.0, 2022-09-19 17:56:33.954
29.0, 296.2723727550951, 11144.803302860655, -76890.2467954453, -52945.15823664168, -52609.34562794514, -187500.02235174447, -54382.66597779584, -41470.53259259851, 0.534, -0.846, 0.134, 192.0, 0.0, 0.0, 0.0, 0.0, 0.0, 0.0, 0.0, 0.0, 0.0, 1.6635921939587407E9, 0.0, 2022-09-19 17:56:33.958
30.0, 263.54941887252556, 11160.784800146199, -76817.51421898774, -52974.997815489514, -52553.48861855133, -187500.02235174447, -54342.835169176484, -41398.98465859707, 0.534, -0.846, 0.134, 192.0, 0.0, 0.0, 0.0, 0.0, 0.0, 0.0, 0.0, 0.0, 0.0, 1.6635921939627187E9, 0.0, 2022-09-19 17:56:33.962
31.0, 61.7131664411028, 11041.001801610208, -76644.75758609267, -52881.813392855336, -52381.08961356755, -187500.02235174447, -54195.91715287175, -41252.06664229234, 0.534, -0.846, 0.134, 192.0, 0.0, 0.0, 0.0, 0.0, 0.0, 0.0, 0.0, 0.0, 0.0, 1.6635921939678707E9, 0.0, 2022-09-19 17:56:33.967
32.0, 24.989250301033294, 11010.335208217528, -76665.81292936957, -52987.224219706564, -52366.49392443823, -187500.02235174447, -54199.78400466252, -41246.07637477832, 0.534, -0.846, 0.134, 192.0, 0.0, 0.0, 0.0, 0.0, 0.0, 0.0, 0.0, 0.0, 0.0, 1.663592193971736E9, 0.0, 2022-09-19 17:56:33.971
33.0, 127.2037776951525, 11067.153342622918, -76783.85249183804, -53074.64189227127, -52456.21382668184, -187500.02235174447, -54317.108311308424, -41334.29871014341, 0.534, -0.846, 0.134, 192.0, 0.0, 0.0, 0.0, 0.0, 0.0, 0.0, 0.0, 0.0, 0.0, 1.6635921939758115E9, 0.0, 2022-09-19 17:56:33.975
34.0, 305.7495124041453, 11194.22300985134, -76945.09797633863, -53121.2899829495, -52633.8207881237, -187500.02235174447, -54420.48512941422, -41521.27105251206, 0.534, -0.85, 0.13, 192.0, 16.0, 176.0, 229.0, 112.0, 4.0, 16.0, 0.0, 0.0, 0.0, 1.663592193978736E9, 0.0, 2022-09-19 17:56:33.978
35.0, 275.3958434338383, 11205.532992545724, -76879.0932749621, -53024.66339166921, -52576.42150836247, -187500.02235174447, -54418.562879391066, -41453.791136001484, 0.534, -0.85, 0.13, 192.0, 0.0, 0.0, 0.0, 0.0, 0.0, 0.0, 0.0, 0.0, 0.0, 1.663592193982895E9, 0.0, 2022-09-19 17:56:33.982
36.0, 98.37002734780638, 11085.459421331814, -76724.79918298712, -52838.115732445214, -52406.32473305759, -187500.02235174447, -54329.40177075884, -41276.83237514882, 0.534, -0.85, 0.13, 192.0, 0.0, 0.0, 0.0, 0.0, 0.0, 0.0, 0.0, 0.0, 0.0, 1.6635921939867637E9, 0.0, 2022-09-19 17:56:33.986
37.0, 53.73359367055818, 11046.813255168589, -76700.94987165331, -52829.107979429726, -52398.27810505368, -187500.02235174447, -54216.503109515084, -41287.80708167638, 0.534, -0.85, 0.13, 192.0, 0.0, 0.0, 0.0, 0.0, 0.0, 0.0, 0.0, 0.0, 0.0, 1.6635921939907973E9, 0.0, 2022-09-19 17:56:33.990
38.0, 122.68872531518046, 11095.7188720368, -76781.6173173925, -52868.670567115616, -52484.24291422879, -187500.02235174447, -54242.07350517196, -41375.917658319195, 0.534, -0.85, 0.13, 192.0, 0.0, 0.0, 0.0, 0.0, 0.0, 0.0, 0.0, 0.0, 0.0, 1.66359219399587E9, 0.0, 2022-09-19 17:56:33.995
39.0, 299.6921896567571, 11218.117024674062, -76948.60720021812, -52969.65574856469, -52637.01708758081, -187500.02235174447, -54399.608600092964, -41519.59467167791, 0.534, -0.85, 0.13, 192.0, 0.0, 0.0, 0.0, 0.0, 0.0, 0.0, 0.0, 0.0, 0.0, 1.6635921939997792E9, 0.0, 2022-09-19 17:56:33.999
40.0, 263.7058810837127, 11218.765225263265, -76882.82601628614, -52912.8376141593, -52563.97158670087, -187500.02235174447, -54422.608545137475, -41465.481098351614, 0.534, -0.85, 0.13, 192.0, 0.0, 0.0, 0.0, 0.0, 0.0, 0.0, 0.0, 0.0, 0.0, 1.6635921940038233E9, 0.0, 2022-09-19 17:56:34.003
41.0, 81.11448062830934, 11101.19504942835, -76717.71367999479, -52760.82340011876, -52378.02742457717, -187500.02235174447, -54306.51358443661, -41306.850767952295, 0.534, -0.85, 0.13, 192.0, 0.0, 0.0, 0.0, 0.0, 0.0, 0.0, 0.0, 0.0, 0.0, 1.6635921940068953E9, 0.0, 2022-09-19 17:56:34.006
42.0, 58.06983209488775, 11069.969662424286, -76719.50181955121, -52765.18199028754, -52381.961331601306, -187500.02235174447, -54260.80426702551, -41317.98193669104, 0.534, -0.85, 0.13, 192.0, 0.0, 0.0, 0.0, 0.0, 0.0, 0.0, 0.0, 0.0, 0.0, 1.66359219401084E9, 0.0, 2022-09-19 17:56:34.010
43.0, 143.31938544742889, 11120.618715360013, -76818.40828876595, -52826.00108695043, -52487.77448985273, -187500.02235174447, -54312.19092752826, -41415.94963263865, 0.534, -0.85, 0.13, 192.0, 0.0, 0.0, 0.0, 0.0, 0.0, 0.0, 0.0, 0.0, 0.0, 1.6635921940168529E9, 0.0, 2022-09-19 17:56:34.016
44.0, 313.12558807439666, 11238.300649917204, -76983.83354947968, -52928.95322191158, -52642.76148590583, -187500.02235174447, -54456.04675484262, -41564.23110535516, 0.532, -0.854, 0.13, 192.0, 16.0, 160.0, 229.0, 80.0, 4.0, 16.0, 0.0, 0.0, 0.0, 1.663592194019905E9, 0.0, 2022-09-19 17:56:34.019
45.0, 284.8282795939779, 11229.583469579635, -76925.56255168469, -52879.17588700961, -52567.0561274357, -187500.02235174447, -54513.20016541483, -41492.325543442435, 0.532, -0.854, 0.13, 192.0, 0.0, 0.0, 0.0, 0.0, 0.0, 0.0, 0.0, 0.0, 0.0, 1.663592194023866E9, 0.0, 2022-09-19 17:56:34.023
46.0, 118.82187352441234, 11115.433110646381, -76755.13050021297, -52732.39198117161, -52399.619209721, -187500.02235174447, -54381.928370228816, -41358.12566973277, 0.532, -0.854, 0.13, 192.0, 0.0, 0.0, 0.0, 0.0, 0.0, 0.0, 0.0, 0.0, 0.0, 1.663592194027834E9, 0.0, 2022-09-19 17:56:34.027
47.0, 86.03186440847688, 11083.470116075292, -76751.77773854468, -52725.99938225739, -52402.34612254454, -187500.02235174447, -54317.532994453075, -41354.750556320025, 0.532, -0.854, 0.13, 192.0, 0.0, 0.0, 0.0, 0.0, 0.0, 0.0, 0.0, 0.0, 0.0, 1.663592194031885E9, 0.0, 2022-09-19 17:56:34.031
48.0, 163.9723973241326, 11134.63325913349, -76832.91457091745, -52746.317117967264, -52494.56942016714, -187500.02235174447, -54310.693360649755, -41420.3752780408, 0.532, -0.854, 0.13, 192.0, 0.0, 0.0, 0.0, 0.0, 0.0, 0.0, 0.0, 0.0, 0.0, 1.6635921940348847E9, 0.0, 2022-09-19 17:56:34.034
49.0, 324.6814399577904, 11246.950775021407, -76977.30684009872, -52869.005843282444, -52647.2765382858, -187500.02235174447, -54422.96617304876, -41576.23399212766, 0.532, -0.854, 0.13, 192.0, 0.0, 0.0, 0.0, 0.0, 0.0, 0.0, 0.0, 0.0, 0.0, 1.6635921940388672E9, 0.0, 2022-09-19 17:56:34.038
50.0, 277.407500434816, 11229.27054515726, -76899.03103101625, -52857.98643326598, -52575.460383350895, -187500.02235174447, -54448.82714138355, -41499.29928771249, 0.532, -0.854, 0.13, 192.0, 0.0, 0.0, 0.0, 0.0, 0.0, 0.0, 0.0, 0.0, 0.0, 1.6635921940428874E9, 0.0, 2022-09-19 17:56:34.042
51.0, 109.5011960865493, 11111.745072811256, -76741.74180528424, -52766.456039721495, -52437.03602993918, -187500.02235174447, -54328.46299749172, -41347.888570772244, 0.532, -0.854, 0.13, 192.0, 0.0, 0.0, 0.0, 0.0, 0.0, 0.0, 0.0, 0.0, 0.0, 1.6635921940468495E9, 0.0, 2022-09-19 17:56:34.046
52.0, 91.01630342201035, 11080.631444529468, -76752.89532576744, -52852.39849715215, -52466.45092564236, -187500.02235174447, -54299.18221225527, -41353.02947199696, 0.532, -0.854, 0.13, 192.0, 0.0, 0.0, 0.0, 0.0, 0.0, 0.0, 0.0, 0.0, 0.0, 1.6635921940519004E9, 0.0, 2022-09-19 17:56:34.051
53.0, 178.8363073869118, 11131.146386998462, -76850.75126299278, -53038.56617672041, -52572.08526993815, -187500.02235174447, -54350.97120415822, -41451.62301678932, 0.532, -0.854, 0.13, 192.0, 0.0, 0.0, 0.0, 0.0, 0.0, 0.0, 0.0, 0.0, 0.0, 1.66359219405586E9, 0.0, 2022-09-19 17:56:34.055
54.0, 344.46273380073717, 11253.298670446715, -77002.13962818857, -53277.52867669209, -52713.68357106252, -187500.02235174447, -54488.657950002904, -41593.064855702505, 0.532, -0.854, 0.13, 192.0, 0.0, 0.0, 0.0, 0.0, 0.0, 0.0, 0.0, 0.0, 0.0, 1.6635921940599813E9, 0.0, 2022-09-19 17:56:34.059
55.0, 289.1421662738522, 11239.082960973139, -76913.82788584565, -53308.01645612913, -52618.12986351608, -187500.02235174447, -54510.74147352475, -41500.30511621298, 0.532, -0.854, 0.132, 192.0, 16.0, 160.0, 229.0, 80.0, 4.0, 32.0, 0.0, 0.0, 0.0, 1.6635921940629747E9, 0.0, 2022-09-19 17:56:34.062
56.0, 114.61974556681461, 11116.43893914687, -76756.69512232485, -53191.496812283614, -52460.0806784726, -187500.02235174447, -54397.75340530317, -41351.889533029746, 0.532, -0.854, 0.132, 192.0, 0.0, 0.0, 0.0, 0.0, 0.0, 0.0, 0.0, 0.0, 0.0, 1.663592194066966E9, 0.0, 2022-09-19 17:56:34.066
57.0, 135.51862663252672, 11096.992921470754, -76787.31701222861, -53197.21885886417, -52476.53156239171, -187500.02235174447, -54433.11386503147, -41369.56976289389, 0.532, -0.854, 0.132, 192.0, 0.0, 0.0, 0.0, 0.0, 0.0, 0.0, 0.0, 0.0, 0.0, 1.6635921940709405E9, 0.0, 2022-09-19 17:56:34.070
58.0, 240.59417731692523, 11152.805227375655, -76859.40138809699, -53302.227354315204, -52587.32915965666, -187500.02235174447, -54404.12365247293, -41478.86979328034, 0.532, -0.854, 0.132, 192.0, 0.0, 0.0, 0.0, 0.0, 0.0, 0.0, 0.0, 0.0, 0.0, 1.6635921940749335E9, 0.0, 2022-09-19 17:56:34.074
59.0, 367.7979550120777, 11258.730144349354, -76960.94536315744, -53418.635239438445, -52718.80212054278, -187500.02235174447, -54422.608545137475, -41605.73829480867, 0.532, -0.854, 0.132, 192.0, 0.0, 0.0, 0.0, 0.0, 0.0, 0.0, 0.0, 0.0, 0.0, 1.663592194078915E9, 0.0, 2022-09-19 17:56:34.078
60.0, 284.8282795939779, 11222.900297987497, -76862.21770789835, -53337.185482643305, -52594.81699404919, -187500.02235174447, -54447.62014718296, -41500.573337146445, 0.532, -0.854, 0.132, 192.0, 0.0, 0.0, 0.0, 0.0, 0.0, 0.0, 0.0, 0.0, 0.0, 1.6635921940839653E9, 0.0, 2022-09-19 17:56:34.083
61.0, 113.45745485513865, 11089.795659756144, -76737.98671221576, -53212.14982416032, -52435.69492527186, -187500.02235174447, -54395.45117562428, -41353.6106173528, 0.532, -0.854, 0.132, 192.0, 0.0, 0.0, 0.0, 0.0, 0.0, 0.0, 0.0, 0.0, 0.0, 1.6635921940880425E9, 0.0, 2022-09-19 17:56:34.088
62.0, 86.97063767559978, 11048.646098213923, -76746.97211348679, -53207.0089229356, -52441.55108231915, -187500.02235174447, -54332.79923591605, -41348.17914345016, 0.532, -0.854, 0.132, 192.0, 0.0, 0.0, 0.0, 0.0, 0.0, 0.0, 0.0, 0.0, 0.0, 1.6635921940909824E9, 0.0, 2022-09-19 17:56:34.090
63.0, 196.42713027323848, 11110.113395466018, -76839.08365238711, -53288.615141941926, -52531.20392932939, -187500.02235174447, -54357.36380307243, -41438.77076372752, 0.532, -0.854, 0.132, 192.0, 0.0, 0.0, 0.0, 0.0, 0.0, 0.0, 0.0, 0.0, 0.0, 1.6635921940949829E9, 0.0, 2022-09-19 17:56:34.094
64.0, 358.72314676322304, 11227.594164323113, -76952.1611275865, -53468.68079527388, -52656.3289947902, -187500.02235174447, -54415.52304214514, -41580.30200961853, 0.532, -0.854, 0.132, 192.0, 0.0, 0.0, 0.0, 0.0, 0.0, 0.0, 0.0, 0.0, 0.0, 1.6635921940990832E9, 0.0, 2022-09-19 17:56:34.099
65.0, 278.5250876575813, 11200.213277365361, -76822.58806497909, -53430.63812621095, -52530.645135718005, -187500.02235174447, -54373.54646605808, -41464.96700822914, 0.53, -0.854, 0.124, 192.0, 16.0, 144.0, 229.0, 80.0, 3.0, 224.0, 0.0, 0.0, 0.0, 1.663592194103032E9, 0.0, 2022-09-19 17:56:34.103
66.0, 110.93170773168895, 11082.799563741633, -76676.13943530792, -53310.72101720823, -52370.070203551084, -187500.02235174447, -54257.42915361276, -41328.97899496305, 0.53, -0.854, 0.124, 192.0, 0.0, 0.0, 0.0, 0.0, 0.0, 0.0, 0.0, 0.0, 0.0, 1.6635921941070204E9, 0.0, 2022-09-19 17:56:34.107
67.0, 114.35152463335093, 11061.677165231367, -76700.34637455302, -53324.10971213695, -52369.89138959544, -187500.02235174447, -54253.4058396108, -41339.12668694576, 0.53, -0.854, 0.124, 192.0, 0.0, 0.0, 0.0, 0.0, 0.0, 0.0, 0.0, 0.0, 0.0, 1.6635921941120384E9, 0.0, 2022-09-19 17:56:34.112
68.0, 230.11120916738622, 11125.670209606911, -76829.45005052687, -53443.937414161854, -52471.636530355994, -187500.02235174447, -54372.87591372441, -41440.938882939685, 0.53, -0.854, 0.124, 192.0, 0.0, 0.0, 0.0, 0.0, 0.0, 0.0, 0.0, 0.0, 0.0, 1.6635921941159775E9, 0.0, 2022-09-19 17:56:34.115
69.0, 420.97275507125323, 11249.297708189215, -76995.21058740742, -53624.740675060835, -52629.708067143925, -187500.02235174447, -54559.624738648505, -41596.86465225991, 0.53, -0.854, 0.124, 192.0, 0.0, 0.0, 0.0, 0.0, 0.0, 0.0, 0.0, 0.0, 0.0, 1.6635921941201775E9, 0.0, 2022-09-19 17:56:34.120
70.0, 374.8164027710441, 11229.784635279731, -76890.09033323411, -53601.40545384949, -52523.73844668132, -187500.02235174447, -54564.318604984124, -41500.796854591, 0.53, -0.854, 0.124, 192.0, 0.0, 0.0, 0.0, 0.0, 0.0, 0.0, 0.0, 0.0, 0.0, 1.6635921941230454E9, 0.0, 2022-09-19 17:56:34.123
71.0, 221.48343580763768, 11127.056017763141, -76713.8021247151, -53499.190926455376, -52376.775726887674, -187500.02235174447, -54352.15584661435, -41332.53292233145, 0.53, -0.854, 0.124, 192.0, 0.0, 0.0, 0.0, 0.0, 0.0, 0.0, 0.0, 0.0, 0.0, 1.663592194127062E9, 0.0, 2022-09-19 17:56:34.127
72.0, 175.6400079298029, 11090.846191745542, -76685.08013309004, -53468.92666446289, -52381.44724147883, -187500.02235174447, -54215.02789438104, -41327.79435250692, 0.53, -0.854, 0.124, 192.0, 0.0, 0.0, 0.0, 0.0, 0.0, 0.0, 0.0, 0.0, 0.0, 1.6635921941310377E9, 0.0, 2022-09-19 17:56:34.131
73.0, 244.55043608551458, 11128.620639875013, -76784.81361684963, -53470.11130691902, -52493.65299864447, -187500.02235174447, -54246.230929640646, -41419.23533907358, 0.53, -0.854, 0.124, 192.0, 0.0, 0.0, 0.0, 0.0, 0.0, 0.0, 0.0, 0.0, 0.0, 1.663592194135152E9, 0.0, 2022-09-19 17:56:34.135
74.0, 386.90869652136524, 11228.354123634592, -76923.84146736164, -53585.312197841675, -52629.23868051037, -187500.02235174447, -54384.3870621189, -41545.12036384587, 0.53, -0.854, 0.124, 192.0, 0.0, 0.0, 0.0, 0.0, 0.0, 0.0, 0.0, 0.0, 0.0, 1.663592194140114E9, 0.0, 2022-09-19 17:56:34.140
75.0, 288.73983487365666, 11175.961634631352, -76801.10803855753, -53542.30744150966, -52498.704492891375, -187500.02235174447, -54380.07317543902, -41427.88546417779, 0.53, -0.85, 0.132, 192.0, 16.0, 144.0, 229.0, 112.0, 4.0, 32.0, 0.0, 0.0, 0.0, 1.6635921941440449E9, 0.0, 2022-09-19 17:56:34.144
76.0, 131.45060914166083, 11062.124200120474, -76700.54754025312, -53457.929606190875, -52349.05956376309, -187500.02235174447, -54366.684480510296, -41288.56704098786, 0.53, -0.85, 0.132, 192.0, 0.0, 0.0, 0.0, 0.0, 0.0, 0.0, 0.0, 0.0, 0.0, 1.663592194147019E9, 0.0, 2022-09-19 17:56:34.147
77.0, 167.7274903926242, 11043.929880133854, -76750.2131164328, -53424.513748230194, -52369.444354706335, -187500.02235174447, -54408.10226298598, -41317.02081167946, 0.53, -0.85, 0.132, 192.0, 0.0, 0.0, 0.0, 0.0, 0.0, 0.0, 0.0, 0.0, 0.0, 1.6635921941510835E9, 0.0, 2022-09-19 17:56:34.151
78.0, 250.3171861549838, 11089.8180115006, -76812.90975962994, -53447.96072816381, -52475.10105074657, -187500.02235174447, -54298.42225294379, -41414.96615588262, 0.53, -0.85, 0.132, 192.0, 0.0, 0.0, 0.0, 0.0, 0.0, 0.0, 0.0, 0.0, 0.0, 1.6635921941551485E9, 0.0, 2022-09-19 17:56:34.155
79.0, 372.7376905367006, 11188.07628012613, -76911.10097302211, -53558.31129053966, -52599.667322596, -187500.02235174447, -54333.64860220535, -41531.86577938387, 0.53, -0.85, 0.132, 192.0, 0.0, 0.0, 0.0, 0.0, 0.0, 0.0, 0.0, 0.0, 0.0, 1.663592194159085E9, 0.0, 2022-09-19 17:56:34.159
80.0, 261.53776187154796, 11133.716837610822, -76774.8223870781, -53463.09285916005, -52461.86881802903, -187500.02235174447, -54312.302686250536, -41385.4171497127, 0.53, -0.85, 0.132, 192.0, 0.0, 0.0, 0.0, 0.0, 0.0, 0.0, 0.0, 0.0, 0.0, 1.6635921941631355E9, 0.0, 2022-09-19 17:56:34.163
81.0, 121.59348983687042, 11025.512042702681, -76660.6943798893, -53335.8890814649, -52326.12667395195, -187500.02235174447, -54240.218310382166, -41254.25711324896, 0.53, -0.85, 0.132, 192.0, 0.0, 0.0, 0.0, 0.0, 0.0, 0.0, 0.0, 0.0, 0.0, 1.6635921941671405E9, 0.0, 2022-09-19 17:56:34.167
82.0, 115.35735313383975, 11006.088376771018, -76687.91880463586, -53402.02789330816, -52341.03528750364, -187500.02235174447, -54251.304775632, -41288.120006098754, 0.53, -0.85, 0.132, 192.0, 0.0, 0.0, 0.0, 0.0, 0.0, 0.0, 0.0, 0.0, 0.0, 1.6635921941721363E9, 0.0, 2022-09-19 17:56:34.172
83.0, 237.59904355991407, 11068.896778690432, -76809.06525958363, -53563.631005720024, -52463.56755060763, -187500.02235174447, -54368.67378576682, -41407.947708123655, 0.53, -0.85, 0.132, 192.0, 0.0, 0.0, 0.0, 0.0, 0.0, 0.0, 0.0, 0.0, 0.0, 1.6635921941751099E9, 0.0, 2022-09-19 17:56:34.175
84.0, 381.87955401892117, 11161.6341664355, -76913.98434805684, -53694.32165555021, -52585.02692997777, -187500.02235174447, -54446.97194659376, -41507.21180524967, 0.53, -0.85, 0.132, 192.0, 0.0, 0.0, 0.0, 0.0, 0.0, 0.0, 0.0, 0.0, 0.0, 1.6635921941791863E9, 0.0, 2022-09-19 17:56:34.179
85.0, 246.71855529767936, 11092.902552235431, -76728.24135163325, -53599.79612824871, -52430.28580311368, -187500.02235174447, -54304.881907091374, -41365.501745403024, 0.532, -0.85, 0.134, 192.0, 16.0, 160.0, 229.0, 112.0, 4.0, 48.0, 0.0, 0.0, 0.0, 1.6635921941831868E9, 0.0, 2022-09-19 17:56:34.183
86.0, 65.512962998505, 10974.483010111215, -76580.4739690392, -53530.148092525975, -52291.01208341266, -187500.02235174447, -54141.11067546734, -41224.68575533459, 0.532, -0.85, 0.134, 192.0, 0.0, 0.0, 0.0, 0.0, 0.0, 0.0, 0.0, 0.0, 0.0, 1.6635921941871648E9, 0.0, 2022-09-19 17:56:34.187
87.0, 62.42842226367262, 10955.148751157374, -76610.76058277614, -53573.979863402834, -52307.999409198696, -187500.02235174447, -54144.46343713563, -41256.939322583596, 0.532, -0.85, 0.134, 192.0, 0.0, 0.0, 0.0, 0.0, 0.0, 0.0, 0.0, 0.0, 0.0, 1.6635921941911995E9, 0.0, 2022-09-19 17:56:34.191
88.0, 186.27943829052907, 11010.6481326399, -76739.35016862753, -53654.20027425293, -52420.42868380889, -187500.02235174447, -54239.45835107069, -41362.931294790666, 0.532, -0.85, 0.134, 192.0, 0.0, 0.0, 0.0, 0.0, 0.0, 0.0, 0.0, 0.0, 0.0, 1.6635921941952107E9, 0.0, 2022-09-19 17:56:34.195
89.0, 334.40444879584896, 11111.096872222051, -76849.85719321456, -53760.66163309356, -52530.6004322291, -187500.02235174447, -54361.297710096565, -41483.653066593775, 0.532, -0.85, 0.134, 192.0, 0.0, 0.0, 0.0, 0.0, 0.0, 0.0, 0.0, 0.0, 0.0, 1.663592194200274E9, 0.0, 2022-09-19 17:56:34.200
90.0, 216.49899679410422, 11057.050354129118, -76699.6534704749, -53618.03515172424, -52355.966252799786, -187500.02235174447, -54333.58154697199, -41335.12572468826, 0.532, -0.85, 0.134, 192.0, 0.0, 0.0, 0.0, 0.0, 0.0, 0.0, 0.0, 0.0, 0.0, 1.663592194203179E9, 0.0, 2022-09-19 17:56:34.203
91.0, 78.09699512684287, 10952.824169734022, -76605.06088794004, -53474.82752499909, -52215.373780175905, -187500.02235174447, -54298.01992154359, -41217.89082502018, 0.532, -0.85, 0.134, 192.0, 0.0, 0.0, 0.0, 0.0, 0.0, 0.0, 0.0, 0.0, 0.0, 1.663592194207189E9, 0.0, 2022-09-19 17:56:34.207
92.0, 122.68872531518046, 10943.794064974078, -76623.14344920439, -53510.61266787203, -52239.1783880208, -187500.02235174447, -54259.105534446906, -41243.57297939932, 0.532, -0.85, 0.134, 192.0, 0.0, 0.0, 0.0, 0.0, 0.0, 0.0, 0.0, 0.0, 0.0, 1.663592194211157E9, 0.0, 2022-09-19 17:56:34.211
93.0, 225.50674980959295, 11007.138908760418, -76707.56598801208, -53617.72222730186, -52350.288909708135, -187500.02235174447, -54219.185318849726, -41346.4580591271, 0.532, -0.85, 0.134, 192.0, 0.0, 0.0, 0.0, 0.0, 0.0, 0.0, 0.0, 0.0, 0.0, 1.66359219421525E9, 0.0, 2022-09-19 17:56:34.215
94.0, 349.0671931585304, 11106.24654367525, -76807.4782857273, -53753.62083359013, -52439.360611362536, -187500.02235174447, -54306.71475013671, -41452.49473482308, 0.532, -0.85, 0.134, 192.0, 0.0, 0.0, 0.0, 0.0, 0.0, 0.0, 0.0, 0.0, 0.0, 1.6635921942192209E9, 0.0, 2022-09-19 17:56:34.219
95.0, 224.50092130910414, 11037.693743430824, -76651.597219896, -53665.4655534584, -52269.35324303547, -187500.02235174447, -54264.38054613835, -41307.051933652394, 0.53, -0.85, 0.14400000000000002, 192.0, 16.0, 144.0, 229.0, 112.0, 4.0, 128.0, 0.0, 0.0, 0.0, 1.663592194223216E9, 0.0, 2022-09-19 17:56:34.223
96.0, 103.35446636133986, 10930.40537004535, -76557.76459667261, -53570.202418589884, -52147.960918898694, -187500.02235174447, -54228.885975943325, -41190.2193653845, 0.53, -0.85, 0.14400000000000002, 192.0, 0.0, 0.0, 0.0, 0.0, 0.0, 0.0, 0.0, 0.0, 0.0, 1.6635921942281823E9, 0.0, 2022-09-19 17:56:34.228
97.0, 132.07645798640942, 10928.840747933478, -76590.576957533, -53595.83986948012, -52195.48072761068, -187500.02235174447, -54193.86079238186, -41246.50105792297, 0.53, -0.85, 0.14400000000000002, 192.0, 0.0, 0.0, 0.0, 0.0, 0.0, 0.0, 0.0, 0.0, 0.0, 1.6635921942312646E9, 0.0, 2022-09-19 17:56:34.231
98.0, 231.0276306900538, 11003.137946502919, -76694.4008105279, -53641.795056080235, -52320.67284830485, -187500.02235174447, -54200.231039551625, -41347.41918413868, 0.53, -0.85, 0.14400000000000002, 192.0, 0.0, 0.0, 0.0, 0.0, 0.0, 0.0, 0.0, 0.0, 0.0, 1.663592194234232E9, 0.0, 2022-09-19 17:56:34.234
99.0, 350.20713212575106, 11100.077462205585, -76786.40059070595, -53745.328336397215, -52413.700808727845, -187500.02235174447, -54297.66229363231, -41436.71440323763, 0.53, -0.85, 0.14400000000000002, 192.0, 0.0, 0.0, 0.0, 0.0, 0.0, 0.0, 0.0, 0.0, 0.0, 1.6635921942392173E9, 0.0, 2022-09-19 17:56:34.239
100.0, 214.71085723767965, 11025.020304324664, -76633.00056850917, -53641.99622178033, -52245.74980089066, -187500.02235174447, -54253.87522624436, -41277.05589259337, 0.53, -0.85, 0.14400000000000002, 192.0, 0.0, 0.0, 0.0, 0.0, 0.0, 0.0, 0.0, 0.0, 0.0, 1.6635921942432325E9, 0.0, 2022-09-19 17:56:34.243
101.0, 86.25538185302996, 10924.817433931523, -76540.17377378629, -53556.70196493888, -52141.79183742903, -187500.02235174447, -54180.82972536442, -41179.04349315685, 0.53, -0.85, 0.14400000000000002, 192.0, 0.0, 0.0, 0.0, 0.0, 0.0, 0.0, 0.0, 0.0, 0.0, 1.6635921942472622E9, 0.0, 2022-09-19 17:56:34.247
102.0, 120.07357121390955, 10928.080788621997, -76577.85881493794, -53604.35588411759, -52198.94524800125, -187500.02235174447, -54159.9308442987, -41230.11722923723, 0.53, -0.85, 0.14400000000000002, 192.0, 0.0, 0.0, 0.0, 0.0, 0.0, 0.0, 0.0, 0.0, 0.0, 1.6635921942512434E9, 0.0, 2022-09-19 17:56:34.251
103.0, 241.42119186177158, 11012.168051262863, -76704.72731646626, -53677.8707716311, -52350.19950273031, -187500.02235174447, -54191.82678363643, -41351.82247779638, 0.53, -0.85, 0.14400000000000002, 192.0, 0.0, 0.0, 0.0, 0.0, 0.0, 0.0, 0.0, 0.0, 0.0, 1.663592194256286E9, 0.0, 2022-09-19 17:56:34.256
104.0, 373.1400219368961, 11119.992866515264, -76808.19354154987, -53747.697621309475, -52451.654070812954, -187500.02235174447, -54307.45235770373, -41437.094382893374, 0.53, -0.85, 0.14400000000000002, 192.0, 0.0, 0.0, 0.0, 0.0, 0.0, 0.0, 0.0, 0.0, 0.0, 1.6635921942592895E9, 0.0, 2022-09-19 17:56:34.259
105.0, 253.66994782327984, 11059.956080908309, -76645.51754540415, -53596.26455262477, -52281.914923419354, -187500.02235174447, -54251.751810521106, -41305.12968362924, 0.53, -0.848, 0.14200000000000002, 192.0, 16.0, 144.0, 229.0, 128.0, 4.0, 112.0, 0.0, 0.0, 0.0, 1.6635921942622623E9, 0.0, 2022-09-19 17:56:34.262
106.0, 135.02688825450997, 10971.487876354204, -76563.37488453089, -53333.09511340799, -52186.85295425093, -187500.02235174447, -54196.90062962778, -41221.93649076659, 0.53, -0.848, 0.14200000000000002, 192.0, 0.0, 0.0, 0.0, 0.0, 0.0, 0.0, 0.0, 0.0, 0.0, 1.663592194267285E9, 0.0, 2022-09-19 17:56:34.267
107.0, 175.48354571861574, 10979.333338658016, -76630.96655976374, -53169.681509695234, -52238.083152542495, -187500.02235174447, -54241.06767667147, -41287.27063980945, 0.53, -0.848, 0.14200000000000002, 192.0, 0.0, 0.0, 0.0, 0.0, 0.0, 0.0, 0.0, 0.0, 0.0, 1.663592194271384E9, 0.0, 2022-09-19 17:56:34.271
108.0, 315.0031346086424, 11075.557598538113, -76754.97403800179, -53284.837697128976, -52374.09351755304, -187500.02235174447, -54277.32220617798, -41420.040001873975, 0.53, -0.848, 0.14200000000000002, 192.0, 0.0, 0.0, 0.0, 0.0, 0.0, 0.0, 0.0, 0.0, 0.0, 1.6635921942753177E9, 0.0, 2022-09-19 17:56:34.275
109.0, 442.139857070429, 11183.11419285705, -76848.51608854724, -53356.98912823071, -52462.04763198467, -187500.02235174447, -54382.08483244, -41503.7472848591, 0.53, -0.848, 0.14200000000000002, 192.0, 0.0, 0.0, 0.0, 0.0, 0.0, 0.0, 0.0, 0.0, 0.0, 1.663592194279313E9, 0.0, 2022-09-19 17:56:34.279
110.0, 312.4550357407374, 11117.44476764736, -76682.8449586445, -53201.979780433154, -52282.31725481954, -187500.02235174447, -54314.180232784776, -41333.51639908748, 0.53, -0.848, 0.14200000000000002, 192.0, 0.0, 0.0, 0.0, 0.0, 0.0, 0.0, 0.0, 0.0, 0.0, 1.6635921942823815E9, 0.0, 2022-09-19 17:56:34.282
111.0, 200.07046461945353, 11039.481882987247, -76589.97346043271, -53104.92850600821, -52178.60516054692, -187500.02235174447, -54203.650856453285, -41243.26005497695, 0.53, -0.848, 0.14200000000000002, 192.0, 0.0, 0.0, 0.0, 0.0, 0.0, 0.0, 0.0, 0.0, 0.0, 1.6635921942863908E9, 0.0, 2022-09-19 17:56:34.286
112.0, 251.03244197755362, 11066.639252500445, -76654.72646411974, -53145.720439639146, -52231.91407107283, -187500.02235174447, -54234.58567077943, -41304.83911095132, 0.53, -0.848, 0.14200000000000002, 192.0, 0.0, 0.0, 0.0, 0.0, 0.0, 0.0, 0.0, 0.0, 0.0, 1.6635921942903817E9, 0.0, 2022-09-19 17:56:34.290
113.0, 412.3449817115047, 11181.750736445278, -76814.16145731944, -53283.89892386185, -52382.520125212686, -187500.02235174447, -54354.6815937378, -41457.657987792256, 0.53, -0.848, 0.14200000000000002, 192.0, 0.0, 0.0, 0.0, 0.0, 0.0, 0.0, 0.0, 0.0, 0.0, 1.6635921942953362E9, 0.0, 2022-09-19 17:56:34.295
114.0, 568.87424813202, 11310.943819396953, -76942.48282223736, -53420.62454469497, -52480.39841418248, -187500.02235174447, -54532.847348791045, -41563.15822162131, 0.53, -0.848, 0.14200000000000002, 192.0, 0.0, 0.0, 0.0, 0.0, 0.0, 0.0, 0.0, 0.0, 0.0, 1.6635921942993758E9, 0.0, 2022-09-19 17:56:34.299
115.0, 462.59170324703496, 11268.6096153986, -76798.89521585646, -53332.111636651956, -52326.97604024125, -187500.02235174447, -54447.88836811643, -41418.58713848438, 0.532, -0.852, 0.14200000000000002, 192.0, 16.0, 160.0, 229.0, 96.0, 4.0, 112.0, 0.0, 0.0, 0.0, 1.663592194303347E9, 0.0, 2022-09-19 17:56:34.303
116.0, 348.1731233803181, 11209.489251314313, -76703.87795017696, -53238.30136517303, -52254.48933297269, -187500.02235174447, -54274.30472067651, -41320.12770415875, 0.532, -0.852, 0.14200000000000002, 192.0, 0.0, 0.0, 0.0, 0.0, 0.0, 0.0, 0.0, 0.0, 0.0, 1.663592194307338E9, 0.0, 2022-09-19 17:56:34.307
117.0, 376.8280597720218, 11240.781693551742, -76762.86420379451, -53289.35274950895, -52313.25206914569, -187500.02235174447, -54275.802287555016, -41383.29373398945, 0.532, -0.852, 0.14200000000000002, 192.0, 0.0, 0.0, 0.0, 0.0, 0.0, 0.0, 0.0, 0.0, 0.0, 1.6635921943103528E9, 0.0, 2022-09-19 17:56:34.310
118.0, 519.7227620747998, 11340.805749989242, -76917.4488684474, -53420.62454469497, -52458.69487031637, -187500.02235174447, -54390.95847498876, -41548.33901504744, 0.532, -0.852, 0.14200000000000002, 192.0, 0.0, 0.0, 0.0, 0.0, 0.0, 0.0, 0.0, 0.0, 0.0, 1.6635921943143594E9, 0.0, 2022-09-19 17:56:34.314
119.0, 636.6670890649664, 11433.677248201044, -77017.8305527962, -53536.518339695736, -52545.06201089168, -187500.02235174447, -54536.73655232627, -41655.91796111083, 0.532, -0.852, 0.14200000000000002, 192.0, 0.0, 0.0, 0.0, 0.0, 0.0, 0.0, 0.0, 0.0, 0.0, 1.6635921943184185E9, 0.0, 2022-09-19 17:56:34.318
120.0, 481.6353895229566, 11354.730886784899, -76843.82222221163, -53395.501183927205, -52372.50654369671, -187500.02235174447, -54448.04483032761, -41488.63750560731, 0.532, -0.852, 0.14200000000000002, 192.0, 0.0, 0.0, 0.0, 0.0, 0.0, 0.0, 0.0, 0.0, 0.0, 1.6635921943233871E9, 0.0, 2022-09-19 17:56:34.323
121.0, 350.14007689238514, 11261.41235368399, -76742.2111919178, -53204.237306623145, -52267.67686220132, -187500.02235174447, -54315.81191013002, -41358.95268427762, 0.532, -0.852, 0.14200000000000002, 192.0, 0.0, 0.0, 0.0, 0.0, 0.0, 0.0, 0.0, 0.0, 0.0, 1.663592194327408E9, 0.0, 2022-09-19 17:56:34.327
122.0, 361.85239098696604, 11256.249100714815, -76779.49390166925, -53180.36564354487, -52305.45131033079, -187500.02235174447, -54309.4193112158, -41383.964286323106, 0.532, -0.852, 0.14200000000000002, 192.0, 0.0, 0.0, 0.0, 0.0, 0.0, 0.0, 0.0, 0.0, 0.0, 1.6635921943313644E9, 0.0, 2022-09-19 17:56:34.331
123.0, 500.5449653321464, 11340.515177311323, -76916.04070854673, -53289.35274950895, -52453.46456211383, -187500.02235174447, -54393.4395186233, -41519.16998853326, 0.532, -0.852, 0.14200000000000002, 192.0, 0.0, 0.0, 0.0, 0.0, 0.0, 0.0, 0.0, 0.0, 0.0, 1.6635921943353667E9, 0.0, 2022-09-19 17:56:34.335
124.0, 598.937344424408, 11423.909535874074, -76987.85686348163, -53364.34285215651, -52517.59171695611, -187500.02235174447, -54492.07776690457, -41601.69262906225, 0.532, -0.852, 0.14200000000000002, 192.0, 0.0, 0.0, 0.0, 0.0, 0.0, 0.0, 0.0, 0.0, 0.0, 1.663592194338442E9, 0.0, 2022-09-19 17:56:34.338
125.0, 433.75795289968886, 11326.56768877121, -76830.45587902736, -53212.70861777171, -52322.528043094644, -187500.02235174447, -54419.121673002446, -41430.590025256875, 0.53, -0.854, 0.136, 192.0, 16.0, 144.0, 229.0, 80.0, 4.0, 64.0, 0.0, 0.0, 0.0, 1.663592194342424E9, 0.0, 2022-09-19 17:56:34.342
126.0, 319.58524222198037, 11229.002324223797, -76752.33653215606, -53103.900325763265, -52228.87423382691, -187500.02235174447, -54325.69138117926, -41331.41533510868, 0.53, -0.854, 0.136, 192.0, 0.0, 0.0, 0.0, 0.0, 0.0, 0.0, 0.0, 0.0, 0.0, 1.663592194346415E9, 0.0, 2022-09-19 17:56:34.346
127.0, 346.38498382389355, 11225.761321277776, -76787.33936397306, -53129.40366618677, -52271.700176203274, -187500.02235174447, -54320.41636948781, -41354.34822491983, 0.53, -0.854, 0.136, 192.0, 0.0, 0.0, 0.0, 0.0, 0.0, 0.0, 0.0, 0.0, 0.0, 1.6635921943514037E9, 0.0, 2022-09-19 17:56:34.351
128.0, 477.3215028430823, 11304.126537338083, -76919.1028975371, -53235.30623141602, -52405.5200702572, -187500.02235174447, -54390.26557091065, -41500.796854591, 0.53, -0.854, 0.136, 192.0, 0.0, 0.0, 0.0, 0.0, 0.0, 0.0, 0.0, 0.0, 0.0, 1.6635921943554175E9, 0.0, 2022-09-19 17:56:34.355
129.0, 561.5428759506793, 11368.34309915818, -76976.74804648734, -53299.63455195839, -52444.54621607617, -187500.02235174447, -54495.02819717267, -41561.884172187354, 0.53, -0.854, 0.136, 192.0, 0.0, 0.0, 0.0, 0.0, 0.0, 0.0, 0.0, 0.0, 0.0, 1.6635921943594408E9, 0.0, 2022-09-19 17:56:34.359
130.0, 395.2682489476501, 11260.98767053934, -76793.10611404254, -53139.059619791464, -52248.90139685886, -187500.02235174447, -54395.339416902, -41381.52794617748, 0.53, -0.854, 0.136, 192.0, 0.0, 0.0, 0.0, 0.0, 0.0, 0.0, 0.0, 0.0, 0.0, 1.6635921943637233E9, 0.0, 2022-09-19 17:56:34.363
131.0, 273.60770387741377, 11162.908215869453, -76700.45813327529, -53018.24844101053, -52163.54008478404, -187500.02235174447, -54255.90923498979, -41295.00434339099, 0.53, -0.854, 0.136, 192.0, 0.0, 0.0, 0.0, 0.0, 0.0, 0.0, 0.0, 0.0, 0.0, 1.663592194366443E9, 0.0, 2022-09-19 17:56:34.366
132.0, 296.2947244995504, 11159.019012334229, -76748.17910768738, -53064.36008982183, -52202.923858514296, -187500.02235174447, -54265.16285719429, -41336.73505028904, 0.53, -0.854, 0.136, 192.0, 0.0, 0.0, 0.0, 0.0, 0.0, 0.0, 0.0, 0.0, 0.0, 1.6635921943704295E9, 0.0, 2022-09-19 17:56:34.370
133.0, 428.54999644160233, 11246.079056987652, -76878.62388832854, -53187.585257003935, -52332.385162399434, -187500.02235174447, -54331.70400043774, -41481.79787180399, 0.53, -0.854, 0.136, 192.0, 0.0, 0.0, 0.0, 0.0, 0.0, 0.0, 0.0, 0.0, 0.0, 1.6635921943744605E9, 0.0, 2022-09-19 17:56:34.374
134.0, 503.45069211133625, 11310.273267063292, -76924.7578888843, -53240.87181578539, -52369.377299472966, -187500.02235174447, -54416.327704945536, -41533.2515875401, 0.53, -0.854, 0.136, 192.0, 0.0, 0.0, 0.0, 0.0, 0.0, 0.0, 0.0, 0.0, 0.0, 1.6635921943784328E9, 0.0, 2022-09-19 17:56:34.378
135.0, 331.54342550556964, 11198.805117464677, -76729.89538072293, -53087.11416567733, -52169.016262175595, -187500.02235174447, -54310.29102924956, -41333.82932350985, 0.532, -0.856, 0.13, 192.0, 16.0, 160.0, 229.0, 64.0, 4.0, 16.0, 0.0, 0.0, 0.0, 1.6635921943835251E9, 0.0, 2022-09-19 17:56:34.383
136.0, 219.40472357329412, 11105.53128785268, -76646.29985646009, -53000.43410067965, -52085.51014489057, -187500.02235174447, -54203.15911807527, -41238.38737468569, 0.532, -0.856, 0.13, 192.0, 0.0, 0.0, 0.0, 0.0, 0.0, 0.0, 0.0, 0.0, 0.0, 1.663592194387528E9, 0.0, 2022-09-19 17:56:34.387
137.0, 251.18890418874076, 11105.307770408126, -76690.71277269277, -53017.77905437697, -52123.39635174231, -187500.02235174447, -54229.48947304362, -41272.36202625776, 0.532, -0.856, 0.13, 192.0, 0.0, 0.0, 0.0, 0.0, 0.0, 0.0, 0.0, 0.0, 0.0, 1.663592194391514E9, 0.0, 2022-09-19 17:56:34.391
138.0, 389.8367750450105, 11186.466954525347, -76828.77949819321, -53138.3443639689, -52256.2327690402, -187500.02235174447, -54333.335677782976, -41401.95744060963, 0.532, -0.856, 0.13, 192.0, 0.0, 0.0, 0.0, 0.0, 0.0, 0.0, 0.0, 0.0, 0.0, 1.6635921943945527E9, 0.0, 2022-09-19 17:56:34.394
139.0, 457.09317411102944, 11234.657315570988, -76867.2468504008, -53240.49183612965, -52280.88674317441, -187500.02235174447, -54438.21006276728, -41450.8854092223, 0.532, -0.856, 0.13, 192.0, 0.0, 0.0, 0.0, 0.0, 0.0, 0.0, 0.0, 0.0, 0.0, 1.663592194398502E9, 0.0, 2022-09-19 17:56:34.398
140.0, 294.7077506432236, 11120.350494426548, -76666.88581310342, -53138.38906745781, -52089.4440519147, -187500.02235174447, -54317.84591887545, -41266.103537810275, 0.532, -0.856, 0.13, 192.0, 0.0, 0.0, 0.0, 0.0, 0.0, 0.0, 0.0, 0.0, 0.0, 1.6635921944025936E9, 0.0, 2022-09-19 17:56:34.402
141.0, 186.61471445735867, 11033.581022451046, -76571.24269857917, -53043.84118841186, -52016.15268184575, -187500.02235174447, -54155.684012852194, -41177.21065011152, 0.532, -0.856, 0.13, 192.0, 0.0, 0.0, 0.0, 0.0, 0.0, 0.0, 0.0, 0.0, 0.0, 1.6635921944065764E9, 0.0, 2022-09-19 17:56:34.406
142.0, 199.3552087968837, 11023.433330468337, -76615.11917294493, -53058.10160137434, -52070.33331040541, -187500.02235174447, -54142.38472490129, -41210.00065922745, 0.532, -0.856, 0.13, 192.0, 0.0, 0.0, 0.0, 0.0, 0.0, 0.0, 0.0, 0.0, 0.0, 1.6635921944116063E9, 0.0, 2022-09-19 17:56:34.411
143.0, 328.2353673261842, 11099.518668594203, -76748.40262513193, -53176.543495243015, -52220.6264401229, -187500.02235174447, -54212.47979551313, -41345.07225097087, 0.532, -0.856, 0.13, 192.0, 0.0, 0.0, 0.0, 0.0, 0.0, 0.0, 0.0, 0.0, 0.0, 1.6635921944155786E9, 0.0, 2022-09-19 17:56:34.415
144.0, 387.109862221463, 11144.758599371744, -76778.06339002412, -53210.316981114986, -52249.750763148164, -187500.02235174447, -54307.832337359476, -41392.23443177157, 0.532, -0.856, 0.13, 192.0, 0.0, 0.0, 0.0, 0.0, 0.0, 0.0, 0.0, 0.0, 0.0, 1.663592194419596E9, 0.0, 2022-09-19 17:56:34.419
145.0, 204.83138618843392, 11017.42071120986, -76585.81603596402, -53004.45741468161, -52062.30903414596, -187500.02235174447, -54200.45455699618, -41203.13867367967, 0.532, -0.85, 0.136, 192.0, 16.0, 160.0, 229.0, 112.0, 4.0, 64.0, 0.0, 0.0, 0.0, 1.6635921944225664E9, 0.0, 2022-09-19 17:56:34.422
