%OpenBCI Raw EEG Data
%Number of channels = 8
%Sample Rate = 250 Hz
%Board = OpenBCI_GUI$BoardCytonSerial
Sample Index, EXG Channel 0, EXG Channel 1, EXG Channel 2, EXG Channel 3, EXG Channel 4, EXG Channel 5, EXG Channel 6, EXG Channel 7, Accel Channel 0, Accel Channel 1, Accel Channel 2, Other, Other, Other, Other, Other, Other, Other, Analog Channel 0, Analog Channel 1, Analog Channel 2, Timestamp, Other, Timestamp (Formatted)
158.0, 5889.97523665133, -38639.55004686714, 24156.06667471727, 6554.738468496617, -183311.6630687312, 187500.0, 28429.474345382972, 17268.354269069943, 0.0, 0.0, 0.0, 192.0, 0.0, 0.0, 0.0, 0.0, 0.0, 0.0, 0.0, 0.0, 0.0, 1.6635870509125512E9, 0.0, 2022-09-19 16:30:50.912
159.0, 5892.791556452698, -38678.46443396383, 24157.273668917856, 6547.854131204383, -183371.07400549343, 187500.0, 28434.39172916314, 17257.111341608925, 0.0, 0.0, 0.0, 192.0, 0.0, 0.0, 0.0, 0.0, 0.0, 0.0, 0.0, 0.0, 0.0, 1.6635870509125843E9, 0.0, 2022-09-19 16:30:50.912
160.0, 5907.588411282112, -38697.59752721757, 24175.3562301822, 6547.183578870724, -183440.47617202715, 187500.0, 28456.609363151714, 17258.631260231883, 0.0, 0.0, 0.0, 192.0, 0.0, 0.0, 0.0, 0.0, 0.0, 0.0, 0.0, 0.0, 0.0, 1.663587050912598E9, 0.0, 2022-09-19 16:30:50.912
0.0, 0.0, 0.0, 0.0, 0.0, 0.0, 0.0, 0.0, 0.0, 0.0, 0.0, 0.0, 192.0, 0.0, 0.0, 0.0, 0.0, 0.0, 0.0, 0.0, 0.0, 0.0, 1.6635870509791937E9, 0.0, 2022-09-19 16:30:50.979
1.0, 9130.642906504025, -117849.8632132844, 18155.62911696781, 5026.70616229846, -183522.84235034496, 187500.0, 27247.402339864057, 14483.371613427595, 0.608, -0.6960000000000001, 0.434, 192.0, 19.0, 0.0, 234.0, 64.0, 13.0, 144.0, 0.0, 0.0, 0.0, 1.6635870509972515E9, 0.0, 2022-09-19 16:30:50.997
2.0, 9125.61376400158, -117869.39863793834, 18138.753549904057, 5027.846101265682, -183565.42242353232, 187500.0, 27241.054444438752, 14475.86142729061, 0.608, -0.6960000000000001, 0.434, 192.0, 0.0, 0.0, 0.0, 0.0, 0.0, 0.0, 0.0, 0.0, 0.0, 1.6635870510002265E9, 0.0, 2022-09-19 16:30:51.000
3.0, 9135.47088330637, -117874.15955950733, 18141.145186560774, 5025.655630309061, -183616.0491247236, 187500.0, 27248.430520109003, 14477.738973824857, 0.608, -0.6960000000000001, 0.434, 192.0, 0.0, 0.0, 0.0, 0.0, 0.0, 0.0, 0.0, 0.0, 0.0, 1.66358705100322E9, 0.0, 2022-09-19 16:30:51.003
4.0, 9144.52333981077, -117866.09057975897, 18151.471692499126, 5007.03662717779, -183658.15981127738, 187500.0, 27257.05829346875, 14478.476581391882, 0.608, -0.6960000000000001, 0.434, 192.0, 0.0, 0.0, 0.0, 0.0, 0.0, 0.0, 0.0, 0.0, 0.0, 1.6635870510072277E9, 0.0, 2022-09-19 16:30:51.007
5.0, 9135.582642028647, -117877.55702466454, 18143.134491817294, 5009.338856856687, -183546.04346108955, 187500.0, 27256.410092879545, 14473.939177267453, 0.608, -0.6960000000000001, 0.434, 192.0, 0.0, 0.0, 0.0, 0.0, 0.0, 0.0, 0.0, 0.0, 0.0, 1.6635870510112271E9, 0.0, 2022-09-19 16:30:51.011
6.0, 9119.087054620632, -117904.26735928863, 18119.82162235041, 5011.998714446869, -183529.14554228136, 187500.0, 27236.67350252551, 14459.72346779388, 0.608, -0.6960000000000001, 0.434, 192.0, 0.0, 0.0, 0.0, 0.0, 0.0, 0.0, 0.0, 0.0, 0.0, 1.6635870510152256E9, 0.0, 2022-09-19 16:30:51.015
7.0, 9115.84605167461, -117918.72893795121, 18110.791517590467, 5007.70717951145, -183583.0355981631, 187500.0, 27230.079737911194, 14454.470807846881, 0.608, -0.6960000000000001, 0.434, 192.0, 0.0, 0.0, 0.0, 0.0, 0.0, 0.0, 0.0, 0.0, 0.0, 1.6635870510202596E9, 0.0, 2022-09-19 16:30:51.020
8.0, 9127.983048913842, -117919.86887691842, 18116.714729871124, 5002.946257942469, -183632.58941562052, 187500.0, 27244.67542704051, 14454.71667703589, 0.61, -0.7020000000000001, 0.43, 192.0, 19.0, 16.0, 234.0, 16.0, 13.0, 112.0, 0.0, 0.0, 0.0, 1.6635870510252502E9, 0.0, 2022-09-19 16:30:51.025
9.0, 9139.963583941888, -117914.66092046034, 18129.142299788273, 4998.431205562497, -183646.58160764954, 187500.0, 27261.90862201555, 14457.86827300409, 0.61, -0.7020000000000001, 0.43, 192.0, 0.0, 0.0, 0.0, 0.0, 0.0, 0.0, 0.0, 0.0, 0.0, 1.663587051028319E9, 0.0, 2022-09-19 16:30:51.028
10.0, 9131.604031515602, -117921.96994089722, 18125.901296842254, 4994.340836327176, -183576.24066784867, 187500.0, 27252.565592833234, 14456.080133447664, 0.61, -0.7020000000000001, 0.43, 192.0, 0.0, 0.0, 0.0, 0.0, 0.0, 0.0, 0.0, 0.0, 0.0, 1.6635870510312245E9, 0.0, 2022-09-19 16:30:51.031
11.0, 9119.489386020827, -117940.52188879513, 18108.131660000287, 5001.448691063963, -183560.4826880077, 187500.0, 27233.09722341266, 14449.508720577804, 0.61, -0.7020000000000001, 0.43, 192.0, 0.0, 0.0, 0.0, 0.0, 0.0, 0.0, 0.0, 0.0, 0.0, 1.6635870510342572E9, 0.0, 2022-09-19 16:30:51.034
12.0, 9122.506871522293, -117954.8940604799, 18101.694357597156, 5010.8364237351925, -183577.827641705, 187500.0, 27236.472336825413, 14452.034467701253, 0.61, -0.7020000000000001, 0.43, 192.0, 0.0, 0.0, 0.0, 0.0, 0.0, 0.0, 0.0, 0.0, 0.0, 1.6635870510392635E9, 0.0, 2022-09-19 16:30:51.039
13.0, 9128.09480763612, -117957.79978725908, 18107.461107666626, 5005.203784132455, -183640.83720932453, 187500.0, 27246.82119450822, 14458.248252659829, 0.61, -0.7020000000000001, 0.43, 192.0, 0.0, 0.0, 0.0, 0.0, 0.0, 0.0, 0.0, 0.0, 0.0, 1.6635870510432408E9, 0.0, 2022-09-19 16:30:51.043
14.0, 9135.604993773102, -117948.45675807676, 18128.31528524343, 5002.834499220193, -183686.79239592463, 187500.0, 27263.272078427326, 14471.391078399549, 0.61, -0.7020000000000001, 0.43, 192.0, 0.0, 0.0, 0.0, 0.0, 0.0, 0.0, 0.0, 0.0, 0.0, 1.6635870510473027E9, 0.0, 2022-09-19 16:30:51.047
15.0, 9130.821720459668, -117949.06025517706, 18133.523241701514, 5004.108548654145, -183603.9791827177, 187500.0, 27258.86878476963, 14471.748706310835, 0.61, -0.7020000000000001, 0.43, 192.0, 0.0, 0.0, 0.0, 0.0, 0.0, 0.0, 0.0, 0.0, 0.0, 1.6635870510502927E9, 0.0, 2022-09-19 16:30:51.050
16.0, 9121.52339476626, -117967.52279609714, 18121.185078762184, 5015.195013903977, -183550.6702721918, 187500.0, 27244.49661308487, 14469.446476631938, 0.61, -0.7020000000000001, 0.43, 192.0, 0.0, 0.0, 0.0, 0.0, 0.0, 0.0, 0.0, 0.0, 0.0, 1.6635870510542817E9, 0.0, 2022-09-19 16:30:51.054
17.0, 9132.051066404709, -117977.40226714639, 18120.469822939616, 5025.7450372868825, -183597.6312872924, 187500.0, 27251.135081188095, 14473.62625284508, 0.61, -0.7020000000000001, 0.43, 192.0, 0.0, 0.0, 0.0, 0.0, 0.0, 0.0, 0.0, 0.0, 0.0, 1.6635870510583365E9, 0.0, 2022-09-19 16:30:51.058
18.0, 9156.101543438619, -117978.8998340249, 18131.95861958964, 5032.763485045849, -183645.6428343824, 187500.0, 27268.48003488541, 14479.393002914549, 0.606, -0.704, 0.428, 192.0, 18.0, 240.0, 234.0, 0.0, 13.0, 96.0, 0.0, 0.0, 0.0, 1.663587051062352E9, 0.0, 2022-09-19 16:30:51.062
19.0, 9177.827439049177, -117969.86972926494, 18154.22095706713, 5034.104589713167, -183667.81576488208, 187500.0, 27289.714192117954, 14491.48529666487, 0.606, -0.704, 0.428, 192.0, 0.0, 0.0, 0.0, 0.0, 0.0, 0.0, 0.0, 0.0, 0.0, 1.6635870510663254E9, 0.0, 2022-09-19 16:30:51.066
20.0, 9164.662261565001, -117980.93384277033, 18147.22486105262, 5035.0880664692, -183572.79849920256, 187500.0, 27282.62868912562, 14488.57956988568, 0.606, -0.704, 0.428, 192.0, 0.0, 0.0, 0.0, 0.0, 0.0, 0.0, 0.0, 0.0, 0.0, 1.6635870510712938E9, 0.0, 2022-09-19 16:30:51.071
21.0, 9146.959679956399, -118009.9017035844, 18120.69334038417, 5042.844121795192, -183537.48274296318, 187500.0, 27264.38966565009, 14481.114087237607, 0.606, -0.704, 0.428, 192.0, 0.0, 0.0, 0.0, 0.0, 0.0, 0.0, 0.0, 0.0, 0.0, 1.6635870510754004E9, 0.0, 2022-09-19 16:30:51.075
22.0, 9146.982031700854, -118023.98330259125, 18114.568962403413, 5038.552586859773, -183601.6322495499, 187500.0, 27262.95915400495, 14482.030508760276, 0.606, -0.704, 0.428, 192.0, 0.0, 0.0, 0.0, 0.0, 0.0, 0.0, 0.0, 0.0, 0.0, 1.6635870510793445E9, 0.0, 2022-09-19 16:30:51.079
23.0, 9161.108334196608, -118021.70342465681, 18128.985837577085, 5039.111380471156, -183647.87800882795, 187500.0, 27280.30410770227, 14489.831267575179, 0.606, -0.704, 0.428, 192.0, 0.0, 0.0, 0.0, 0.0, 0.0, 0.0, 0.0, 0.0, 0.0, 1.6635870510833273E9, 0.0, 2022-09-19 16:30:51.083
24.0, 9182.744822829345, -118003.12912501444, 18159.428913525215, 5050.354307932175, -183709.50176829123, 187500.0, 27304.980433580928, 14505.96922707191, 0.606, -0.704, 0.428, 192.0, 0.0, 0.0, 0.0, 0.0, 0.0, 0.0, 0.0, 0.0, 0.0, 1.663587051088451E9, 0.0, 2022-09-19 16:30:51.088
25.0, 9178.609750105114, -118004.13495351493, 18163.27341357153, 5060.971386548446, -183595.9772582027, 187500.0, 27302.45468645748, 14511.73597714138, 0.606, -0.704, 0.428, 192.0, 0.0, 0.0, 0.0, 0.0, 0.0, 0.0, 0.0, 0.0, 0.0, 1.663587051092327E9, 0.0, 2022-09-19 16:30:51.092
26.0, 9160.616595818592, -118022.93277060185, 18147.493081986082, 5061.7313458599265, -183563.83544967597, 187500.0, 27283.72392460393, 14506.371558472105, 0.606, -0.704, 0.428, 192.0, 0.0, 0.0, 0.0, 0.0, 0.0, 0.0, 0.0, 0.0, 0.0, 1.6635870510953865E9, 0.0, 2022-09-19 16:30:51.095
27.0, 9159.946043484932, -118035.69561668583, 18143.581526706403, 5058.646805125094, -183593.31740061255, 187500.0, 27282.44987516998, 14503.8234596042, 0.606, -0.704, 0.428, 192.0, 0.0, 0.0, 0.0, 0.0, 0.0, 0.0, 0.0, 0.0, 0.0, 1.6635870511004453E9, 0.0, 2022-09-19 16:30:51.100
28.0, 9166.964491243898, -118043.25050631173, 18150.68938144319, 5063.474781927441, -183629.16959871884, 187500.0, 27295.480942187423, 14509.34434048466, 0.606, -0.706, 0.424, 192.0, 18.0, 240.0, 233.0, 240.0, 13.0, 64.0, 0.0, 0.0, 0.0, 1.6635870511034148E9, 0.0, 2022-09-19 16:30:51.103
29.0, 9187.997482776342, -118036.83555565304, 18171.521207275535, 5067.878075585137, -183676.82351789757, 187500.0, 27320.11256457717, 14523.627105191603, 0.606, -0.706, 0.424, 192.0, 0.0, 0.0, 0.0, 0.0, 0.0, 0.0, 0.0, 0.0, 0.0, 1.6635870511075184E9, 0.0, 2022-09-19 16:30:51.107
30.0, 9185.650549608536, -118040.50124174372, 18172.54938752048, 5070.672043642049, -183579.54872602806, 187500.0, 27315.37399475265, 14526.063445337231, 0.606, -0.706, 0.424, 192.0, 0.0, 0.0, 0.0, 0.0, 0.0, 0.0, 0.0, 0.0, 0.0, 1.663587051110404E9, 0.0, 2022-09-19 16:30:51.110
31.0, 9171.501895368327, -118061.73539897626, 18156.6349454683, 5082.205543780988, -183556.86170540593, 187500.0, 27300.152456778582, 14524.007084847342, 0.606, -0.706, 0.424, 192.0, 0.0, 0.0, 0.0, 0.0, 0.0, 0.0, 0.0, 0.0, 0.0, 1.6635870511144235E9, 0.0, 2022-09-19 16:30:51.114
32.0, 9179.839096050155, -118073.0677334151, 18158.423085024726, 5087.1452793056105, -183617.1890636908, 187500.0, 27304.86867485865, 14529.21504130543, 0.606, -0.706, 0.424, 192.0, 0.0, 0.0, 0.0, 0.0, 0.0, 0.0, 0.0, 0.0, 0.0, 1.663587051118361E9, 0.0, 2022-09-19 16:30:51.118
33.0, 9191.327892700183, -118073.96180319332, 18169.487198530103, 5088.307570017287, -183635.83041856653, 187500.0, 27319.620826199156, 14538.11103559864, 0.606, -0.706, 0.424, 192.0, 0.0, 0.0, 0.0, 0.0, 0.0, 0.0, 0.0, 0.0, 0.0, 1.66358705112245E9, 0.0, 2022-09-19 16:30:51.122
34.0, 9201.162660260517, -118065.89282344496, 18189.648472028788, 5091.883849130136, -183661.4008142234, 187500.0, 27338.485698519435, 14552.170282861029, 0.606, -0.706, 0.424, 192.0, 0.0, 0.0, 0.0, 0.0, 0.0, 0.0, 0.0, 0.0, 0.0, 1.6635870511274428E9, 0.0, 2022-09-19 16:30:51.127
35.0, 9188.48922115436, -118078.47685557329, 18184.6416812708, 5098.231744555444, -183551.54199022555, 187500.0, 27331.64606471611, 14549.845701437676, 0.606, -0.706, 0.424, 192.0, 0.0, 0.0, 0.0, 0.0, 0.0, 0.0, 0.0, 0.0, 0.0, 1.6635870511314266E9, 0.0, 2022-09-19 16:30:51.131
36.0, 9167.8138575332, -118106.30477742014, 18163.184006593707, 5103.842032413725, -183515.64508863035, 187500.0, 27311.484791217423, 14541.68731471149, 0.606, -0.706, 0.424, 192.0, 0.0, 0.0, 0.0, 0.0, 0.0, 0.0, 0.0, 0.0, 0.0, 1.6635870511344643E9, 0.0, 2022-09-19 16:30:51.134
37.0, 9176.48633438186, -118122.17451598341, 18161.39586703728, 5106.278372559354, -183607.4437031083, 187500.0, 27312.132991806626, 14542.961364145443, 0.606, -0.706, 0.424, 192.0, 0.0, 0.0, 0.0, 0.0, 0.0, 0.0, 0.0, 0.0, 0.0, 1.66358705113843E9, 0.0, 2022-09-19 16:30:51.138
38.0, 9205.767119618311, -118117.14537348096, 18185.625158026836, 5116.6719337310715, -183680.73507317723, 187500.0, 27334.238867072927, 14559.16637887554, 0.608, -0.704, 0.428, 192.0, 19.0, 0.0, 234.0, 0.0, 13.0, 96.0, 0.0, 0.0, 0.0, 1.6635870511425545E9, 0.0, 2022-09-19 16:30:51.142
39.0, 9225.079026827696, -118106.68475707588, 18211.843754272908, 5117.007209897901, -183650.2472937402, 187500.0, 27352.679056248555, 14567.391820835093, 0.608, -0.704, 0.428, 192.0, 0.0, 0.0, 0.0, 0.0, 0.0, 0.0, 0.0, 0.0, 0.0, 1.6635870511464908E9, 0.0, 2022-09-19 16:30:51.146
40.0, 9212.8749743551, -118119.55936188214, 18208.535696093524, 5119.734122721448, -183563.81309793153, 187500.0, 27344.92300092256, 14560.55218703177, 0.608, -0.704, 0.428, 192.0, 0.0, 0.0, 0.0, 0.0, 0.0, 0.0, 0.0, 0.0, 0.0, 1.6635870511504653E9, 0.0, 2022-09-19 16:30:51.150
41.0, 9203.800166106244, -118143.5874871716, 18194.387041853315, 5130.351201337719, -183526.08335329097, 187500.0, 27333.322445550257, 14559.524006786825, 0.608, -0.704, 0.428, 192.0, 0.0, 0.0, 0.0, 0.0, 0.0, 0.0, 0.0, 0.0, 0.0, 1.663587051154499E9, 0.0, 2022-09-19 16:30:51.154
42.0, 9205.208326006928, -118157.95965885636, 18195.594036053903, 5131.401733327119, -183562.98608338667, 187500.0, 27336.339931051723, 14563.659079511057, 0.608, -0.704, 0.428, 192.0, 0.0, 0.0, 0.0, 0.0, 0.0, 0.0, 0.0, 0.0, 0.0, 1.663587051159498E9, 0.0, 2022-09-19 16:30:51.159
43.0, 9213.165547033019, -118160.75362691327, 18211.731995550632, 5133.9274804505685, -183633.23761620972, 187500.0, 27353.282553348847, 14573.516198815847, 0.608, -0.704, 0.428, 192.0, 0.0, 0.0, 0.0, 0.0, 0.0, 0.0, 0.0, 0.0, 0.0, 1.663587051162526E9, 0.0, 2022-09-19 16:30:51.162
44.0, 9229.102340829651, -118151.81292913115, 18235.894231306822, 5129.412428070596, -183654.02473855315, 187500.0, 27371.745094268932, 14580.221722152439, 0.608, -0.704, 0.428, 192.0, 0.0, 0.0, 0.0, 0.0, 0.0, 0.0, 0.0, 0.0, 0.0, 1.6635870511675174E9, 0.0, 2022-09-19 16:30:51.167
45.0, 9230.39874200806, -118155.09863556609, 18237.078873762952, 5134.173349639577, -183584.24259236368, 187500.0, 27367.453559333513, 14581.7416407754, 0.608, -0.704, 0.428, 192.0, 0.0, 0.0, 0.0, 0.0, 0.0, 0.0, 0.0, 0.0, 0.0, 1.663587051170513E9, 0.0, 2022-09-19 16:30:51.170
46.0, 9215.266611011817, -118180.98195564533, 18215.822364785956, 5138.755457252915, -183533.6605946613, 187500.0, 27348.499280035412, 14574.522027316336, 0.608, -0.704, 0.428, 192.0, 0.0, 0.0, 0.0, 0.0, 0.0, 0.0, 0.0, 0.0, 0.0, 1.6635870511755095E9, 0.0, 2022-09-19 16:30:51.175
47.0, 9213.366712733115, -118196.31525234166, 18210.994387983606, 5139.381306097664, -183561.332054297, 187500.0, 27347.314637579282, 14573.158570904563, 0.608, -0.704, 0.428, 192.0, 0.0, 0.0, 0.0, 0.0, 0.0, 0.0, 0.0, 0.0, 0.0, 1.663587051180509E9, 0.0, 2022-09-19 16:30:51.180
48.0, 9220.988657592376, -118200.62913902153, 18224.047806745508, 5143.896358477636, -183624.22986319422, 187500.0, 27361.195070886028, 14580.512294830358, 0.612, -0.704, 0.436, 192.0, 19.0, 32.0, 234.0, 0.0, 13.0, 160.0, 0.0, 0.0, 0.0, 1.663587051184554E9, 0.0, 2022-09-19 16:30:51.184
49.0, 9236.366657777628, -118195.06355465217, 18241.57157439847, 5142.219977643487, -183657.82453511056, 187500.0, 27373.421475103078, 14585.161457677063, 0.612, -0.704, 0.436, 192.0, 0.0, 0.0, 0.0, 0.0, 0.0, 0.0, 0.0, 0.0, 0.0, 1.6635870511874983E9, 0.0, 2022-09-19 16:30:51.187
50.0, 9233.527986231802, -118209.45807808138, 18234.776644084053, 5148.746687024437, -183574.16195561434, 187500.0, 27365.866585477186, 14586.368451877648, 0.612, -0.704, 0.436, 192.0, 0.0, 0.0, 0.0, 0.0, 0.0, 0.0, 0.0, 0.0, 0.0, 1.6635870511905527E9, 0.0, 2022-09-19 16:30:51.190
51.0, 9220.496919214358, -118234.89436327152, 18215.688254319222, 5152.1218004371885, -183528.2067690142, 187500.0, 27348.6557422466, 14585.921416988544, 0.612, -0.704, 0.436, 192.0, 0.0, 0.0, 0.0, 0.0, 0.0, 0.0, 0.0, 0.0, 0.0, 1.6635870511948907E9, 0.0, 2022-09-19 16:30:51.194
52.0, 9219.781663391788, -118250.07119775668, 18213.944818251708, 5152.658242304116, -183571.47974627969, 187500.0, 27352.008503914894, 14594.169210692551, 0.612, -0.704, 0.436, 192.0, 0.0, 0.0, 0.0, 0.0, 0.0, 0.0, 0.0, 0.0, 0.0, 1.6635870511993108E9, 0.0, 2022-09-19 16:30:51.199
53.0, 9229.370561763115, -118252.6640001135, 18222.773757311556, 5148.456114346518, -183630.10837198596, 187500.0, 27365.68777152154, 14601.7464520629, 0.612, -0.704, 0.436, 192.0, 0.0, 0.0, 0.0, 0.0, 0.0, 0.0, 0.0, 0.0, 0.0, 1.6635870512025683E9, 0.0, 2022-09-19 16:30:51.202
54.0, 9236.903099644554, -118248.68538960045, 18236.8553563184, 5138.107256663711, -183642.96062504777, 187500.0, 27377.154216427116, 14606.775594565344, 0.612, -0.704, 0.436, 192.0, 0.0, 0.0, 0.0, 0.0, 0.0, 0.0, 0.0, 0.0, 0.0, 1.663587051206545E9, 0.0, 2022-09-19 16:30:51.206
55.0, 9219.647552925057, -118262.7669886073, 18227.020588758063, 5136.4532275740185, -183554.3806617714, 187500.0, 27361.41858833058, 14603.020501496852, 0.612, -0.704, 0.436, 192.0, 0.0, 0.0, 0.0, 0.0, 0.0, 0.0, 0.0, 0.0, 0.0, 1.6635870512105672E9, 0.0, 2022-09-19 16:30:51.210
56.0, 9206.236506251873, -118287.0186313413, 18205.764079781067, 5138.330774108264, -183556.5264292391, 187500.0, 27347.247582345914, 14599.08659447272, 0.612, -0.704, 0.436, 192.0, 0.0, 0.0, 0.0, 0.0, 0.0, 0.0, 0.0, 0.0, 0.0, 1.6635870512145638E9, 0.0, 2022-09-19 16:30:51.214
57.0, 9214.596058678158, -118299.49090474736, 18203.394794868804, 5137.369649096686, -183602.74983677268, 187500.0, 27352.969628926472, 14601.880562529632, 0.612, -0.704, 0.436, 192.0, 0.0, 0.0, 0.0, 0.0, 0.0, 0.0, 0.0, 0.0, 0.0, 1.663587051217559E9, 0.0, 2022-09-19 16:30:51.217
58.0, 9231.53868097528, -118292.36069826611, 18219.93508576573, 5134.285108361853, -183672.26376202868, 187500.0, 27367.27474537787, 14608.027292254841, 0.606, -0.6960000000000001, 0.428, 192.0, 18.0, 240.0, 234.0, 64.0, 13.0, 96.0, 0.0, 0.0, 0.0, 1.66358705122168E9, 0.0, 2022-09-19 16:30:51.221
59.0, 9246.02261138232, -118275.61924166909, 18246.310144222993, 5137.481407818962, -183685.18307032384, 187500.0, 27385.983155486963, 14621.527745905847, 0.606, -0.6960000000000001, 0.428, 192.0, 0.0, 0.0, 0.0, 0.0, 0.0, 0.0, 0.0, 0.0, 0.0, 1.6635870512266269E9, 0.0, 2022-09-19 16:30:51.226
60.0, 9233.01389610933, -118284.5152359623, 18239.314048208482, 5137.9731461969795, -183545.50701922263, 187500.0, 27372.2591843914, 14618.577315637747, 0.606, -0.6960000000000001, 0.428, 192.0, 0.0, 0.0, 0.0, 0.0, 0.0, 0.0, 0.0, 0.0, 0.0, 1.663587051230616E9, 0.0, 2022-09-19 16:30:51.230
61.0, 9213.478471455392, -118314.91360842153, 18212.961341495677, 5133.279279861365, -183525.88218759088, 187500.0, 27349.08042539125, 14605.32273117575, 0.606, -0.6960000000000001, 0.428, 192.0, 0.0, 0.0, 0.0, 0.0, 0.0, 0.0, 0.0, 0.0, 0.0, 1.6635870512346592E9, 0.0, 2022-09-19 16:30:51.234
62.0, 9219.066407569218, -118330.53747779579, 18207.440460615213, 5131.5805472827615, -183623.31344167155, 187500.0, 27350.622695758666, 14608.22845795494, 0.606, -0.6960000000000001, 0.428, 192.0, 0.0, 0.0, 0.0, 0.0, 0.0, 0.0, 0.0, 0.0, 0.0, 1.6635870512386158E9, 0.0, 2022-09-19 16:30:51.238
63.0, 9234.198538565463, -118327.6317510166, 18217.6999113202, 5131.133512393655, -183650.62727339595, 187500.0, 27364.927812210062, 14618.934943549031, 0.606, -0.6960000000000001, 0.428, 192.0, 0.0, 0.0, 0.0, 0.0, 0.0, 0.0, 0.0, 0.0, 0.0, 1.6635870512426171E9, 0.0, 2022-09-19 16:30:51.242
64.0, 9244.368582292627, -118320.1215648796, 18230.440405659727, 5130.328849593264, -183662.63016016845, 187500.0, 27376.84129200474, 14626.8027575973, 0.606, -0.6960000000000001, 0.428, 192.0, 0.0, 0.0, 0.0, 0.0, 0.0, 0.0, 0.0, 0.0, 0.0, 1.6635870512456243E9, 0.0, 2022-09-19 16:30:51.245
65.0, 9230.599907708158, -118332.66089351905, 18217.431690386737, 5129.345372837231, -183566.36119679944, 187500.0, 27360.79273948583, 14618.689074360023, 0.606, -0.6960000000000001, 0.428, 192.0, 0.0, 0.0, 0.0, 0.0, 0.0, 0.0, 0.0, 0.0, 0.0, 1.6635870512516377E9, 0.0, 2022-09-19 16:30:51.251
66.0, 9221.748616903857, -118352.15161468407, 18199.03620470002, 5129.837111215247, -183596.089016925, 187500.0, 27347.26993409037, 14613.03408301283, 0.606, -0.6960000000000001, 0.428, 192.0, 0.0, 0.0, 0.0, 0.0, 0.0, 0.0, 0.0, 0.0, 0.0, 1.6635870512556732E9, 0.0, 2022-09-19 16:30:51.255
67.0, 9234.10913158764, -118359.17006244304, 18197.516286077058, 5130.038276915345, -183622.46407538225, 187500.0, 27355.584783027745, 14619.046702271307, 0.606, -0.6960000000000001, 0.428, 192.0, 0.0, 0.0, 0.0, 0.0, 0.0, 0.0, 0.0, 0.0, 0.0, 1.6635870512597044E9, 0.0, 2022-09-19 16:30:51.259
68.0, 9246.44729452697, -118352.1292629396, 18210.41324262777, 5130.909994949102, -183683.1490615784, 187500.0, 27368.481739578456, 14629.864946587677, 0.606, -0.6960000000000001, 0.428, 192.0, 0.0, 0.0, 0.0, 0.0, 0.0, 0.0, 0.0, 0.0, 0.0, 1.6635870512636724E9, 0.0, 2022-09-19 16:30:51.263
69.0, 9256.393820809582, -118341.40042560107, 18227.020588758063, 5131.938175194046, -183655.9469885763, 187500.0, 27381.870434507186, 14635.6540484016, 0.608, -0.6980000000000001, 0.43, 192.0, 19.0, 0.0, 234.0, 48.0, 13.0, 112.0, 0.0, 0.0, 0.0, 1.6635870512676246E9, 0.0, 2022-09-19 16:30:51.267
70.0, 9247.654288727557, -118353.24685016238, 18218.5492776095, 5138.889567719647, -183578.52054578313, 187500.0, 27366.26891687738, 14635.207013512494, 0.608, -0.6980000000000001, 0.43, 192.0, 0.0, 0.0, 0.0, 0.0, 0.0, 0.0, 0.0, 0.0, 0.0, 1.663587051270677E9, 0.0, 2022-09-19 16:30:51.270
71.0, 9236.143140333073, -118373.58693761671, 18201.293730890004, 5143.0246404438785, -183576.48653703768, 187500.0, 27347.448748046012, 14630.624905899156, 0.608, -0.6980000000000001, 0.43, 192.0, 0.0, 0.0, 0.0, 0.0, 0.0, 0.0, 0.0, 0.0, 0.0, 1.6635870512737372E9, 0.0, 2022-09-19 16:30:51.273
72.0, 9234.82438741021, -118386.28272846733, 18197.896265732797, 5141.25885263191, -183618.9995549917, 187500.0, 27350.242716102926, 14629.239097742928, 0.608, -0.6980000000000001, 0.43, 192.0, 0.0, 0.0, 0.0, 0.0, 0.0, 0.0, 0.0, 0.0, 0.0, 1.6635870512777288E9, 0.0, 2022-09-19 16:30:51.277
73.0, 9245.128541604106, -118380.02424001983, 18213.073100217953, 5139.15778865311, -183694.48139601725, 187500.0, 27364.41372208759, 14638.000981569408, 0.608, -0.6980000000000001, 0.43, 192.0, 0.0, 0.0, 0.0, 0.0, 0.0, 0.0, 0.0, 0.0, 0.0, 1.6635870512826889E9, 0.0, 2022-09-19 16:30:51.282
74.0, 9248.011916638841, -118370.34593467068, 18230.66392310428, 5138.286070619353, -183661.13259328995, 187500.0, 27374.583765814754, 14645.354705495205, 0.608, -0.6980000000000001, 0.43, 192.0, 0.0, 0.0, 0.0, 0.0, 0.0, 0.0, 0.0, 0.0, 0.0, 1.6635870512867417E9, 0.0, 2022-09-19 16:30:51.286
75.0, 9231.87395714211, -118382.05824876527, 18218.817498542965, 5136.967317696491, -183577.22414460473, 187500.0, 27357.41762607308, 14639.029161814353, 0.608, -0.6980000000000001, 0.43, 192.0, 0.0, 0.0, 0.0, 0.0, 0.0, 0.0, 0.0, 0.0, 0.0, 1.663587051290712E9, 0.0, 2022-09-19 16:30:51.290
76.0, 9223.648515182556, -118398.53148442882, 18201.427841356737, 5132.720486249982, -183577.53706902708, 187500.0, 27339.893858420117, 14630.624905899156, 0.608, -0.6980000000000001, 0.43, 192.0, 0.0, 0.0, 0.0, 0.0, 0.0, 0.0, 0.0, 0.0, 0.0, 1.663587051294687E9, 0.0, 2022-09-19 16:30:51.294
77.0, 9229.01293385183, -118406.6004641772, 18198.32094887745, 5130.6417740156385, -183627.71673532925, 187500.0, 27343.06780613277, 14631.764844866377, 0.608, -0.6980000000000001, 0.43, 192.0, 0.0, 0.0, 0.0, 0.0, 0.0, 0.0, 0.0, 0.0, 0.0, 1.663587051297738E9, 0.0, 2022-09-19 16:30:51.297
78.0, 9243.765085192334, -118401.39250771911, 18209.295655405003, 5131.468788560484, -183681.2491632997, 187500.0, 27360.97155344147, 14641.465501959981, 0.608, -0.6980000000000001, 0.43, 192.0, 0.0, 0.0, 0.0, 0.0, 0.0, 0.0, 0.0, 0.0, 0.0, 1.6635870513017457E9, 0.0, 2022-09-19 16:30:51.301
79.0, 9254.270405086329, -118388.85317907968, 18225.12069047936, 5132.1616926386, -183677.67288418688, 187500.0, 27376.84129200474, 14654.451865488514, 0.606, -0.6960000000000001, 0.424, 192.0, 18.0, 240.0, 234.0, 64.0, 13.0, 64.0, 0.0, 0.0, 0.0, 1.6635870513057392E9, 0.0, 2022-09-19 16:30:51.305
80.0, 9231.918660631021, -118402.24187400841, 18206.300521647994, 5128.741875736938, -183557.35344378394, 187500.0, 27357.819957473275, 14644.572394439268, 0.606, -0.6960000000000001, 0.424, 192.0, 0.0, 0.0, 0.0, 0.0, 0.0, 0.0, 0.0, 0.0, 0.0, 1.6635870513108191E9, 0.0, 2022-09-19 16:30:51.310
81.0, 9219.558145947236, -118421.91140912908, 18183.881721959322, 5130.261794359898, -183579.4816707947, 187500.0, 27340.318541564768, 14632.860080344688, 0.606, -0.6960000000000001, 0.424, 192.0, 0.0, 0.0, 0.0, 0.0, 0.0, 0.0, 0.0, 0.0, 0.0, 1.6635870513148012E9, 0.0, 2022-09-19 16:30:51.314
82.0, 9231.225756552907, -118424.705377186, 18187.994442939096, 5136.6320415296605, -183648.9955960507, 187500.0, 27350.06390214728, 14639.364437981181, 0.606, -0.6960000000000001, 0.424, 192.0, 0.0, 0.0, 0.0, 0.0, 0.0, 0.0, 0.0, 0.0, 0.0, 1.6635870513187976E9, 0.0, 2022-09-19 16:30:51.318
83.0, 9241.842835169176, -118418.31277827178, 18199.773812267045, 5133.547500794828, -183707.40070431243, 187500.0, 27362.84909997572, 14649.33331600825, 0.606, -0.6960000000000001, 0.424, 192.0, 0.0, 0.0, 0.0, 0.0, 0.0, 0.0, 0.0, 0.0, 0.0, 1.6635870513227935E9, 0.0, 2022-09-19 16:30:51.322
84.0, 9251.49878877387, -118406.51105719937, 18213.117803706864, 5133.391038583642, -183672.82255564007, 187500.0, 27375.79076001534, 14657.67051669008, 0.606, -0.6960000000000001, 0.424, 192.0, 0.0, 0.0, 0.0, 0.0, 0.0, 0.0, 0.0, 0.0, 0.0, 1.6635870513258452E9, 0.0, 2022-09-19 16:30:51.325
85.0, 9239.339439790183, -118419.2515515389, 18195.32581512044, 5133.6369077726495, -183565.9812171437, 187500.0, 27356.36709408368, 14652.261394531894, 0.606, -0.6960000000000001, 0.424, 192.0, 0.0, 0.0, 0.0, 0.0, 0.0, 0.0, 0.0, 0.0, 0.0, 1.6635870513298051E9, 0.0, 2022-09-19 16:30:51.329
86.0, 9235.003201365853, -118435.43421452455, 18176.952681178176, 5137.8613874747025, -183590.54578430008, 187500.0, 27343.403082299603, 14649.020391585875, 0.606, -0.6960000000000001, 0.424, 192.0, 0.0, 0.0, 0.0, 0.0, 0.0, 0.0, 0.0, 0.0, 0.0, 1.663587051335794E9, 0.0, 2022-09-19 16:30:51.335
87.0, 9237.171320578018, -118439.47988027096, 18177.310309089462, 5138.77780899737, -183640.97131979125, 187500.0, 27347.78402421284, 14653.669554432578, 0.606, -0.6960000000000001, 0.424, 192.0, 0.0, 0.0, 0.0, 0.0, 0.0, 0.0, 0.0, 0.0, 0.0, 1.6635870513388028E9, 0.0, 2022-09-19 16:30:51.338
88.0, 9251.342326562683, -118427.67815919855, 18195.12464942034, 5142.108218921211, -183699.46583503077, 187500.0, 27366.648896533123, 14667.102952850219, 0.606, -0.6960000000000001, 0.424, 192.0, 0.0, 0.0, 0.0, 0.0, 0.0, 0.0, 0.0, 0.0, 0.0, 1.6635870513438256E9, 0.0, 2022-09-19 16:30:51.343
89.0, 9260.953576678465, -118415.76467940387, 18209.87680076084, 5145.483332333963, -183660.90907584538, 187500.0, 27380.52932983987, 14673.361441297704, 0.612, -0.6920000000000001, 0.428, 192.0, 19.0, 32.0, 234.0, 96.0, 13.0, 96.0, 0.0, 0.0, 0.0, 1.663587051347834E9, 0.0, 2022-09-19 16:30:51.347
90.0, 9241.127579346607, -118431.47795575595, 18190.83311448492, 5147.249120145932, -183563.2766560646, 187500.0, 27360.390408085634, 14662.789066170344, 0.612, -0.6920000000000001, 0.428, 192.0, 0.0, 0.0, 0.0, 0.0, 0.0, 0.0, 0.0, 0.0, 0.0, 1.6635870513508244E9, 0.0, 2022-09-19 16:30:51.350
91.0, 9227.738884417879, -118448.64409549763, 18171.431800297716, 5145.751553267426, -183566.02592063262, 187500.0, 27345.727663722955, 14653.244871287927, 0.612, -0.6920000000000001, 0.428, 192.0, 0.0, 0.0, 0.0, 0.0, 0.0, 0.0, 0.0, 0.0, 0.0, 1.663587051354835E9, 0.0, 2022-09-19 16:30:51.354
92.0, 9234.06442809873, -118453.31561008879, 18170.940061919697, 5141.884701476658, -183640.18900873532, 187500.0, 27351.449710303514, 14652.440208487536, 0.612, -0.6920000000000001, 0.428, 192.0, 0.0, 0.0, 0.0, 0.0, 0.0, 0.0, 0.0, 0.0, 0.0, 1.6635870513577976E9, 0.0, 2022-09-19 16:30:51.357
93.0, 9249.911814917543, -118452.04156065483, 18185.44634407119, 5143.248157888432, -183674.5436399631, 187500.0, 27368.437036089545, 14662.386734770149, 0.612, -0.6920000000000001, 0.428, 192.0, 0.0, 0.0, 0.0, 0.0, 0.0, 0.0, 0.0, 0.0, 0.0, 1.6635870513619113E9, 0.0, 2022-09-19 16:30:51.361
94.0, 9257.712573732446, -118445.38074080716, 18201.22667565664, 5144.678669533571, -183638.19970347878, 187500.0, 27378.27180364988, 14669.09225810674, 0.612, -0.6920000000000001, 0.428, 192.0, 0.0, 0.0, 0.0, 0.0, 0.0, 0.0, 0.0, 0.0, 0.0, 1.6635870513658516E9, 0.0, 2022-09-19 16:30:51.365
95.0, 9237.439541511481, -118460.33405784775, 18185.580454537925, 5144.768076511393, -183554.29125479356, 187500.0, 27356.635315017145, 14659.212787057495, 0.612, -0.6920000000000001, 0.428, 192.0, 0.0, 0.0, 0.0, 0.0, 0.0, 0.0, 0.0, 0.0, 0.0, 1.663587051370819E9, 0.0, 2022-09-19 16:30:51.370
96.0, 9224.117901816118, -118481.36704938019, 18170.7388962196, 5145.68449803406, -183583.90731619686, 187500.0, 27344.185393355536, 14648.752170652411, 0.612, -0.6920000000000001, 0.428, 192.0, 0.0, 0.0, 0.0, 0.0, 0.0, 0.0, 0.0, 0.0, 0.0, 1.663587051374925E9, 0.0, 2022-09-19 16:30:51.374
97.0, 9229.661134441034, -118489.43602912857, 18172.50468403157, 5144.522207322384, -183617.5019881132, 187500.0, 27351.852041703707, 14647.098141562718, 0.612, -0.6920000000000001, 0.428, 192.0, 0.0, 0.0, 0.0, 0.0, 0.0, 0.0, 0.0, 0.0, 0.0, 1.6635870513778825E9, 0.0, 2022-09-19 16:30:51.377
98.0, 9249.330669561705, -118478.30486038982, 18191.83894298541, 5142.957585210513, -183684.4007592679, 187500.0, 27372.08037043576, 14657.46935098998, 0.612, -0.6920000000000001, 0.428, 192.0, 0.0, 0.0, 0.0, 0.0, 0.0, 0.0, 0.0, 0.0, 0.0, 1.66358705138189E9, 0.0, 2022-09-19 16:30:51.381
99.0, 9248.034268383297, -118480.27181390188, 18194.40939359777, 5136.855558974214, -183598.4359500928, 187500.0, 27377.690658294043, 14652.753132909911, 0.614, -0.6920000000000001, 0.426, 192.0, 19.0, 48.0, 234.0, 96.0, 13.0, 80.0, 0.0, 0.0, 0.0, 1.6635870513858657E9, 0.0, 2022-09-19 16:30:51.385
100.0, 9224.631991938591, -118500.88012228969, 18173.331698576414, 5138.509588063906, -183537.23687377418, 187500.0, 27360.055131918805, 14639.766769381378, 0.614, -0.6920000000000001, 0.426, 192.0, 0.0, 0.0, 0.0, 0.0, 0.0, 0.0, 0.0, 0.0, 0.0, 1.6635870513899713E9, 0.0, 2022-09-19 16:30:51.389
101.0, 9210.237468509373, -118525.2211720015, 18154.22095706713, 5136.095599662734, -183557.44285076176, 187500.0, 27347.873431190663, 14628.076807031252, 0.614, -0.6920000000000001, 0.426, 192.0, 0.0, 0.0, 0.0, 0.0, 0.0, 0.0, 0.0, 0.0, 0.0, 1.6635870513939557E9, 0.0, 2022-09-19 16:30:51.393
102.0, 9223.134425060085, -118532.03845406038, 18157.529015246513, 5143.069343932789, -183624.1404562164, 187500.0, 27358.98224818495, 14628.769711109366, 0.614, -0.6920000000000001, 0.426, 192.0, 0.0, 0.0, 0.0, 0.0, 0.0, 0.0, 0.0, 0.0, 0.0, 1.6635870513979332E9, 0.0, 2022-09-19 16:30:51.397
103.0, 9239.227681067907, -118527.85867784724, 18174.49398928809, 5144.723373022482, -183673.18018355133, 187500.0, 27376.99775421593, 14635.095254790218, 0.614, -0.6920000000000001, 0.426, 192.0, 0.0, 0.0, 0.0, 0.0, 0.0, 0.0, 0.0, 0.0, 0.0, 1.6635870514030478E9, 0.0, 2022-09-19 16:30:51.403
104.0, 9239.182977578996, -118526.24935224645, 18187.525056305534, 5142.577605554772, -183616.83143577952, 187500.0, 27383.703277552522, 14636.503414690902, 0.614, -0.6920000000000001, 0.426, 192.0, 0.0, 0.0, 0.0, 0.0, 0.0, 0.0, 0.0, 0.0, 0.0, 1.663587051405962E9, 0.0, 2022-09-19 16:30:51.405
105.0, 9218.909945358033, -118551.50682348094, 18164.100428116373, 5144.052820688823, -183539.0250133306, 187500.0, 27359.13871039614, 14621.348931950204, 0.614, -0.6920000000000001, 0.426, 192.0, 0.0, 0.0, 0.0, 0.0, 0.0, 0.0, 0.0, 0.0, 0.0, 1.6635870514109385E9, 0.0, 2022-09-19 16:30:51.410
106.0, 9217.479433712893, -118575.19967260357, 18145.72729417411, 5152.322966137286, -183545.2835017781, 187500.0, 27349.952143425005, 14613.548173135303, 0.614, -0.6920000000000001, 0.426, 192.0, 0.0, 0.0, 0.0, 0.0, 0.0, 0.0, 0.0, 0.0, 0.0, 1.663587051413988E9, 0.0, 2022-09-19 16:30:51.413
107.0, 9231.561032719736, -118583.06748665184, 18149.46003549815, 5152.837056259758, -183614.842130523, 187500.0, 27359.921021452075, 14617.057397014785, 0.614, -0.6920000000000001, 0.426, 192.0, 0.0, 0.0, 0.0, 0.0, 0.0, 0.0, 0.0, 0.0, 0.0, 1.6635870514199708E9, 0.0, 2022-09-19 16:30:51.419
108.0, 9250.582367251202, -118576.49607378198, 18165.173311850227, 5148.858445746714, -183673.73897716272, 187500.0, 27378.18239667206, 14626.89216457512, 0.614, -0.6920000000000001, 0.426, 192.0, 0.0, 0.0, 0.0, 0.0, 0.0, 0.0, 0.0, 0.0, 0.0, 1.6635870514239798E9, 0.0, 2022-09-19 16:30:51.423
109.0, 9251.476437029414, -118576.36196331526, 18170.64948924178, 5146.846788745736, -183599.6429442934, 187500.0, 27381.80337927382, 14629.484966931936, 0.614, -0.6920000000000001, 0.43, 192.0, 19.0, 48.0, 234.0, 96.0, 13.0, 112.0, 0.0, 0.0, 0.0, 1.6635870514279895E9, 0.0, 2022-09-19 16:30:51.427
110.0, 9235.941974632977, -118599.71953627105, 18149.348276775872, 5148.366707368697, -183536.0745830625, 187500.0, 27359.295172607326, 14616.163327236573, 0.614, -0.6920000000000001, 0.43, 192.0, 0.0, 0.0, 0.0, 0.0, 0.0, 0.0, 0.0, 0.0, 0.0, 1.663587051432155E9, 0.0, 2022-09-19 16:30:51.432
111.0, 9231.24810829736, -118620.95369350359, 18137.747721403568, 5154.424030116085, -183565.53418225457, 187500.0, 27350.823861458764, 14610.061301000274, 0.614, -0.6920000000000001, 0.43, 192.0, 0.0, 0.0, 0.0, 0.0, 0.0, 0.0, 0.0, 0.0, 0.0, 1.6635870514350023E9, 0.0, 2022-09-19 16:30:51.435
112.0, 9236.456064755448, -118631.7495860755, 18142.35218076136, 5159.5202278518955, -183621.16767420384, 187500.0, 27357.84230921773, 14608.474327143947, 0.614, -0.6920000000000001, 0.43, 192.0, 0.0, 0.0, 0.0, 0.0, 0.0, 0.0, 0.0, 0.0, 0.0, 1.6635870514380276E9, 0.0, 2022-09-19 16:30:51.438
113.0, 9254.426867297516, -118626.22870519504, 18163.139303104796, 5164.236445931965, -183669.8497736275, 187500.0, 27378.718838538985, 14620.74543484991, 0.614, -0.6920000000000001, 0.43, 192.0, 0.0, 0.0, 0.0, 0.0, 0.0, 0.0, 0.0, 0.0, 0.0, 1.6635870514419787E9, 0.0, 2022-09-19 16:30:51.441
114.0, 9251.275271329318, -118635.01294076598, 18165.575643250424, 5157.240349917454, -183587.99768543217, 187500.0, 27378.51767283889, 14619.627847627145, 0.614, -0.6920000000000001, 0.43, 192.0, 0.0, 0.0, 0.0, 0.0, 0.0, 0.0, 0.0, 0.0, 0.0, 1.6635870514459984E9, 0.0, 2022-09-19 16:30:51.445
115.0, 9234.913794388032, -118662.97497307957, 18144.185023806695, 5155.809838272315, -183534.44290571727, 187500.0, 27354.98128592745, 14608.094347488208, 0.614, -0.6920000000000001, 0.43, 192.0, 0.0, 0.0, 0.0, 0.0, 0.0, 0.0, 0.0, 0.0, 0.0, 1.6635870514499722E9, 0.0, 2022-09-19 16:30:51.449
116.0, 9228.342381518172, -118687.9642233806, 18126.549497431457, 5152.166503926099, -183558.04634786205, 187500.0, 27343.671303233066, 14601.589989851713, 0.614, -0.6920000000000001, 0.43, 192.0, 0.0, 0.0, 0.0, 0.0, 0.0, 0.0, 0.0, 0.0, 0.0, 1.6635870514540613E9, 0.0, 2022-09-19 16:30:51.454
117.0, 9241.01582062433, -118693.88743566125, 18131.15395678925, 5151.294785892343, -183611.3329066435, 187500.0, 27351.74028298143, 14605.166268964562, 0.614, -0.6920000000000001, 0.43, 192.0, 0.0, 0.0, 0.0, 0.0, 0.0, 0.0, 0.0, 0.0, 0.0, 1.6635870514590285E9, 0.0, 2022-09-19 16:30:51.459
118.0, 9252.392858552083, -118692.74749669404, 18146.666067441234, 5143.762248010904, -183655.36584322047, 187500.0, 27366.045399432827, 14612.072958001252, 0.614, -0.6920000000000001, 0.43, 192.0, 0.0, 0.0, 0.0, 0.0, 0.0, 0.0, 0.0, 0.0, 0.0, 1.6635870514620535E9, 0.0, 2022-09-19 16:30:51.462
119.0, 9249.68829747299, -118693.61921472779, 18156.322021045926, 5136.408524085107, -183606.30376414108, 187500.0, 27369.24169888994, 14614.41989116906, 0.61, -0.6920000000000001, 0.434, 192.0, 19.0, 16.0, 234.0, 96.0, 13.0, 144.0, 0.0, 0.0, 0.0, 1.6635870514660263E9, 0.0, 2022-09-19 16:30:51.466
120.0, 9225.190785549974, -118716.59680802785, 18135.289029513482, 5138.263718874899, -183533.03474581658, 187500.0, 27348.119300379672, 14603.758109063878, 0.61, -0.6920000000000001, 0.434, 192.0, 0.0, 0.0, 0.0, 0.0, 0.0, 0.0, 0.0, 0.0, 0.0, 1.663587051470082E9, 0.0, 2022-09-19 16:30:51.470
121.0, 9217.077102312696, -118733.49472683606, 18122.280314240495, 5132.474617060973, -183570.27275207912, 187500.0, 27337.815146185774, 14596.359681649172, 0.61, -0.6920000000000001, 0.434, 192.0, 0.0, 0.0, 0.0, 0.0, 0.0, 0.0, 0.0, 0.0, 0.0, 1.6635870514740732E9, 0.0, 2022-09-19 16:30:51.474
122.0, 9233.975021120908, -118741.51900309551, 18127.82354686541, 5133.703963006015, -183616.5408631016, 187500.0, 27347.560506768288, 14596.337329904716, 0.61, -0.6920000000000001, 0.434, 192.0, 0.0, 0.0, 0.0, 0.0, 0.0, 0.0, 0.0, 0.0, 0.0, 1.663587051478032E9, 0.0, 2022-09-19 16:30:51.478
123.0, 9253.823370197222, -118736.780433271, 18152.902204144266, 5140.297727620331, -183667.1005090595, 187500.0, 27370.94043146854, 14606.954408520987, 0.61, -0.6920000000000001, 0.434, 192.0, 0.0, 0.0, 0.0, 0.0, 0.0, 0.0, 0.0, 0.0, 0.0, 1.663587051482119E9, 0.0, 2022-09-19 16:30:51.482
124.0, 9255.030364397808, -118738.09918619385, 18164.793332194487, 5139.0907334197445, -183606.66139205234, 187500.0, 27375.65664954861, 14609.278989944338, 0.61, -0.6920000000000001, 0.434, 192.0, 0.0, 0.0, 0.0, 0.0, 0.0, 0.0, 0.0, 0.0, 0.0, 1.663587051487044E9, 0.0, 2022-09-19 16:30:51.487
125.0, 9236.232547310896, -118762.17201497222, 18144.766169162533, 5133.6369077726495, -183540.20965578672, 187500.0, 27348.87925969115, 14599.824202039743, 0.61, -0.6920000000000001, 0.434, 192.0, 0.0, 0.0, 0.0, 0.0, 0.0, 0.0, 0.0, 0.0, 0.0, 1.6635870514900584E9, 0.0, 2022-09-19 16:30:51.490
126.0, 9228.521195473813, -118780.94748031467, 18134.372607990816, 5130.9323466935575, -183597.09484542548, 187500.0, 27338.485698519435, 14594.415079881559, 0.61, -0.6920000000000001, 0.434, 192.0, 0.0, 0.0, 0.0, 0.0, 0.0, 0.0, 0.0, 0.0, 0.0, 1.6635870514950447E9, 0.0, 2022-09-19 16:30:51.495
127.0, 9238.624183967613, -118785.93191932821, 18142.82156739492, 5127.1772536250655, -183624.36397366095, 187500.0, 27345.75001546741, 14597.03023398283, 0.61, -0.6920000000000001, 0.434, 192.0, 0.0, 0.0, 0.0, 0.0, 0.0, 0.0, 0.0, 0.0, 0.0, 1.663587051499116E9, 0.0, 2022-09-19 16:30:51.499
128.0, 9248.54835850577, -118786.20014026167, 18155.852634412364, 5121.254041344409, -183662.16077353488, 187500.0, 27361.195070886028, 14596.516143860359, 0.61, -0.6920000000000001, 0.434, 192.0, 0.0, 0.0, 0.0, 0.0, 0.0, 0.0, 0.0, 0.0, 0.0, 1.6635870515021017E9, 0.0, 2022-09-19 16:30:51.502
129.0, 9254.225701597417, -118782.35564021536, 18164.413352538748, 5115.599049997217, -183628.67786034083, 187500.0, 27363.966687198485, 14593.208085680973, 0.604, -0.6940000000000001, 0.44, 192.0, 18.0, 224.0, 234.0, 80.0, 13.0, 192.0, 0.0, 0.0, 0.0, 1.663587051506029E9, 0.0, 2022-09-19 16:30:51.506
130.0, 9239.987640379386, -118804.77443990404, 18141.547517960968, 5112.603916240206, -183547.76454541262, 187500.0, 27338.59745724171, 14578.880617485122, 0.604, -0.6940000000000001, 0.44, 192.0, 0.0, 0.0, 0.0, 0.0, 0.0, 0.0, 0.0, 0.0, 0.0, 1.6635870515120509E9, 0.0, 2022-09-19 16:30:51.512
131.0, 9234.265593798827, -118823.01346337957, 18126.05775905344, 5106.524241748362, -183566.76352819963, 187500.0, 27326.192239069016, 14568.621166780134, 0.604, -0.6940000000000001, 0.44, 192.0, 0.0, 0.0, 0.0, 0.0, 0.0, 0.0, 0.0, 0.0, 0.0, 1.663587051515118E9, 0.0, 2022-09-19 16:30:51.515
132.0, 9233.662096698536, -118830.546001261, 18123.330846229896, 5096.823584654759, -183628.25317719617, 187500.0, 27324.35939602368, 14566.810675479255, 0.604, -0.6940000000000001, 0.44, 192.0, 0.0, 0.0, 0.0, 0.0, 0.0, 0.0, 0.0, 0.0, 0.0, 1.6635870515181177E9, 0.0, 2022-09-19 16:30:51.518
133.0, 9244.055657870253, -118820.8453441674, 18136.518375458523, 5091.325055518753, -183692.112111105, 187500.0, 27335.602323484698, 14571.16926564804, 0.604, -0.6940000000000001, 0.44, 192.0, 0.0, 0.0, 0.0, 0.0, 0.0, 0.0, 0.0, 0.0, 0.0, 1.6635870515220842E9, 0.0, 2022-09-19 16:30:51.522
134.0, 9234.645573454569, -118821.38178603433, 18137.77007314802, 5083.636055426127, -183602.57102281702, 187500.0, 27330.30496004879, 14563.636727766601, 0.604, -0.6940000000000001, 0.44, 192.0, 0.0, 0.0, 0.0, 0.0, 0.0, 0.0, 0.0, 0.0, 0.0, 1.6635870515262327E9, 0.0, 2022-09-19 16:30:51.526
135.0, 9211.19859352095, -118845.36520783487, 18107.282293710985, 5072.571941920751, -183550.7373274252, 187500.0, 27297.939634077506, 14540.748541444367, 0.604, -0.6940000000000001, 0.44, 192.0, 0.0, 0.0, 0.0, 0.0, 0.0, 0.0, 0.0, 0.0, 0.0, 1.6635870515301075E9, 0.0, 2022-09-19 16:30:51.530
136.0, 9204.62718065109, -118863.98421096614, 18088.931511513176, 5067.6545581405835, -183569.55749625654, 187500.0, 27286.58494789421, 14526.085797081685, 0.604, -0.6940000000000001, 0.44, 192.0, 0.0, 0.0, 0.0, 0.0, 0.0, 0.0, 0.0, 0.0, 0.0, 1.6635870515340753E9, 0.0, 2022-09-19 16:30:51.534
137.0, 9213.746692388857, -118868.0075249681, 18088.797401046446, 5059.630281881128, -183634.93634878832, 187500.0, 27294.072782286737, 14522.7777389023, 0.604, -0.6940000000000001, 0.44, 192.0, 0.0, 0.0, 0.0, 0.0, 0.0, 0.0, 0.0, 0.0, 0.0, 1.663587051538132E9, 0.0, 2022-09-19 16:30:51.538
138.0, 9223.53675646028, -118863.87245224387, 18095.05588949393, 5042.039458994801, -183650.13553501794, 187500.0, 27303.058183557772, 14516.027512076798, 0.604, -0.6940000000000001, 0.44, 192.0, 0.0, 0.0, 0.0, 0.0, 0.0, 0.0, 0.0, 0.0, 0.0, 1.6635870515411522E9, 0.0, 2022-09-19 16:30:51.541
139.0, 9217.881765113088, -118862.82192025447, 18095.614683105312, 5029.94716524448, -183627.33675567352, 187500.0, 27298.476075944436, 14505.34337822716, 0.606, -0.6940000000000001, 0.434, 192.0, 18.0, 240.0, 234.0, 80.0, 13.0, 144.0, 0.0, 0.0, 0.0, 1.6635870515450902E9, 0.0, 2022-09-19 16:30:51.545
140.0, 9196.647607880546, -118882.29028967505, 18074.00054621703, 5027.086141954201, -183558.20281007324, 187500.0, 27274.515005888345, 14490.032433275275, 0.606, -0.6940000000000001, 0.434, 192.0, 0.0, 0.0, 0.0, 0.0, 0.0, 0.0, 0.0, 0.0, 0.0, 1.6635870515492003E9, 0.0, 2022-09-19 16:30:51.549
141.0, 9195.015930535308, -118896.21542647069, 18064.38929610125, 5026.639107065094, -183592.2221651342, 187500.0, 27268.658848841056, 14485.696194850945, 0.606, -0.6940000000000001, 0.434, 192.0, 0.0, 0.0, 0.0, 0.0, 0.0, 0.0, 0.0, 0.0, 0.0, 1.663587051554239E9, 0.0, 2022-09-19 16:30:51.554
142.0, 9203.286075983773, -118897.19890322673, 18070.133694426262, 5023.219290163433, -183638.78084883463, 187500.0, 27277.264270456348, 14487.797258829745, 0.606, -0.6940000000000001, 0.434, 192.0, 0.0, 0.0, 0.0, 0.0, 0.0, 0.0, 0.0, 0.0, 0.0, 1.6635870515581653E9, 0.0, 2022-09-19 16:30:51.558
143.0, 9211.511517943325, -118887.72176357768, 18085.77991554498, 5023.308697141254, -183706.84191070104, 187500.0, 27291.100000274182, 14495.083927522175, 0.606, -0.6940000000000001, 0.434, 192.0, 0.0, 0.0, 0.0, 0.0, 0.0, 0.0, 0.0, 0.0, 0.0, 1.6635870515622504E9, 0.0, 2022-09-19 16:30:51.562
144.0, 9207.10822428563, -118886.80534205501, 18088.64093883526, 5023.554566330263, -183583.50498479666, 187500.0, 27289.468322928948, 14495.732128111378, 0.606, -0.6940000000000001, 0.434, 192.0, 0.0, 0.0, 0.0, 0.0, 0.0, 0.0, 0.0, 0.0, 0.0, 1.6635870515662932E9, 0.0, 2022-09-19 16:30:51.566
145.0, 9189.875029310588, -118909.13473476586, 18066.04332519094, 5020.067694195234, -183569.55749625654, 187500.0, 27263.003857493863, 14482.991633771853, 0.606, -0.6940000000000001, 0.434, 192.0, 0.0, 0.0, 0.0, 0.0, 0.0, 0.0, 0.0, 0.0, 0.0, 1.663587051569186E9, 0.0, 2022-09-19 16:30:51.569
146.0, 9189.7185670994, -118923.73042389518, 18055.917984952688, 5022.682848296506, -183594.85967097996, 187500.0, 27257.751197546866, 14478.253063947328, 0.606, -0.6940000000000001, 0.434, 192.0, 0.0, 0.0, 0.0, 0.0, 0.0, 0.0, 0.0, 0.0, 0.0, 1.6635870515751648E9, 0.0, 2022-09-19 16:30:51.575
147.0, 9196.759366602822, -118928.35723499743, 18058.846063476332, 5019.039513950291, -183655.87993334295, 187500.0, 27269.642325597088, 14481.002328515331, 0.606, -0.6940000000000001, 0.434, 192.0, 0.0, 0.0, 0.0, 0.0, 0.0, 0.0, 0.0, 0.0, 0.0, 1.6635870515781972E9, 0.0, 2022-09-19 16:30:51.578
148.0, 9208.896363842054, -118918.5224674371, 18074.648746806233, 5015.865566237637, -183691.3074483046, 187500.0, 27287.903700817074, 14486.880837307077, 0.606, -0.6940000000000001, 0.434, 192.0, 0.0, 0.0, 0.0, 0.0, 0.0, 0.0, 0.0, 0.0, 0.0, 1.663587051583218E9, 0.0, 2022-09-19 16:30:51.583
149.0, 9205.700064384946, -118918.90244709283, 18074.604043317326, 5019.777121517315, -183595.41846459132, 187500.0, 27285.936747305008, 14484.220979716896, 0.612, -0.7020000000000001, 0.432, 192.0, 19.0, 32.0, 234.0, 16.0, 13.0, 128.0, 0.0, 0.0, 0.0, 1.663587051587181E9, 0.0, 2022-09-19 16:30:51.587
150.0, 9183.86241005211, -118944.2716770496, 18050.419455816682, 5018.972458716924, -183544.6800046778, 187500.0, 27261.238069681895, 14468.261834175806, 0.612, -0.7020000000000001, 0.432, 192.0, 0.0, 0.0, 0.0, 0.0, 0.0, 0.0, 0.0, 0.0, 0.0, 1.6635870515912232E9, 0.0, 2022-09-19 16:30:51.591
151.0, 9182.521305384793, -118957.05687487804, 18041.27759233446, 5018.637182550095, -183594.5914500465, 187500.0, 27255.985409734894, 14466.227825430373, 0.612, -0.7020000000000001, 0.432, 192.0, 0.0, 0.0, 0.0, 0.0, 0.0, 0.0, 0.0, 0.0, 0.0, 1.6635870515963213E9, 0.0, 2022-09-19 16:30:51.596
152.0, 9189.897381055043, -118957.86153767843, 18044.742112725035, 5017.1172639271335, -183670.67678817236, 187500.0, 27264.38966565009, 14473.939177267453, 0.612, -0.7020000000000001, 0.432, 192.0, 0.0, 0.0, 0.0, 0.0, 0.0, 0.0, 0.0, 0.0, 0.0, 1.663587051599236E9, 0.0, 2022-09-19 16:30:51.599
153.0, 9201.229715493884, -118953.39118878737, 18057.974345442577, 5016.334952871198, -183673.0460730846, 187500.0, 27281.30993620276, 14480.823514559688, 0.612, -0.7020000000000001, 0.432, 192.0, 0.0, 0.0, 0.0, 0.0, 0.0, 0.0, 0.0, 0.0, 0.0, 1.663587051602244E9, 0.0, 2022-09-19 16:30:51.602
154.0, 9204.358959717627, -118954.93345915478, 18061.57297629988, 5019.061865694745, -183630.71186908626, 187500.0, 27283.12042750364, 14483.237502960863, 0.612, -0.7020000000000001, 0.432, 192.0, 0.0, 0.0, 0.0, 0.0, 0.0, 0.0, 0.0, 0.0, 0.0, 1.6635870516052449E9, 0.0, 2022-09-19 16:30:51.605
155.0, 9191.618465378102, -118976.90522395435, 18041.81403420139, 5022.392275618587, -183539.58380694198, 187500.0, 27266.960116262453, 14474.877950534577, 0.612, -0.7020000000000001, 0.432, 192.0, 0.0, 0.0, 0.0, 0.0, 0.0, 0.0, 0.0, 0.0, 0.0, 1.6635870516092668E9, 0.0, 2022-09-19 16:30:51.609
156.0, 9196.155869502529, -118993.13259042891, 18031.46517651858, 5023.733380285905, -183591.19398488928, 187500.0, 27262.847395282675, 14470.094677221141, 0.612, -0.7020000000000001, 0.432, 192.0, 0.0, 0.0, 0.0, 0.0, 0.0, 0.0, 0.0, 0.0, 0.0, 1.6635870516142585E9, 0.0, 2022-09-19 16:30:51.614
157.0, 9205.63300915158, -118995.43482010781, 18037.81307194389, 5021.587612818195, -183646.53690416063, 187500.0, 27272.480997142913, 14472.218092944395, 0.612, -0.7020000000000001, 0.432, 192.0, 0.0, 0.0, 0.0, 0.0, 0.0, 0.0, 0.0, 0.0, 0.0, 1.6635870516182585E9, 0.0, 2022-09-19 16:30:51.618
158.0, 9217.278268012795, -118984.52716881361, 18058.063752420396, 5017.273726138321, -183671.57085795057, 187500.0, 27289.40126769558, 14478.34247092515, 0.612, -0.7020000000000001, 0.432, 192.0, 0.0, 0.0, 0.0, 0.0, 0.0, 0.0, 0.0, 0.0, 0.0, 1.6635870516222968E9, 0.0, 2022-09-19 16:30:51.622
159.0, 9215.065445311719, -118989.75747701616, 18056.365019841793, 5020.112397684145, -183600.8946419829, 187500.0, 27284.10390425967, 14478.364822669606, 0.61, -0.704, 0.428, 192.0, 19.0, 16.0, 234.0, 0.0, 13.0, 96.0, 0.0, 0.0, 0.0, 1.6635870516252935E9, 0.0, 2022-09-19 16:30:51.625
160.0, 9202.704930627935, -119008.53294235861, 18035.019103886974, 5017.832519749703, -183568.14933635585, 187500.0, 27258.801729536266, 14471.324023166184, 0.61, -0.704, 0.428, 192.0, 0.0, 0.0, 0.0, 0.0, 0.0, 0.0, 0.0, 0.0, 0.0, 1.6635870516292772E9, 0.0, 2022-09-19 16:30:51.629
161.0, 9198.34634045915, -119026.59315187851, 18020.84809790231, 5012.669266780528, -183577.31355158254, 187500.0, 27250.419825365523, 14465.221996929884, 0.61, -0.704, 0.428, 192.0, 0.0, 0.0, 0.0, 0.0, 0.0, 0.0, 0.0, 0.0, 0.0, 1.6635870516333745E9, 0.0, 2022-09-19 16:30:51.633
162.0, 9204.358959717627, -119029.40947167987, 18025.653722960204, 5010.434092334997, -183657.8915903439, 187500.0, 27260.813386537244, 14467.412467886505, 0.61, -0.704, 0.428, 192.0, 0.0, 0.0, 0.0, 0.0, 0.0, 0.0, 0.0, 0.0, 0.0, 1.6635870516383126E9, 0.0, 2022-09-19 16:30:51.638
163.0, 9211.779738876789, -119021.63106460942, 18039.154176611206, 5002.633333520095, -183691.3074483046, 187500.0, 27276.079628000218, 14472.285148177762, 0.61, -0.704, 0.428, 192.0, 0.0, 0.0, 0.0, 0.0, 0.0, 0.0, 0.0, 0.0, 0.0, 1.6635870516422849E9, 0.0, 2022-09-19 16:30:51.642
164.0, 9204.582477162181, -119023.46390765476, 18037.366037054784, 5001.828670719704, -183614.52920610062, 187500.0, 27271.40811340906, 14468.8653312761, 0.61, -0.704, 0.428, 192.0, 0.0, 0.0, 0.0, 0.0, 0.0, 0.0, 0.0, 0.0, 0.0, 1.663587051646329E9, 0.0, 2022-09-19 16:30:51.646
165.0, 9192.28901771176, -119042.46289044178, 18016.66832168917, 5014.5915168036845, -183564.97538864322, 187500.0, 27254.890174256587, 14460.8634067611, 0.61, -0.704, 0.428, 192.0, 0.0, 0.0, 0.0, 0.0, 0.0, 0.0, 0.0, 0.0, 0.0, 1.663587051650349E9, 0.0, 2022-09-19 16:30:51.650
166.0, 9197.00523579183, -119056.23156502625, 18005.671263417156, 5014.7703307593265, -183589.94228719978, 187500.0, 27251.224488165917, 14459.544653838237, 0.61, -0.704, 0.428, 192.0, 0.0, 0.0, 0.0, 0.0, 0.0, 0.0, 0.0, 0.0, 0.0, 1.6635870516543412E9, 0.0, 2022-09-19 16:30:51.654
167.0, 9207.44350045246, -119054.13050104745, 18013.22615304305, 5010.344685357176, -183661.1996485233, 187500.0, 27259.49463361438, 14465.28905216325, 0.61, -0.704, 0.428, 192.0, 0.0, 0.0, 0.0, 0.0, 0.0, 0.0, 0.0, 0.0, 0.0, 1.6635870516583116E9, 0.0, 2022-09-19 16:30:51.658
168.0, 9224.766102405323, -119040.71945437425, 18031.979266641054, 5012.8927842250805, -183688.58053548104, 187500.0, 27280.728790846922, 14476.017889501798, 0.61, -0.704, 0.428, 192.0, 0.0, 0.0, 0.0, 0.0, 0.0, 0.0, 0.0, 0.0, 0.0, 1.6635870516634045E9, 0.0, 2022-09-19 16:30:51.663
169.0, 9219.379331991593, -119047.51438468866, 18026.637199716235, 5011.886955724592, -183588.04238892108, 187500.0, 27274.40324716607, 14471.882816777566, 0.61, -0.704, 0.428, 192.0, 0.0, 0.0, 0.0, 0.0, 0.0, 0.0, 0.0, 0.0, 0.0, 1.6635870516663573E9, 0.0, 2022-09-19 16:30:51.666
170.0, 9202.079081783186, -119072.25776580069, 18002.050280815398, 5012.266935380332, -183540.34376625347, 187500.0, 27251.67152305502, 14459.365839882594, 0.616, -0.71, 0.428, 192.0, 19.0, 64.0, 233.0, 208.0, 13.0, 96.0, 0.0, 0.0, 0.0, 1.6635870516713328E9, 0.0, 2022-09-19 16:30:51.671
171.0, 9200.380349204583, -119090.42973404286, 17993.444859200103, 5009.540022556785, -183583.95201968576, 187500.0, 27247.53645033079, 14454.515511335792, 0.616, -0.71, 0.428, 192.0, 0.0, 0.0, 0.0, 0.0, 0.0, 0.0, 0.0, 0.0, 0.0, 1.6635870516754098E9, 0.0, 2022-09-19 16:30:51.675
172.0, 9205.074215540197, -119095.03419340066, 17998.451649958093, 5001.828670719704, -183666.340549748, 187500.0, 27255.672485312523, 14459.231729415862, 0.616, -0.71, 0.428, 192.0, 0.0, 0.0, 0.0, 0.0, 0.0, 0.0, 0.0, 0.0, 0.0, 1.6635870516794E9, 0.0, 2022-09-19 16:30:51.679
173.0, 9215.19955577845, -119085.5570537516, 18013.62848444325, 5004.8461562211705, -183668.68748291582, 187500.0, 27272.570404120735, 14472.24044468885, 0.616, -0.71, 0.428, 192.0, 0.0, 0.0, 0.0, 0.0, 0.0, 0.0, 0.0, 0.0, 0.0, 1.6635870516823905E9, 0.0, 2022-09-19 16:30:51.682
174.0, 9213.791395877766, -119084.75239095121, 18017.04830134491, 5009.875298723615, -183605.25323215168, 187500.0, 27273.06214249875, 14475.8167238017, 0.616, -0.71, 0.428, 192.0, 0.0, 0.0, 0.0, 0.0, 0.0, 0.0, 0.0, 0.0, 0.0, 1.6635870516853433E9, 0.0, 2022-09-19 16:30:51.685
175.0, 9192.646645623046, -119114.43550758786, 17992.573141166347, 5012.021066191324, -183531.4254202158, 187500.0, 27250.889211999085, 14462.830360273167, 0.616, -0.71, 0.428, 192.0, 0.0, 0.0, 0.0, 0.0, 0.0, 0.0, 0.0, 0.0, 0.0, 1.6635870516894064E9, 0.0, 2022-09-19 16:30:51.689
176.0, 9190.590285133158, -119132.7192345523, 17983.386574195218, 5014.144481914578, -183594.90437446887, 187500.0, 27248.408168364545, 14460.975165483376, 0.616, -0.71, 0.428, 192.0, 0.0, 0.0, 0.0, 0.0, 0.0, 0.0, 0.0, 0.0, 0.0, 1.663587051693412E9, 0.0, 2022-09-19 16:30:51.693
177.0, 9200.469756182403, -119132.27219966319, 17992.61784465526, 5011.216403390933, -183634.33285168803, 187500.0, 27259.941668503485, 14468.194778942441, 0.616, -0.71, 0.428, 192.0, 0.0, 0.0, 0.0, 0.0, 0.0, 0.0, 0.0, 0.0, 0.0, 1.6635870516983812E9, 0.0, 2022-09-19 16:30:51.698
178.0, 9220.094587814163, -119123.0185774587, 18011.460365231083, 5005.069673665724, -183680.48920398823, 187500.0, 27277.800712323275, 14473.693308078446, 0.616, -0.71, 0.428, 192.0, 0.0, 0.0, 0.0, 0.0, 0.0, 0.0, 0.0, 0.0, 0.0, 1.6635870517024443E9, 0.0, 2022-09-19 16:30:51.702
179.0, 9219.602849436147, -119131.28872290716, 18008.33112100734, 5005.762577743838, -183570.22804859022, 187500.0, 27272.123369231627, 14470.899340021533, 0.616, -0.71, 0.428, 192.0, 0.0, 0.0, 0.0, 0.0, 0.0, 0.0, 0.0, 0.0, 0.0, 1.663587051705429E9, 0.0, 2022-09-19 16:30:51.705
180.0, 9205.16362251802, -119152.99226677326, 17987.253425985986, 5006.880164966603, -183548.59155995745, 187500.0, 27253.169089933526, 14463.769133540289, 0.614, -0.708, 0.424, 192.0, 19.0, 48.0, 233.0, 224.0, 13.0, 64.0, 0.0, 0.0, 0.0, 1.6635870517094288E9, 0.0, 2022-09-19 16:30:51.709
181.0, 9202.749634116844, -119166.20214774636, 17979.430315426627, 5003.996789931869, -183599.8888134824, 187500.0, 27249.793976520778, 14458.024735215276, 0.614, -0.708, 0.424, 192.0, 0.0, 0.0, 0.0, 0.0, 0.0, 0.0, 0.0, 0.0, 0.0, 1.6635870517134485E9, 0.0, 2022-09-19 16:30:51.713
182.0, 9209.164584775519, -119168.70554312534, 17989.98033880953, 5000.666380008028, -183636.41156392236, 187500.0, 27260.701627814964, 14458.985860226854, 0.614, -0.708, 0.424, 192.0, 0.0, 0.0, 0.0, 0.0, 0.0, 0.0, 0.0, 0.0, 0.0, 1.6635870517174823E9, 0.0, 2022-09-19 16:30:51.717
183.0, 9216.25008776785, -119165.21867099032, 18006.78885063992, 4999.459385807441, -183659.7020816448, 187500.0, 27276.079628000218, 14462.405677128516, 0.614, -0.708, 0.424, 192.0, 0.0, 0.0, 0.0, 0.0, 0.0, 0.0, 0.0, 0.0, 0.0, 1.6635870517214737E9, 0.0, 2022-09-19 16:30:51.721
184.0, 9214.73016914489, -119170.27016523722, 18007.213533784572, 5006.880164966603, -183607.7789792751, 187500.0, 27271.385761664602, 14461.221034672384, 0.614, -0.708, 0.424, 192.0, 0.0, 0.0, 0.0, 0.0, 0.0, 0.0, 0.0, 0.0, 0.0, 1.6635870517264252E9, 0.0, 2022-09-19 16:30:51.726
185.0, 9203.44253819496, -119192.30898527015, 17990.38267020973, 5009.048284178768, -183540.7237459092, 187500.0, 27253.50436610036, 14454.560214824704, 0.614, -0.708, 0.424, 192.0, 0.0, 0.0, 0.0, 0.0, 0.0, 0.0, 0.0, 0.0, 0.0, 1.6635870517305017E9, 0.0, 2022-09-19 16:30:51.730
186.0, 9206.996465563354, -119205.29534879868, 17981.643138127703, 5007.528365555807, -183574.18430735878, 187500.0, 27251.090377699184, 14453.889662491043, 0.614, -0.708, 0.424, 192.0, 0.0, 0.0, 0.0, 0.0, 0.0, 0.0, 0.0, 0.0, 0.0, 1.6635870517345264E9, 0.0, 2022-09-19 16:30:51.734
187.0, 9219.401683736049, -119204.08835459809, 17990.650891143192, 5007.148385900067, -183647.36391870547, 187500.0, 27263.070912727228, 14463.880892262567, 0.614, -0.708, 0.424, 192.0, 0.0, 0.0, 0.0, 0.0, 0.0, 0.0, 0.0, 0.0, 0.0, 1.663587051737442E9, 0.0, 2022-09-19 16:30:51.737
188.0, 9231.404570508548, -119193.51597947073, 18010.499240219502, 5006.589592288684, -183673.09077657352, 187500.0, 27280.549976891278, 14474.72148832339, 0.614, -0.708, 0.424, 192.0, 0.0, 0.0, 0.0, 0.0, 0.0, 0.0, 0.0, 0.0, 0.0, 1.663587051741521E9, 0.0, 2022-09-19 16:30:51.741
189.0, 9217.948820346453, -119207.35170928857, 18003.637254671725, 5004.577935287707, -183538.8685511194, 187500.0, 27267.138930218094, 14463.72443005138, 0.614, -0.708, 0.424, 192.0, 0.0, 0.0, 0.0, 0.0, 0.0, 0.0, 0.0, 0.0, 0.0, 1.6635870517475743E9, 0.0, 2022-09-19 16:30:51.747
190.0, 9199.530982915281, -119236.18545963592, 17980.905530560678, 5002.543926542274, -183540.20965578672, 187500.0, 27245.569496818724, 14450.246328144829, 0.612, -0.708, 0.42, 192.0, 19.0, 32.0, 233.0, 224.0, 13.0, 32.0, 0.0, 0.0, 0.0, 1.6635870517505472E9, 0.0, 2022-09-19 16:30:51.750
191.0, 9204.023683550797, -119252.16695692146, 17974.08824850181, 5008.042455678279, -183591.35044710047, 187500.0, 27246.329456130203, 14453.86731074659, 0.612, -0.708, 0.42, 192.0, 0.0, 0.0, 0.0, 0.0, 0.0, 0.0, 0.0, 0.0, 0.0, 1.663587051753489E9, 0.0, 2022-09-19 16:30:51.753
192.0, 9214.953686589442, -119255.20679416739, 17982.51485616146, 4997.715949739927, -183625.30274692806, 187500.0, 27253.01262772234, 14453.643793302035, 0.612, -0.708, 0.42, 192.0, 0.0, 0.0, 0.0, 0.0, 0.0, 0.0, 0.0, 0.0, 0.0, 1.6635870517585945E9, 0.0, 2022-09-19 16:30:51.758
193.0, 9222.508576215336, -119248.1436429195, 18004.978359339042, 4994.296132838265, -183681.9644191223, 187500.0, 27265.842529039688, 14461.735124794857, 0.612, -0.708, 0.42, 192.0, 0.0, 0.0, 0.0, 0.0, 0.0, 0.0, 0.0, 0.0, 0.0, 1.6635870517614896E9, 0.0, 2022-09-19 16:30:51.761
194.0, 9215.601887178647, -119254.648000556, 18004.821897127855, 4998.028874162302, -183578.60995276095, 187500.0, 27259.06995046973, 14463.590319584648, 0.612, -0.708, 0.42, 192.0, 0.0, 0.0, 0.0, 0.0, 0.0, 0.0, 0.0, 0.0, 0.0, 1.663587051765536E9, 0.0, 2022-09-19 16:30:51.765
195.0, 9204.96245681792, -119281.31363169118, 17982.8948358172, 5000.889897452581, -183533.63824291687, 187500.0, 27239.378063604603, 14453.889662491043, 0.612, -0.708, 0.42, 192.0, 0.0, 0.0, 0.0, 0.0, 0.0, 0.0, 0.0, 0.0, 0.0, 1.663587051769542E9, 0.0, 2022-09-19 16:30:51.769
196.0, 9210.796262120755, -119292.7577248523, 17982.8948358172, 4999.660551507539, -183593.29504886808, 187500.0, 27240.786223505285, 14451.587432812148, 0.612, -0.708, 0.42, 192.0, 0.0, 0.0, 0.0, 0.0, 0.0, 0.0, 0.0, 0.0, 0.0, 1.663587051773593E9, 0.0, 2022-09-19 16:30:51.773
197.0, 9223.15677680454, -119294.8587888311, 17992.327271977338, 4999.146461385067, -183633.32702318754, 187500.0, 27252.654999811057, 14455.90131949202, 0.612, -0.708, 0.42, 192.0, 0.0, 0.0, 0.0, 0.0, 0.0, 0.0, 0.0, 0.0, 0.0, 1.66358705177754E9, 0.0, 2022-09-19 16:30:51.777
198.0, 9232.812730409232, -119285.42635267095, 18011.683882675636, 5001.538098041785, -183667.61459918198, 187500.0, 27268.86001454115, 14465.95960449691, 0.612, -0.708, 0.42, 192.0, 0.0, 0.0, 0.0, 0.0, 0.0, 0.0, 0.0, 0.0, 0.0, 1.663587051781578E9, 0.0, 2022-09-19 16:30:51.781
199.0, 9219.669904669512, -119300.78200111176, 18000.910341848175, 5005.650819021562, -183554.7829931716, 187500.0, 27257.371217891126, 14460.997517227832, 0.612, -0.708, 0.42, 192.0, 0.0, 0.0, 0.0, 0.0, 0.0, 0.0, 0.0, 0.0, 0.0, 1.663587051786564E9, 0.0, 2022-09-19 16:30:51.786
200.0, 9206.862355096622, -119327.29117003575, 17978.111562503764, 5002.432167819997, -183537.05805981852, 187500.0, 27233.34309260167, 14451.833302001156, 0.608, -0.706, 0.424, 192.0, 19.0, 0.0, 233.0, 240.0, 13.0, 64.0, 0.0, 0.0, 0.0, 1.663587051789562E9, 0.0, 2022-09-19 16:30:51.789
201.0, 9211.958552832431, -119337.99765562984, 17978.156265992675, 5003.885031209592, -183595.5749268025, 187500.0, 27236.8299647367, 14452.995592712832, 0.608, -0.706, 0.424, 192.0, 0.0, 0.0, 0.0, 0.0, 0.0, 0.0, 0.0, 0.0, 0.0, 1.663587051793527E9, 0.0, 2022-09-19 16:30:51.793
202.0, 9222.843852382166, -119333.25908580532, 17996.57410342385, 4998.61001951814, -183660.12676478946, 187500.0, 27253.01262772234, 14457.57770032617, 0.608, -0.706, 0.424, 192.0, 0.0, 0.0, 0.0, 0.0, 0.0, 0.0, 0.0, 0.0, 0.0, 1.6635870517975903E9, 0.0, 2022-09-19 16:30:51.797
203.0, 9226.151910561552, -119324.40779500101, 18017.204763556096, 4991.904496181548, -183661.1549450344, 187500.0, 27268.50238662987, 14461.444552116938, 0.608, -0.706, 0.424, 192.0, 0.0, 0.0, 0.0, 0.0, 0.0, 0.0, 0.0, 0.0, 0.0, 1.6635870518015945E9, 0.0, 2022-09-19 16:30:51.801
204.0, 9205.67771264049, -119340.36694054211, 18003.100812804798, 4991.502164781352, -183541.5731121985, 187500.0, 27252.543241088777, 14454.113179935597, 0.608, -0.706, 0.424, 192.0, 0.0, 0.0, 0.0, 0.0, 0.0, 0.0, 0.0, 0.0, 0.0, 1.663587051805589E9, 0.0, 2022-09-19 16:30:51.805
205.0, 9192.333721200672, -119364.95385944295, 17980.70436486058, 4994.787871216282, -183538.04153657457, 187500.0, 27234.505383313346, 14446.357124609605, 0.608, -0.706, 0.424, 192.0, 0.0, 0.0, 0.0, 0.0, 0.0, 0.0, 0.0, 0.0, 0.0, 1.6635870518095849E9, 0.0, 2022-09-19 16:30:51.809
206.0, 9201.944971316454, -119374.83333049218, 17982.38074569473, 5005.248487621366, -183621.9946887487, 187500.0, 27241.81440375023, 14448.61465079959, 0.608, -0.706, 0.424, 192.0, 0.0, 0.0, 0.0, 0.0, 0.0, 0.0, 0.0, 0.0, 0.0, 1.6635870518136864E9, 0.0, 2022-09-19 16:30:51.813
207.0, 9220.049884325254, -119374.25218513634, 17998.339891235817, 5004.041493420779, -183646.93923556083, 187500.0, 27257.39356963558, 14453.33086887966, 0.608, -0.706, 0.424, 192.0, 0.0, 0.0, 0.0, 0.0, 0.0, 0.0, 0.0, 0.0, 0.0, 1.6635870518197396E9, 0.0, 2022-09-19 16:30:51.819
208.0, 9227.06833208422, -119372.12876941309, 18012.265028031474, 4998.431205562497, -183630.55540687506, 187500.0, 27267.854186040662, 14454.560214824704, 0.608, -0.706, 0.424, 192.0, 0.0, 0.0, 0.0, 0.0, 0.0, 0.0, 0.0, 0.0, 0.0, 1.663587051823621E9, 0.0, 2022-09-19 16:30:51.823
209.0, 9213.456119710938, -119384.28811839678, 18002.47496396005, 4998.051225906757, -183542.1766092988, 187500.0, 27255.73954054589, 14449.62047930008, 0.608, -0.706, 0.424, 192.0, 0.0, 0.0, 0.0, 0.0, 0.0, 0.0, 0.0, 0.0, 0.0, 1.6635870518266487E9, 0.0, 2022-09-19 16:30:51.826
210.0, 9201.944971316454, -119409.81381056474, 17980.838475327313, 4999.906420696548, -183525.68102189078, 187500.0, 27238.68515952649, 14440.433912328948, 0.612, -0.706, 0.426, 192.0, 19.0, 32.0, 233.0, 240.0, 13.0, 80.0, 0.0, 0.0, 0.0, 1.663587051829646E9, 0.0, 2022-09-19 16:30:51.829
211.0, 9210.215116764917, -119421.81669733724, 17980.27968171593, 4999.235868362888, -183593.89854596838, 187500.0, 27242.976694461908, 14444.948964708921, 0.612, -0.706, 0.426, 192.0, 0.0, 0.0, 0.0, 0.0, 0.0, 0.0, 0.0, 0.0, 0.0, 1.6635870518336327E9, 0.0, 2022-09-19 16:30:51.833
212.0, 9219.379331991593, -119420.74381360339, 17995.121240034252, 4997.537135784285, -183664.9547415918, 187500.0, 27257.684142313497, 14453.509682835303, 0.612, -0.706, 0.426, 192.0, 0.0, 0.0, 0.0, 0.0, 0.0, 0.0, 0.0, 0.0, 0.0, 1.663587051837653E9, 0.0, 2022-09-19 16:30:51.837
213.0, 9224.631991938591, -119415.80407807877, 18006.61003668428, 4996.754824728349, -183632.76822957615, 187500.0, 27271.653982598065, 14455.677802047469, 0.612, -0.706, 0.426, 192.0, 0.0, 0.0, 0.0, 0.0, 0.0, 0.0, 0.0, 0.0, 0.0, 1.6635870518416605E9, 0.0, 2022-09-19 16:30:51.841
214.0, 9218.10528255764, -119431.42794745302, 17992.126106277243, 4996.352493328153, -183549.1727053133, 187500.0, 27255.560726590244, 14445.150130409018, 0.612, -0.706, 0.426, 192.0, 0.0, 0.0, 0.0, 0.0, 0.0, 0.0, 0.0, 0.0, 0.0, 1.6635870518456972E9, 0.0, 2022-09-19 16:30:51.845
215.0, 9207.53290743028, -119454.91963087555, 17973.70826884607, 4999.034702662791, -183520.78598985507, 187500.0, 27236.87466822561, 14437.416426827482, 0.612, -0.706, 0.426, 192.0, 0.0, 0.0, 0.0, 0.0, 0.0, 0.0, 0.0, 0.0, 0.0, 1.663587051849681E9, 0.0, 2022-09-19 16:30:51.849
216.0, 9214.193727277961, -119467.1013316037, 17972.769495578945, 5006.030798677301, -183615.51268285664, 187500.0, 27240.562706060733, 14442.7584937523, 0.612, -0.706, 0.426, 192.0, 0.0, 0.0, 0.0, 0.0, 0.0, 0.0, 0.0, 0.0, 0.0, 1.6635870518547063E9, 0.0, 2022-09-19 16:30:51.854
217.0, 9226.062503583731, -119465.58141298074, 17982.60426313928, 5001.046359663768, -183642.4465349253, 187500.0, 27249.123424187117, 14450.089865933642, 0.612, -0.706, 0.426, 192.0, 0.0, 0.0, 0.0, 0.0, 0.0, 0.0, 0.0, 0.0, 0.0, 1.6635870518576908E9, 0.0, 2022-09-19 16:30:51.857
218.0, 9232.49980598686, -119457.91476463256, 17996.37293772375, 4997.023045661813, -183645.82164833805, 187500.0, 27258.131177202606, 14453.710848535402, 0.612, -0.706, 0.426, 192.0, 0.0, 0.0, 0.0, 0.0, 0.0, 0.0, 0.0, 0.0, 0.0, 1.663587051860634E9, 0.0, 2022-09-19 16:30:51.860
219.0, 9218.239393024372, -119474.90209041859, 17982.537207905916, 4998.565316029229, -183546.3340337675, 187500.0, 27244.00487470685, 14444.434874586448, 0.612, -0.706, 0.426, 192.0, 0.0, 0.0, 0.0, 0.0, 0.0, 0.0, 0.0, 0.0, 0.0, 1.6635870518656998E9, 0.0, 2022-09-19 16:30:51.865
220.0, 9204.314256228716, -119507.44623034552, 17960.006649494964, 5006.857813222148, -183529.39141147037, 187500.0, 27231.10791815614, 14437.058798916198, 0.608, -0.706, 0.43, 192.0, 19.0, 0.0, 233.0, 240.0, 13.0, 112.0, 0.0, 0.0, 0.0, 1.663587051869707E9, 0.0, 2022-09-19 16:30:51.869
221.0, 9206.72824462989, -119523.87476252018, 17960.252518683974, 5007.75188300036, -183583.9743714302, 187500.0, 27234.39362459107, 14440.590374540136, 0.608, -0.706, 0.43, 192.0, 0.0, 0.0, 0.0, 0.0, 0.0, 0.0, 0.0, 0.0, 0.0, 1.663587051873719E9, 0.0, 2022-09-19 16:30:51.873
222.0, 9217.30061975725, -119523.85241077573, 17973.820027568345, 4998.98999917388, -183650.91784607386, 187500.0, 27244.697778784965, 14444.837205986645, 0.608, -0.706, 0.43, 192.0, 0.0, 0.0, 0.0, 0.0, 0.0, 0.0, 0.0, 0.0, 0.0, 1.66358705187767E9, 0.0, 2022-09-19 16:30:51.877
223.0, 9234.310297287739, -119515.85048626072, 17991.56731266586, 4997.380673573098, -183642.20066573628, 187500.0, 27259.15935744755, 14454.828435758167, 0.608, -0.706, 0.43, 192.0, 0.0, 0.0, 0.0, 0.0, 0.0, 0.0, 0.0, 0.0, 0.0, 1.6635870518818257E9, 0.0, 2022-09-19 16:30:51.881
224.0, 9225.034323338787, -119535.09533823674, 17976.949271792088, 4999.079406151701, -183531.4701237047, 187500.0, 27243.24491539537, 14447.362953110094, 0.608, -0.706, 0.43, 192.0, 0.0, 0.0, 0.0, 0.0, 0.0, 0.0, 0.0, 0.0, 0.0, 1.6635870518857727E9, 0.0, 2022-09-19 16:30:51.885
225.0, 9221.949782603953, -119555.39072220215, 17961.280698928917, 5001.515746297329, -183547.96571111272, 187500.0, 27228.4257088215, 14439.13751115054, 0.608, -0.706, 0.43, 192.0, 0.0, 0.0, 0.0, 0.0, 0.0, 0.0, 0.0, 0.0, 0.0, 1.6635870518907304E9, 0.0, 2022-09-19 16:30:51.890
226.0, 9223.313239015728, -119566.76776012991, 17959.13493146121, 4998.7441299848715, -183576.55359227106, 187500.0, 27230.66088326703, 14436.164729137985, 0.608, -0.706, 0.43, 192.0, 0.0, 0.0, 0.0, 0.0, 0.0, 0.0, 0.0, 0.0, 0.0, 1.6635870518947449E9, 0.0, 2022-09-19 16:30:51.894
227.0, 9235.651401955058, -119566.38778047416, 17972.45657115657, 4994.944333427469, -183669.62625618296, 187500.0, 27248.363464875638, 14442.534976307748, 0.608, -0.706, 0.43, 192.0, 0.0, 0.0, 0.0, 0.0, 0.0, 0.0, 0.0, 0.0, 0.0, 1.6635870518987873E9, 0.0, 2022-09-19 16:30:51.898
228.0, 9254.896253931076, -119550.36157969972, 17993.936597578122, 4995.056092149745, -183672.48727947322, 187500.0, 27266.848357540177, 14452.325040379172, 0.608, -0.706, 0.43, 192.0, 0.0, 0.0, 0.0, 0.0, 0.0, 0.0, 0.0, 0.0, 0.0, 1.6635870519028003E9, 0.0, 2022-09-19 16:30:51.902
229.0, 9236.478416499904, -119571.5286816989, 17972.88125430122, 4998.699426495961, -183540.7237459092, 187500.0, 27249.279886398304, 14440.90329896251, 0.608, -0.706, 0.43, 192.0, 0.0, 0.0, 0.0, 0.0, 0.0, 0.0, 0.0, 0.0, 0.0, 1.6635870519067674E9, 0.0, 2022-09-19 16:30:51.906
230.0, 9223.626163438103, -119596.00384187745, 17949.8366057678, 4997.604191017651, -183544.65765293333, 187500.0, 27234.34892110216, 14432.38728432504, 0.606, -0.6980000000000001, 0.43, 192.0, 18.0, 240.0, 234.0, 48.0, 13.0, 112.0, 0.0, 0.0, 0.0, 1.663587051909839E9, 0.0, 2022-09-19 16:30:51.909
231.0, 9225.503709972347, -119602.59760649176, 17952.451759869073, 4997.201859617456, -183594.90437446887, 187500.0, 27241.076796183206, 14436.678819260458, 0.606, -0.6980000000000001, 0.43, 192.0, 0.0, 0.0, 0.0, 0.0, 0.0, 0.0, 0.0, 0.0, 0.0, 1.6635870519127786E9, 0.0, 2022-09-19 16:30:51.912
232.0, 9239.49590200137, -119604.4304495371, 17966.645117598193, 5000.286400352287, -183655.63406415394, 187500.0, 27256.946534746476, 14443.943136208432, 0.606, -0.6980000000000001, 0.43, 192.0, 0.0, 0.0, 0.0, 0.0, 0.0, 0.0, 0.0, 0.0, 0.0, 1.6635870519168143E9, 0.0, 2022-09-19 16:30:51.916
233.0, 9253.7339632194, -119599.75893494594, 17982.17957999463, 4996.643066006072, -183636.70213660027, 187500.0, 27268.703552329967, 14450.022810700275, 0.606, -0.6980000000000001, 0.43, 192.0, 0.0, 0.0, 0.0, 0.0, 0.0, 0.0, 0.0, 0.0, 0.0, 1.6635870519207308E9, 0.0, 2022-09-19 16:30:51.920
234.0, 9239.004163623353, -119612.83470545229, 17971.562501378357, 4993.111490382134, -183554.40301351584, 187500.0, 27247.268229397327, 14441.573851296169, 0.606, -0.6980000000000001, 0.43, 192.0, 0.0, 0.0, 0.0, 0.0, 0.0, 0.0, 0.0, 0.0, 0.0, 1.663587051925923E9, 0.0, 2022-09-19 16:30:51.925
235.0, 9220.563974447725, -119634.38178710721, 17955.35748664826, 4990.362225814131, -183545.95405411173, 187500.0, 27227.084604154184, 14433.147243636518, 0.606, -0.6980000000000001, 0.43, 192.0, 0.0, 0.0, 0.0, 0.0, 0.0, 0.0, 0.0, 0.0, 0.0, 1.6635870519297605E9, 0.0, 2022-09-19 16:30:51.929
236.0, 9230.711666430434, -119646.02704596843, 17952.675277313625, 4992.887972937581, -183615.46797936774, 187500.0, 27232.426671079003, 14433.683685503447, 0.606, -0.6980000000000001, 0.43, 192.0, 0.0, 0.0, 0.0, 0.0, 0.0, 0.0, 0.0, 0.0, 0.0, 1.6635870519337828E9, 0.0, 2022-09-19 16:30:51.933
237.0, 9258.204312110462, -119640.37205462123, 17968.902643788177, 4995.860754950137, -183665.37942473646, 187500.0, 27249.704569542955, 14444.837205986645, 0.606, -0.6980000000000001, 0.43, 192.0, 0.0, 0.0, 0.0, 0.0, 0.0, 0.0, 0.0, 0.0, 0.0, 1.6635870519367745E9, 0.0, 2022-09-19 16:30:51.936
238.0, 9268.799038982277, -119633.4430138401, 17982.090173016808, 4993.625580504606, -183629.84015105251, 187500.0, 27260.88044177061, 14451.654488045513, 0.606, -0.6980000000000001, 0.43, 192.0, 0.0, 0.0, 0.0, 0.0, 0.0, 0.0, 0.0, 0.0, 0.0, 1.663587051940871E9, 0.0, 2022-09-19 16:30:51.940
239.0, 9257.757277221355, -119644.55183083437, 17967.852111798777, 4995.7489962278605, -183571.88207767988, 187500.0, 27247.91642998653, 14445.016019942286, 0.606, -0.6980000000000001, 0.43, 192.0, 0.0, 0.0, 0.0, 0.0, 0.0, 0.0, 0.0, 0.0, 0.0, 1.6635870519447968E9, 0.0, 2022-09-19 16:30:51.944
240.0, 9247.274309071816, -119665.65187760019, 17946.79676852188, 4994.9890369163795, -183531.09014404897, 187500.0, 27232.516078056822, 14434.577755281658, 0.612, -0.6980000000000001, 0.432, 192.0, 19.0, 32.0, 234.0, 48.0, 13.0, 128.0, 0.0, 0.0, 0.0, 1.6635870519488037E9, 0.0, 2022-09-19 16:30:51.948
241.0, 9254.002184152863, -119673.72085734856, 17946.64030631069, 4997.313618339732, -183602.25809839467, 187500.0, 27240.808575249743, 14433.169595380974, 0.612, -0.6980000000000001, 0.432, 192.0, 0.0, 0.0, 0.0, 0.0, 0.0, 0.0, 0.0, 0.0, 0.0, 1.6635870519538476E9, 0.0, 2022-09-19 16:30:51.953
242.0, 9262.294681345784, -119667.81999681235, 17958.64319308319, 4992.195068859466, -183661.87020085697, 187500.0, 27254.241973667384, 14437.125854149564, 0.612, -0.6980000000000001, 0.432, 192.0, 0.0, 0.0, 0.0, 0.0, 0.0, 0.0, 0.0, 0.0, 0.0, 1.6635870519578307E9, 0.0, 2022-09-19 16:30:51.957
243.0, 9261.758239478855, -119662.70144733209, 17967.718001332047, 4989.065824635723, -183640.79250583562, 187500.0, 27260.47811037041, 14438.24344137233, 0.612, -0.6980000000000001, 0.432, 192.0, 0.0, 0.0, 0.0, 0.0, 0.0, 0.0, 0.0, 0.0, 0.0, 1.6635870519618256E9, 0.0, 2022-09-19 16:30:51.961
244.0, 9243.07218111422, -119679.53231090693, 17948.853129011768, 4988.484679279885, -183557.46520250622, 187500.0, 27240.853278738654, 14427.536955778236, 0.612, -0.6980000000000001, 0.432, 192.0, 0.0, 0.0, 0.0, 0.0, 0.0, 0.0, 0.0, 0.0, 0.0, 1.6635870519658024E9, 0.0, 2022-09-19 16:30:51.965
245.0, 9239.87588165711, -119701.03468907294, 17930.30118111386, 4995.659589250039, -183550.06677509152, 187500.0, 27232.851354223654, 14422.99955165381, 0.612, -0.6980000000000001, 0.432, 192.0, 0.0, 0.0, 0.0, 0.0, 0.0, 0.0, 0.0, 0.0, 0.0, 1.6635870519688387E9, 0.0, 2022-09-19 16:30:51.968
246.0, 9249.576538750713, -119708.6566339322, 17931.485823569994, 4991.7033304814495, -183604.00153446218, 187500.0, 27241.702645027955, 14423.223069098363, 0.612, -0.6980000000000001, 0.432, 192.0, 0.0, 0.0, 0.0, 0.0, 0.0, 0.0, 0.0, 0.0, 0.0, 1.6635870519749575E9, 0.0, 2022-09-19 16:30:51.974
247.0, 9262.182922623506, -119705.08035481935, 17946.79676852188, 4987.1212228681115, -183643.63117738144, 187500.0, 27259.62874408111, 14427.291086589228, 0.612, -0.6980000000000001, 0.432, 192.0, 0.0, 0.0, 0.0, 0.0, 0.0, 0.0, 0.0, 0.0, 0.0, 1.6635870519789195E9, 0.0, 2022-09-19 16:30:51.978
248.0, 9264.887483702598, -119703.1581047962, 17961.191291951098, 4986.3612635566315, -183625.32509867253, 187500.0, 27267.07187498473, 14432.431987813949, 0.612, -0.6980000000000001, 0.432, 192.0, 0.0, 0.0, 0.0, 0.0, 0.0, 0.0, 0.0, 0.0, 0.0, 1.6635870519818747E9, 0.0, 2022-09-19 16:30:51.981
249.0, 9249.397724795072, -119716.30093053592, 17949.970716234533, 4990.362225814131, -183536.18634178478, 187500.0, 27246.91060148604, 14428.028694156254, 0.612, -0.6980000000000001, 0.432, 192.0, 0.0, 0.0, 0.0, 0.0, 0.0, 0.0, 0.0, 0.0, 0.0, 1.6635870519868407E9, 0.0, 2022-09-19 16:30:51.986
250.0, 9235.696105443967, -119738.60797150231, 17931.77639624791, 4989.423452547008, -183546.28933027858, 187500.0, 27232.516078056822, 14419.669141729968, 0.612, -0.6960000000000001, 0.432, 192.0, 19.0, 32.0, 234.0, 64.0, 13.0, 128.0, 0.0, 0.0, 0.0, 1.6635870519909804E9, 0.0, 2022-09-19 16:30:51.990
251.0, 9238.668887456524, -119744.97821867207, 17933.8327567378, 4986.964760656924, -183622.46407538225, 187500.0, 27239.378063604603, 14423.04425514272, 0.612, -0.6960000000000001, 0.432, 192.0, 0.0, 0.0, 0.0, 0.0, 0.0, 0.0, 0.0, 0.0, 0.0, 1.6635870519949636E9, 0.0, 2022-09-19 16:30:51.994
252.0, 9258.003146410365, -119731.94715165463, 17953.882271514212, 4988.261161835332, -183665.87116311447, 187500.0, 27258.086473713694, 14433.750740736812, 0.612, -0.6960000000000001, 0.432, 192.0, 0.0, 0.0, 0.0, 0.0, 0.0, 0.0, 0.0, 0.0, 0.0, 1.66358705199803E9, 0.0, 2022-09-19 16:30:51.998
253.0, 9267.21206512595, -119724.36991028428, 17967.9415187766, 4989.065824635723, -183618.86544452494, 187500.0, 27265.44019763949, 14440.47861581786, 0.612, -0.6960000000000001, 0.432, 192.0, 0.0, 0.0, 0.0, 0.0, 0.0, 0.0, 0.0, 0.0, 0.0, 1.6635870520009615E9, 0.0, 2022-09-19 16:30:52.000
254.0, 9246.335535804694, -119745.53701228346, 17946.17091967713, 4983.343778055165, -183535.4710859622, 187500.0, 27241.59088630568, 14429.19098486793, 0.612, -0.6960000000000001, 0.432, 192.0, 0.0, 0.0, 0.0, 0.0, 0.0, 0.0, 0.0, 0.0, 0.0, 1.6635870520049255E9, 0.0, 2022-09-19 16:30:52.004
255.0, 9238.288907800783, -119766.90527998273, 17924.959114189045, 4984.684882722483, -183551.45258324774, 187500.0, 27228.984502432886, 14419.892659174522, 0.612, -0.6960000000000001, 0.432, 192.0, 0.0, 0.0, 0.0, 0.0, 0.0, 0.0, 0.0, 0.0, 0.0, 1.6635870520089898E9, 0.0, 2022-09-19 16:30:52.008
0.0, 9246.514349760337, -119774.21430041961, 17925.048521166864, 4984.930751911492, -183622.62053759344, 187500.0, 27234.617142035622, 14423.647752243014, 0.612, -0.6960000000000001, 0.432, 192.0, 0.0, 0.0, 0.0, 0.0, 0.0, 0.0, 0.0, 0.0, 0.0, 1.6635870520139272E9, 0.0, 2022-09-19 16:30:52.013
1.0, 9261.467666800936, -119766.1676724157, 17941.45470159706, 4987.791775201771, -183671.4590992283, 187500.0, 27252.766758533333, 14437.349371594117, 0.612, -0.6960000000000001, 0.432, 192.0, 0.0, 0.0, 0.0, 0.0, 0.0, 0.0, 0.0, 0.0, 0.0, 1.6635870520179286E9, 0.0, 2022-09-19 16:30:52.017
2.0, 9260.953576678465, -119764.64775379274, 17949.03194296741, 4985.087214122679, -183615.1997584343, 187500.0, 27255.560726590244, 14439.517490806282, 0.612, -0.6960000000000001, 0.432, 192.0, 0.0, 0.0, 0.0, 0.0, 0.0, 0.0, 0.0, 0.0, 0.0, 1.6635870520209322E9, 0.0, 2022-09-19 16:30:52.020
3.0, 9241.753428191356, -119782.95383250163, 17932.44694858157, 4987.814126946227, -183550.334996025, 187500.0, 27235.62297053611, 14428.47572904536, 0.612, -0.6960000000000001, 0.432, 192.0, 0.0, 0.0, 0.0, 0.0, 0.0, 0.0, 0.0, 0.0, 0.0, 1.663587052024991E9, 0.0, 2022-09-19 16:30:52.024
4.0, 9239.831178168199, -119795.56021637443, 17922.92510544361, 4990.004597902846, -183583.61674351894, 187500.0, 27225.855258209143, 14425.257077843795, 0.612, -0.6960000000000001, 0.432, 192.0, 0.0, 0.0, 0.0, 0.0, 0.0, 0.0, 0.0, 0.0, 0.0, 1.6635870520289867E9, 0.0, 2022-09-19 16:30:52.028
5.0, 9243.988602636886, -119801.43872516618, 17922.142794387673, 4977.912304152525, -183616.85378752399, 187500.0, 27226.123479142607, 14423.871269687566, 0.614, -0.6940000000000001, 0.44, 192.0, 19.0, 48.0, 234.0, 80.0, 13.0, 192.0, 0.0, 0.0, 0.0, 1.663587052032932E9, 0.0, 2022-09-19 16:30:52.032
6.0, 9256.036192898297, -119791.40279190574, 17934.25743988245, 4969.038661603769, -183685.6077534685, 187500.0, 27239.087490926682, 14430.465034301882, 0.614, -0.6940000000000001, 0.44, 192.0, 0.0, 0.0, 0.0, 0.0, 0.0, 0.0, 0.0, 0.0, 0.0, 1.6635870520369384E9, 0.0, 2022-09-19 16:30:52.036
7.0, 9260.506541789358, -119782.88677726827, 17944.60629756526, 4979.454574519941, -183658.83036361105, 187500.0, 27251.805633521755, 14441.037409429242, 0.614, -0.6940000000000001, 0.44, 192.0, 0.0, 0.0, 0.0, 0.0, 0.0, 0.0, 0.0, 0.0, 0.0, 1.6635870520420225E9, 0.0, 2022-09-19 16:30:52.042
8.0, 9253.376335308116, -119794.08500124038, 17935.352675360762, 4996.196031116967, -183576.01715040414, 187500.0, 27243.513136328835, 14443.272583874774, 0.614, -0.6940000000000001, 0.44, 192.0, 0.0, 0.0, 0.0, 0.0, 0.0, 0.0, 0.0, 0.0, 0.0, 1.6635870520450778E9, 0.0, 2022-09-19 16:30:52.045
9.0, 9248.056620127752, -119806.5796263909, 17925.36144558924, 4991.479813036896, -183577.49236553817, 187500.0, 27233.16427864603, 14440.18804313994, 0.614, -0.6940000000000001, 0.44, 192.0, 0.0, 0.0, 0.0, 0.0, 0.0, 0.0, 0.0, 0.0, 0.0, 1.663587052048994E9, 0.0, 2022-09-19 16:30:52.048
10.0, 9249.889463173087, -119807.29488221346, 17928.893021213178, 4985.646007734062, -183636.83624706703, 187500.0, 27236.24881938086, 14442.33381060765, 0.614, -0.6940000000000001, 0.44, 192.0, 0.0, 0.0, 0.0, 0.0, 0.0, 0.0, 0.0, 0.0, 0.0, 1.6635870520539567E9, 0.0, 2022-09-19 16:30:52.053
11.0, 9257.220835354428, -119798.89062629828, 17944.1369109317, 4987.143574612567, -183694.83902392854, 187500.0, 27251.291543399282, 14450.559252567204, 0.614, -0.6940000000000001, 0.44, 192.0, 0.0, 0.0, 0.0, 0.0, 0.0, 0.0, 0.0, 0.0, 0.0, 1.6635870520589864E9, 0.0, 2022-09-19 16:30:52.058
12.0, 9278.991434453897, -119785.72544881409, 17961.61597509575, 5003.6168102761285, -183651.65545364088, 187500.0, 27269.754084319364, 14462.159807939508, 0.614, -0.6940000000000001, 0.44, 192.0, 0.0, 0.0, 0.0, 0.0, 0.0, 0.0, 0.0, 0.0, 0.0, 1.663587052062096E9, 0.0, 2022-09-19 16:30:52.062
13.0, 9277.672681531034, -119793.526207629, 17949.143701689685, 5011.641086535584, -183576.9782754157, 187500.0, 27253.4820143559, 14458.71763929339, 0.614, -0.6940000000000001, 0.44, 192.0, 0.0, 0.0, 0.0, 0.0, 0.0, 0.0, 0.0, 0.0, 0.0, 1.6635870520669935E9, 0.0, 2022-09-19 16:30:52.066
14.0, 9273.872884973633, -119808.39011769177, 17939.040713195885, 5021.766426773837, -183561.91319965283, 187500.0, 27248.743444531377, 14457.15301718152, 0.614, -0.6940000000000001, 0.44, 192.0, 0.0, 0.0, 0.0, 0.0, 0.0, 0.0, 0.0, 0.0, 0.0, 1.6635870520710387E9, 0.0, 2022-09-19 16:30:52.071
15.0, 9285.69695779049, -119816.61555965133, 17944.74040803199, 5030.461255366952, -183623.78282830512, 187500.0, 27262.936802260498, 14464.752610296324, 0.612, -0.6940000000000001, 0.44, 192.0, 19.0, 32.0, 234.0, 80.0, 13.0, 192.0, 0.0, 0.0, 0.0, 1.6635870520740116E9, 0.0, 2022-09-19 16:30:52.074
16.0, 9303.332484165727, -119806.26670196852, 17968.299146687885, 5033.970479246435, -183706.17135836737, 187500.0, 27284.97562229343, 14480.398831415037, 0.612, -0.6940000000000001, 0.44, 192.0, 0.0, 0.0, 0.0, 0.0, 0.0, 0.0, 0.0, 0.0, 0.0, 1.6635870520780811E9, 0.0, 2022-09-19 16:30:52.078
17.0, 9304.181850455028, -119795.35905067433, 17986.202893996586, 5037.457351381463, -183621.27943292612, 187500.0, 27293.245767741893, 14486.7690785848, 0.612, -0.6940000000000001, 0.44, 192.0, 0.0, 0.0, 0.0, 0.0, 0.0, 0.0, 0.0, 0.0, 0.0, 1.6635870520810473E9, 0.0, 2022-09-19 16:30:52.081
18.0, 9279.840800743199, -119819.07425154142, 17964.186425708107, 5040.027801993823, -183525.27869049058, 187500.0, 27270.759912819853, 14475.01206100131, 0.612, -0.6940000000000001, 0.44, 192.0, 0.0, 0.0, 0.0, 0.0, 0.0, 0.0, 0.0, 0.0, 0.0, 1.6635870520850384E9, 0.0, 2022-09-19 16:30:52.085
19.0, 9280.198428654485, -119836.06157732745, 17952.161187191152, 5047.627395108628, -183580.42044406183, 187500.0, 27264.21085169445, 14471.949872010931, 0.612, -0.6940000000000001, 0.44, 192.0, 0.0, 0.0, 0.0, 0.0, 0.0, 0.0, 0.0, 0.0, 0.0, 1.6635870520890326E9, 0.0, 2022-09-19 16:30:52.089
20.0, 9305.45589988898, -119831.8818011143, 17965.862806542256, 5052.164799233055, -183644.07821227054, 187500.0, 27281.39934318058, 14480.91292153751, 0.612, -0.6940000000000001, 0.44, 192.0, 0.0, 0.0, 0.0, 0.0, 0.0, 0.0, 0.0, 0.0, 0.0, 1.6635870520930889E9, 0.0, 2022-09-19 16:30:52.093
21.0, 9320.677437863045, -119817.24140849608, 17985.867617829754, 5046.196883463488, -183682.3667505225, 187500.0, 27296.68793638801, 14490.166543742007, 0.612, -0.6940000000000001, 0.44, 192.0, 0.0, 0.0, 0.0, 0.0, 0.0, 0.0, 0.0, 0.0, 0.0, 1.6635870520981016E9, 0.0, 2022-09-19 16:30:52.098
22.0, 9318.41991167306, -119810.62529213731, 17990.159152765173, 5041.61477585015, -183616.2502904237, 187500.0, 27297.470247443947, 14489.272473963794, 0.612, -0.6940000000000001, 0.44, 192.0, 0.0, 0.0, 0.0, 0.0, 0.0, 0.0, 0.0, 0.0, 0.0, 1.6635870521012447E9, 0.0, 2022-09-19 16:30:52.101
23.0, 9303.064263232263, -119827.85848711235, 17967.293318187396, 5045.906310785569, -183555.34178678296, 187500.0, 27274.962040777453, 14479.035375003265, 0.612, -0.6940000000000001, 0.44, 192.0, 0.0, 0.0, 0.0, 0.0, 0.0, 0.0, 0.0, 0.0, 0.0, 1.6635870521051173E9, 0.0, 2022-09-19 16:30:52.105
24.0, 9298.616266085657, -119846.11986233233, 17953.54699534738, 5050.3990114210865, -183559.61096997393, 187500.0, 27267.965944762942, 14473.402735400527, 0.612, -0.6940000000000001, 0.44, 192.0, 0.0, 0.0, 0.0, 0.0, 0.0, 0.0, 0.0, 0.0, 0.0, 1.6635870521091142E9, 0.0, 2022-09-19 16:30:52.109
25.0, 9308.003998756885, -119851.01489436805, 17958.352620405272, 5048.09678174219, -183617.591395091, 187500.0, 27277.800712323275, 14475.280281934773, 0.608, -0.6940000000000001, 0.444, 192.0, 19.0, 0.0, 234.0, 80.0, 13.0, 224.0, 0.0, 0.0, 0.0, 1.6635870521131194E9, 0.0, 2022-09-19 16:30:52.113
26.0, 9324.812510587277, -119840.9342576187, 17979.162094493164, 5043.469970639941, -183664.5524101916, 187500.0, 27298.766648622353, 14482.879875049577, 0.608, -0.6940000000000001, 0.444, 192.0, 0.0, 0.0, 0.0, 0.0, 0.0, 0.0, 0.0, 0.0, 0.0, 1.6635870521171548E9, 0.0, 2022-09-19 16:30:52.117
27.0, 9328.880528078143, -119838.22969653961, 17990.74029812101, 5043.581729362218, -183625.90624402836, 187500.0, 27305.06984055875, 14486.657319862525, 0.608, -0.6940000000000001, 0.444, 192.0, 0.0, 0.0, 0.0, 0.0, 0.0, 0.0, 0.0, 0.0, 0.0, 1.6635870521211178E9, 0.0, 2022-09-19 16:30:52.121
28.0, 9303.623056843646, -119860.0897026169, 17968.701478088078, 5036.183301947511, -183536.8792458629, 187500.0, 27276.30314544477, 14472.441610388949, 0.608, -0.6940000000000001, 0.444, 192.0, 0.0, 0.0, 0.0, 0.0, 0.0, 0.0, 0.0, 0.0, 0.0, 1.6635870521260927E9, 0.0, 2022-09-19 16:30:52.126
29.0, 9291.08372820422, -119882.08381916092, 17948.629611567212, 5030.32714490022, -183543.2718447771, 187500.0, 27262.48976737139, 14459.857578260611, 0.608, -0.6940000000000001, 0.444, 192.0, 0.0, 0.0, 0.0, 0.0, 0.0, 0.0, 0.0, 0.0, 0.0, 1.6635870521302474E9, 0.0, 2022-09-19 16:30:52.130
30.0, 9304.539478366314, -119882.32968834993, 17956.810350037857, 5032.227043178921, -183641.23954072472, 187500.0, 27273.01743900984, 14466.00430798582, 0.608, -0.6940000000000001, 0.444, 192.0, 0.0, 0.0, 0.0, 0.0, 0.0, 0.0, 0.0, 0.0, 0.0, 1.6635870521341393E9, 0.0, 2022-09-19 16:30:52.134
31.0, 9323.426702431048, -119869.49978703259, 17981.106696260777, 5036.250357180877, -183664.48535495822, 187500.0, 27293.53634041981, 14482.276377949283, 0.608, -0.6940000000000001, 0.444, 192.0, 0.0, 0.0, 0.0, 0.0, 0.0, 0.0, 0.0, 0.0, 0.0, 1.6635870521381717E9, 0.0, 2022-09-19 16:30:52.138
32.0, 9324.566641398269, -119863.46481602965, 17991.477905688036, 5034.641031580095, -183621.86057828195, 187500.0, 27295.995032309896, 14487.417279174004, 0.608, -0.6940000000000001, 0.444, 192.0, 0.0, 0.0, 0.0, 0.0, 0.0, 0.0, 0.0, 0.0, 0.0, 1.6635870521421497E9, 0.0, 2022-09-19 16:30:52.142
33.0, 9303.51129812137, -119884.74367675111, 17971.540149633904, 5036.831502536715, -183539.3826412419, 187500.0, 27273.911508788053, 14477.873084291588, 0.608, -0.6940000000000001, 0.444, 192.0, 0.0, 0.0, 0.0, 0.0, 0.0, 0.0, 0.0, 0.0, 0.0, 1.663587052146198E9, 0.0, 2022-09-19 16:30:52.146
34.0, 9300.69497832, -119897.64063330182, 17961.347754162285, 5038.217310692944, -183581.80625221806, 187500.0, 27269.374104663624, 14477.358994169117, 0.608, -0.6940000000000001, 0.444, 192.0, 0.0, 0.0, 0.0, 0.0, 0.0, 0.0, 0.0, 0.0, 0.0, 1.66358705215116E9, 0.0, 2022-09-19 16:30:52.151
35.0, 9312.250830203395, -119898.4452961022, 17965.68399258661, 5040.273671182832, -183635.6963080998, 187500.0, 27280.21470072445, 14480.15296222603, 0.614, -0.6960000000000001, 0.44, 192.0, 19.0, 48.0, 234.0, 64.0, 13.0, 192.0, 0.0, 0.0, 0.0, 1.6635870521551342E9, 0.0, 2022-09-19 16:30:52.155
36.0, 9327.13709201063, -119894.77961001154, 17980.27968171593, 5041.055982238768, -183652.81774435256, 187500.0, 27298.364317222156, 14486.053822762231, 0.614, -0.6960000000000001, 0.44, 192.0, 0.0, 0.0, 0.0, 0.0, 0.0, 0.0, 0.0, 0.0, 0.0, 1.663587052158209E9, 0.0, 2022-09-19 16:30:52.158
37.0, 9323.761978597877, -119898.48999959113, 17981.30786196087, 5035.132769958112, -183598.95004021528, 187500.0, 27296.531474176823, 14486.545561140247, 0.614, -0.6960000000000001, 0.44, 192.0, 0.0, 0.0, 0.0, 0.0, 0.0, 0.0, 0.0, 0.0, 0.0, 1.6635870521622417E9, 0.0, 2022-09-19 16:30:52.162
38.0, 9305.902934778087, -119919.92532252376, 17958.039695982898, 5035.4903978693965, -183535.94047259577, 187500.0, 27271.810444809253, 14473.67095633399, 0.614, -0.6960000000000001, 0.44, 192.0, 0.0, 0.0, 0.0, 0.0, 0.0, 0.0, 0.0, 0.0, 0.0, 1.6635870521651533E9, 0.0, 2022-09-19 16:30:52.165
39.0, 9297.83395502972, -119937.1585174988, 17945.187442921095, 5034.573976346729, -183570.96565615723, 187500.0, 27262.378008649113, 14469.29001442075, 0.614, -0.6960000000000001, 0.44, 192.0, 0.0, 0.0, 0.0, 0.0, 0.0, 0.0, 0.0, 0.0, 0.0, 1.6635870521691852E9, 0.0, 2022-09-19 16:30:52.169
40.0, 9310.283876691326, -119938.67843612176, 17951.31182090185, 5039.737229315905, -183642.84886632548, 187500.0, 27272.39159016509, 14477.806029058222, 0.614, -0.6960000000000001, 0.44, 192.0, 0.0, 0.0, 0.0, 0.0, 0.0, 0.0, 0.0, 0.0, 0.0, 1.663587052173248E9, 0.0, 2022-09-19 16:30:52.173
41.0, 9330.84748159021, -119927.74843308312, 17969.930824033123, 5039.334897915709, -183671.0567678281, 187500.0, 27290.87648282963, 14488.065479763209, 0.614, -0.6960000000000001, 0.44, 192.0, 0.0, 0.0, 0.0, 0.0, 0.0, 0.0, 0.0, 0.0, 0.0, 1.663587052177327E9, 0.0, 2022-09-19 16:30:52.177
42.0, 9330.154577512096, -119928.12841273886, 17972.32246068984, 5031.511787356351, -183611.46701711023, 187500.0, 27285.646174627087, 14488.601921630136, 0.614, -0.6960000000000001, 0.44, 192.0, 0.0, 0.0, 0.0, 0.0, 0.0, 0.0, 0.0, 0.0, 0.0, 1.6635870521812117E9, 0.0, 2022-09-19 16:30:52.181
43.0, 9316.676475605545, -119950.99424731663, 17950.440102868095, 5034.261051924354, -183549.4856297357, 187500.0, 27264.30025867227, 14480.801162815234, 0.614, -0.6960000000000001, 0.44, 192.0, 0.0, 0.0, 0.0, 0.0, 0.0, 0.0, 0.0, 0.0, 0.0, 1.6635870521841967E9, 0.0, 2022-09-19 16:30:52.184
44.0, 9318.956353539987, -119965.4111224903, 17943.64517255368, 5042.084162483712, -183575.99479865967, 187500.0, 27264.479072627913, 14484.444497161448, 0.614, -0.6960000000000001, 0.44, 192.0, 0.0, 0.0, 0.0, 0.0, 0.0, 0.0, 0.0, 0.0, 0.0, 1.6635870521882365E9, 0.0, 2022-09-19 16:30:52.188
45.0, 9326.824167588255, -119972.45192199374, 17949.07664645632, 5037.5467583592845, -183630.57775861953, 187500.0, 27272.436293654002, 14489.048956519242, 0.616, -0.7000000000000001, 0.444, 192.0, 19.0, 64.0, 234.0, 32.0, 13.0, 224.0, 0.0, 0.0, 0.0, 1.6635870521932447E9, 0.0, 2022-09-19 16:30:52.193
46.0, 9343.789141629833, -119965.09819806794, 17966.30984143136, 5031.467083867441, -183683.08200634504, 187500.0, 27289.87065432914, 14498.883724079576, 0.616, -0.7000000000000001, 0.444, 192.0, 0.0, 0.0, 0.0, 0.0, 0.0, 0.0, 0.0, 0.0, 0.0, 1.6635870521972744E9, 0.0, 2022-09-19 16:30:52.197
47.0, 9344.660859663589, -119961.38780848835, 17972.12129498974, 5030.125979200123, -183615.87031076793, 187500.0, 27291.010593296363, 14497.900247323543, 0.616, -0.7000000000000001, 0.444, 192.0, 0.0, 0.0, 0.0, 0.0, 0.0, 0.0, 0.0, 0.0, 0.0, 1.663587052201266E9, 0.0, 2022-09-19 16:30:52.201
48.0, 9324.454882675993, -119983.0242971211, 17951.98237323551, 5037.770275803838, -183543.78593489958, 187500.0, 27270.98343026441, 14485.807953573223, 0.616, -0.7000000000000001, 0.444, 192.0, 0.0, 0.0, 0.0, 0.0, 0.0, 0.0, 0.0, 0.0, 0.0, 1.663587052205289E9, 0.0, 2022-09-19 16:30:52.205
49.0, 9323.672571620056, -119998.37994556189, 17946.528547588416, 5040.676002583027, -183618.9548515028, 187500.0, 27270.335229675202, 14486.143229740052, 0.616, -0.7000000000000001, 0.444, 192.0, 0.0, 0.0, 0.0, 0.0, 0.0, 0.0, 0.0, 0.0, 0.0, 1.663587052209299E9, 0.0, 2022-09-19 16:30:52.209
50.0, 9331.540385668324, -119999.58693976248, 17958.46437912755, 5032.51761585684, -183655.27643624265, 187500.0, 27281.801674580776, 14489.786564086267, 0.616, -0.7000000000000001, 0.444, 192.0, 0.0, 0.0, 0.0, 0.0, 0.0, 0.0, 0.0, 0.0, 0.0, 1.6635870522142887E9, 0.0, 2022-09-19 16:30:52.214
51.0, 9342.22451951796, -119991.80853269203, 17976.7928095809, 5025.342705886687, -183678.87987838744, 187500.0, 27296.531474176823, 14492.58053214318, 0.616, -0.7000000000000001, 0.444, 192.0, 0.0, 0.0, 0.0, 0.0, 0.0, 0.0, 0.0, 0.0, 0.0, 1.6635870522182772E9, 0.0, 2022-09-19 16:30:52.218
52.0, 9347.365420742683, -119985.55004424455, 17984.571216651348, 5029.991868733391, -183615.4009241344, 187500.0, 27299.034869555817, 14494.078099021686, 0.616, -0.7000000000000001, 0.444, 192.0, 0.0, 0.0, 0.0, 0.0, 0.0, 0.0, 0.0, 0.0, 0.0, 1.663587052222346E9, 0.0, 2022-09-19 16:30:52.222
53.0, 9332.166234513074, -120006.53833228808, 17962.152416962675, 5031.511787356351, -183537.30392900752, 187500.0, 27275.07379949973, 14480.108258737118, 0.616, -0.7000000000000001, 0.444, 192.0, 0.0, 0.0, 0.0, 0.0, 0.0, 0.0, 0.0, 0.0, 0.0, 1.663587052226313E9, 0.0, 2022-09-19 16:30:52.226
54.0, 9324.499586164902, -120025.26909414162, 17948.115521444743, 5024.068656452734, -183587.14831914287, 187500.0, 27263.227374938415, 14467.792447542244, 0.616, -0.7000000000000001, 0.444, 192.0, 0.0, 0.0, 0.0, 0.0, 0.0, 0.0, 0.0, 0.0, 0.0, 1.6635870522303147E9, 0.0, 2022-09-19 16:30:52.230
55.0, 9338.13415028264, -120025.15733541934, 17958.240861682996, 5026.035609964802, -183671.9061341174, 187500.0, 27277.35367743417, 14471.256967932817, 0.608, -0.6980000000000001, 0.432, 192.0, 19.0, 0.0, 234.0, 48.0, 13.0, 128.0, 0.0, 0.0, 0.0, 1.6635870522344043E9, 0.0, 2022-09-19 16:30:52.234
56.0, 9355.23323479095, -120011.12043990141, 17982.336042205818, 5025.074484953223, -183697.76710245217, 187500.0, 27297.984337566417, 14482.835171560666, 0.608, -0.6980000000000001, 0.432, 192.0, 0.0, 0.0, 0.0, 0.0, 0.0, 0.0, 0.0, 0.0, 0.0, 1.6635870522373996E9, 0.0, 2022-09-19 16:30:52.237
57.0, 9345.376115486159, -120017.60244579345, 17981.263158471964, 5024.6274500641175, -183586.76833948714, 187500.0, 27293.871616586643, 14479.52711338128, 0.608, -0.6980000000000001, 0.432, 192.0, 0.0, 0.0, 0.0, 0.0, 0.0, 0.0, 0.0, 0.0, 0.0, 1.6635870522403276E9, 0.0, 2022-09-19 16:30:52.240
58.0, 9322.599687886202, -120045.72094031824, 17953.882271514212, 5028.583708832706, -183549.19505705775, 187500.0, 27271.877500042618, 14465.333755652162, 0.608, -0.6980000000000001, 0.432, 192.0, 0.0, 0.0, 0.0, 0.0, 0.0, 0.0, 0.0, 0.0, 0.0, 1.663587052244314E9, 0.0, 2022-09-19 16:30:52.244
59.0, 9319.112815751174, -120062.59650738198, 17943.444006853584, 5028.069618710234, -183570.04923463456, 187500.0, 27265.57430810622, 14460.170502682986, 0.608, -0.6980000000000001, 0.432, 192.0, 0.0, 0.0, 0.0, 0.0, 0.0, 0.0, 0.0, 0.0, 0.0, 1.663587052248424E9, 0.0, 2022-09-19 16:30:52.248
60.0, 9330.199281001005, -120060.13781549191, 17956.720943060034, 5027.443769865486, -183658.8974188444, 187500.0, 27278.895947801586, 14465.892549263544, 0.608, -0.6980000000000001, 0.432, 192.0, 0.0, 0.0, 0.0, 0.0, 0.0, 0.0, 0.0, 0.0, 0.0, 1.663587052253415E9, 0.0, 2022-09-19 16:30:52.253
61.0, 9347.030144575852, -120050.92889677631, 17976.882216558723, 5028.673115810528, -183689.8098814261, 187500.0, 27299.50425618938, 14476.934311024466, 0.608, -0.6980000000000001, 0.432, 192.0, 0.0, 0.0, 0.0, 0.0, 0.0, 0.0, 0.0, 0.0, 0.0, 1.6635870522573934E9, 0.0, 2022-09-19 16:30:52.257
62.0, 9345.353763741705, -120054.48282414471, 17976.74810609199, 5032.294098412287, -183599.06179893756, 187500.0, 27296.46441894346, 14479.281244192272, 0.608, -0.6980000000000001, 0.432, 192.0, 0.0, 0.0, 0.0, 0.0, 0.0, 0.0, 0.0, 0.0, 0.0, 1.6635870522613676E9, 0.0, 2022-09-19 16:30:52.261
63.0, 9332.568565913269, -120071.6936673753, 17958.50908261646, 5034.953956002469, -183585.56134528655, 187500.0, 27278.82889256822, 14473.559197611714, 0.608, -0.6980000000000001, 0.432, 192.0, 0.0, 0.0, 0.0, 0.0, 0.0, 0.0, 0.0, 0.0, 0.0, 1.6635870522644043E9, 0.0, 2022-09-19 16:30:52.264
64.0, 9336.949507826508, -120081.70724889127, 17952.228242424517, 5036.920909514536, -183593.1832901458, 187500.0, 27277.599546623176, 14476.844904046644, 0.608, -0.6980000000000001, 0.432, 192.0, 0.0, 0.0, 0.0, 0.0, 0.0, 0.0, 0.0, 0.0, 0.0, 1.663587052268426E9, 0.0, 2022-09-19 16:30:52.268
65.0, 9347.968917842974, -120085.5964524265, 17959.7384285615, 5039.491360126896, -183652.81774435256, 187500.0, 27289.82595084023, 14488.937197796966, 0.61, -0.7000000000000001, 0.426, 192.0, 19.0, 16.0, 234.0, 32.0, 13.0, 80.0, 0.0, 0.0, 0.0, 1.663587052272334E9, 0.0, 2022-09-19 16:30:52.272
66.0, 9363.905711639609, -120076.342830222, 17979.542074148903, 5043.537025873306, -183672.21905853978, 187500.0, 27308.668471416055, 14503.10820378163, 0.61, -0.7000000000000001, 0.426, 192.0, 0.0, 0.0, 0.0, 0.0, 0.0, 0.0, 0.0, 0.0, 0.0, 1.663587052276368E9, 0.0, 2022-09-19 16:30:52.276
67.0, 9356.976670858463, -120076.9463273223, 17979.89970206019, 5047.1133049861555, -183600.7828832606, 187500.0, 27303.326404491236, 14505.030453804786, 0.61, -0.7000000000000001, 0.426, 192.0, 0.0, 0.0, 0.0, 0.0, 0.0, 0.0, 0.0, 0.0, 0.0, 1.663587052281411E9, 0.0, 2022-09-19 16:30:52.281
68.0, 9335.496644436913, -120102.33790902352, 17955.938632004098, 5046.152179974578, -183549.9773681137, 187500.0, 27277.085456500707, 14492.625235632091, 0.61, -0.7000000000000001, 0.426, 192.0, 0.0, 0.0, 0.0, 0.0, 0.0, 0.0, 0.0, 0.0, 0.0, 1.6635870522854056E9, 0.0, 2022-09-19 16:30:52.285
69.0, 9333.194414758018, -120115.27956906315, 17949.523681345425, 5043.581729362218, -183611.55642408808, 187500.0, 27275.29731694428, 14488.53486639677, 0.61, -0.7000000000000001, 0.426, 192.0, 0.0, 0.0, 0.0, 0.0, 0.0, 0.0, 0.0, 0.0, 0.0, 1.6635870522894287E9, 0.0, 2022-09-19 16:30:52.289
70.0, 9342.537443940335, -120112.10562135049, 17962.21947219604, 5044.453447395975, -183677.0470353421, 187500.0, 27289.669488629042, 14494.659244377524, 0.61, -0.7000000000000001, 0.426, 192.0, 0.0, 0.0, 0.0, 0.0, 0.0, 0.0, 0.0, 0.0, 0.0, 1.6635870522934475E9, 0.0, 2022-09-19 16:30:52.293
71.0, 9349.645298677124, -120107.45645850379, 17978.871521815243, 5047.493284641896, -183644.36878494846, 187500.0, 27306.768573137353, 14502.102375281142, 0.61, -0.7000000000000001, 0.426, 192.0, 0.0, 0.0, 0.0, 0.0, 0.0, 0.0, 0.0, 0.0, 0.0, 1.6635870522965136E9, 0.0, 2022-09-19 16:30:52.296
72.0, 9348.773580643367, -120110.20572307179, 17979.720888104544, 5052.09774399969, -183615.087999712, 187500.0, 27303.50521844688, 14506.080985794186, 0.61, -0.7000000000000001, 0.426, 192.0, 0.0, 0.0, 0.0, 0.0, 0.0, 0.0, 0.0, 0.0, 0.0, 1.6635870523024075E9, 0.0, 2022-09-19 16:30:52.302
73.0, 9336.748342126411, -120128.24358084722, 17963.493521629993, 5055.092877756701, -183558.47103100672, 187500.0, 27284.10390425967, 14498.86137233512, 0.61, -0.7000000000000001, 0.426, 192.0, 0.0, 0.0, 0.0, 0.0, 0.0, 0.0, 0.0, 0.0, 0.0, 1.6635870523064158E9, 0.0, 2022-09-19 16:30:52.306
74.0, 9332.948545569008, -120142.28047636515, 17955.78216979291, 5055.316395201254, -183598.4806535817, 187500.0, 27280.81819782474, 14497.028529289786, 0.61, -0.7000000000000001, 0.426, 192.0, 0.0, 0.0, 0.0, 0.0, 0.0, 0.0, 0.0, 0.0, 0.0, 1.663587052310472E9, 0.0, 2022-09-19 16:30:52.310
75.0, 9342.962127084986, -120144.3591885995, 17960.878367528723, 5053.95293878948, -183642.49123841422, 187500.0, 27290.988241551906, 14501.96826481441, 0.618, -0.706, 0.426, 192.0, 19.0, 80.0, 233.0, 240.0, 13.0, 80.0, 0.0, 0.0, 0.0, 1.6635870523144689E9, 0.0, 2022-09-19 16:30:52.314
76.0, 9356.306118524804, -120132.95979892729, 17977.016327025452, 5046.196883463488, -183708.00420141272, 187500.0, 27307.148552793093, 14511.467756207914, 0.618, -0.706, 0.426, 192.0, 0.0, 0.0, 0.0, 0.0, 0.0, 0.0, 0.0, 0.0, 0.0, 1.6635870523184898E9, 0.0, 2022-09-19 16:30:52.318
77.0, 9349.019449832374, -120132.87039194947, 17974.915263046656, 5048.499113142385, -183598.21243264826, 187500.0, 27300.331270734227, 14515.02168357631, 0.618, -0.706, 0.426, 192.0, 0.0, 0.0, 0.0, 0.0, 0.0, 0.0, 0.0, 0.0, 0.0, 1.6635870523214605E9, 0.0, 2022-09-19 16:30:52.321
78.0, 9331.98742055743, -120153.07636893707, 17952.49646335798, 5050.5778253767285, -183552.65957744833, 187500.0, 27280.706439102465, 14506.818593361211, 0.618, -0.706, 0.426, 192.0, 0.0, 0.0, 0.0, 0.0, 0.0, 0.0, 0.0, 0.0, 0.0, 1.6635870523245173E9, 0.0, 2022-09-19 16:30:52.324
79.0, 9335.161368270084, -120162.73232254176, 17949.8366057678, 5051.918930044047, -183610.21531942073, 187500.0, 27284.081552515217, 14508.696139895457, 0.618, -0.706, 0.426, 192.0, 0.0, 0.0, 0.0, 0.0, 0.0, 0.0, 0.0, 0.0, 0.0, 1.6635870523284528E9, 0.0, 2022-09-19 16:30:52.328
80.0, 9350.047630077319, -120158.88782249545, 17962.353582662774, 5045.682793341016, -183670.07329107207, 187500.0, 27296.799695110287, 14513.702930653446, 0.618, -0.706, 0.426, 192.0, 0.0, 0.0, 0.0, 0.0, 0.0, 0.0, 0.0, 0.0, 0.0, 1.6635870523325212E9, 0.0, 2022-09-19 16:30:52.332
81.0, 9359.770638915377, -120149.25422063521, 17977.061030514364, 5042.531197372818, -183680.3103900326, 187500.0, 27310.769535394855, 14516.072215565708, 0.618, -0.706, 0.426, 192.0, 0.0, 0.0, 0.0, 0.0, 0.0, 0.0, 0.0, 0.0, 0.0, 1.663587052336517E9, 0.0, 2022-09-19 16:30:52.336
82.0, 9348.460656220992, -120155.3115433826, 17968.075629243333, 5042.195921205988, -183574.51958352563, 187500.0, 27297.31378523276, 14511.311293996729, 0.618, -0.706, 0.426, 192.0, 0.0, 0.0, 0.0, 0.0, 0.0, 0.0, 0.0, 0.0, 0.0, 1.6635870523415117E9, 0.0, 2022-09-19 16:30:52.341
83.0, 9331.875661835154, -120173.6176220915, 17947.959059233555, 5046.4651043969525, -183556.9287606393, 187500.0, 27277.264270456348, 14503.689349137469, 0.618, -0.706, 0.426, 192.0, 0.0, 0.0, 0.0, 0.0, 0.0, 0.0, 0.0, 0.0, 0.0, 1.6635870523455446E9, 0.0, 2022-09-19 16:30:52.345
84.0, 9329.215804244972, -120185.0170117637, 17941.678219041612, 5041.972403761435, -183596.31253436956, 187500.0, 27276.68312510051, 14501.811802603223, 0.618, -0.706, 0.426, 192.0, 0.0, 0.0, 0.0, 0.0, 0.0, 0.0, 0.0, 0.0, 0.0, 1.6635870523485727E9, 0.0, 2022-09-19 16:30:52.348
85.0, 9341.263394506383, -120179.94316577235, 17953.45758836956, 5038.150255459578, -183670.6991399168, 187500.0, 27290.004764795875, 14509.187878273473, 0.62, -0.6980000000000001, 0.428, 192.0, 19.0, 96.0, 234.0, 48.0, 13.0, 96.0, 0.0, 0.0, 0.0, 1.6635870523525388E9, 0.0, 2022-09-19 16:30:52.352
86.0, 9354.026240590363, -120170.0636947231, 17970.489617644504, 5036.47387462543, -183682.1655848224, 187500.0, 27308.936692349518, 14513.054730064241, 0.62, -0.6980000000000001, 0.428, 192.0, 0.0, 0.0, 0.0, 0.0, 0.0, 0.0, 0.0, 0.0, 0.0, 1.6635870523564806E9, 0.0, 2022-09-19 16:30:52.356
87.0, 9342.269223006871, -120176.88097678198, 17965.415771653148, 5037.3679444036425, -183582.78972897408, 187500.0, 27296.844398599198, 14507.042110805764, 0.62, -0.6980000000000001, 0.428, 192.0, 0.0, 0.0, 0.0, 0.0, 0.0, 0.0, 0.0, 0.0, 0.0, 1.663587052360498E9, 0.0, 2022-09-19 16:30:52.360
88.0, 9325.348952454204, -120195.54468340216, 17948.22728016702, 5044.744020073894, -183559.20863857373, 187500.0, 27278.426561168024, 14498.973131057399, 0.62, -0.6980000000000001, 0.428, 192.0, 0.0, 0.0, 0.0, 0.0, 0.0, 0.0, 0.0, 0.0, 0.0, 1.6635870523645852E9, 0.0, 2022-09-19 16:30:52.364
89.0, 9338.268260749372, -120202.2725584832, 17946.014457465943, 5047.04624975279, -183604.06858969553, 187500.0, 27282.62868912562, 14497.7214333679, 0.62, -0.6980000000000001, 0.428, 192.0, 0.0, 0.0, 0.0, 0.0, 0.0, 0.0, 0.0, 0.0, 0.0, 1.6635870523695111E9, 0.0, 2022-09-19 16:30:52.369
90.0, 9355.568510957779, -120200.28325322668, 17955.89392851519, 5043.715839828949, -183647.83330533904, 187500.0, 27294.475113686934, 14503.354072970638, 0.62, -0.6980000000000001, 0.428, 192.0, 0.0, 0.0, 0.0, 0.0, 0.0, 0.0, 0.0, 0.0, 0.0, 1.6635870523725576E9, 0.0, 2022-09-19 16:30:52.372
91.0, 9371.773525687877, -120187.05102050914, 17976.815161325358, 5042.575900861729, -183707.15483512342, 187500.0, 27313.78702089632, 14515.44636672096, 0.62, -0.6980000000000001, 0.428, 192.0, 0.0, 0.0, 0.0, 0.0, 0.0, 0.0, 0.0, 0.0, 0.0, 1.6635870523775344E9, 0.0, 2022-09-19 16:30:52.377
92.0, 9364.173932573072, -120188.03449726517, 17975.18348398012, 5043.022935750835, -183592.51273781215, 187500.0, 27306.634462670623, 14512.92061959751, 0.62, -0.6980000000000001, 0.428, 192.0, 0.0, 0.0, 0.0, 0.0, 0.0, 0.0, 0.0, 0.0, 0.0, 1.663587052380604E9, 0.0, 2022-09-19 16:30:52.380
93.0, 9344.772618385867, -120206.76525911872, 17953.323477902828, 5040.228967693922, -183559.54391474056, 187500.0, 27284.461532170957, 14504.359901471127, 0.62, -0.6980000000000001, 0.428, 192.0, 0.0, 0.0, 0.0, 0.0, 0.0, 0.0, 0.0, 0.0, 0.0, 1.6635870523845994E9, 0.0, 2022-09-19 16:30:52.384
94.0, 9345.84550211972, -120216.04123306766, 17950.529509845914, 5036.585633347707, -183611.01998222113, 187500.0, 27286.629651383122, 14501.543581669759, 0.62, -0.6980000000000001, 0.428, 192.0, 0.0, 0.0, 0.0, 0.0, 0.0, 0.0, 0.0, 0.0, 0.0, 1.6635870523885605E9, 0.0, 2022-09-19 16:30:52.388
95.0, 9368.823095419777, -120205.04417479565, 17969.774361821936, 5039.983098504913, -183694.8166721841, 187500.0, 27307.193256282004, 14511.02072131881, 0.62, -0.7000000000000001, 0.43, 192.0, 19.0, 96.0, 234.0, 32.0, 13.0, 112.0, 0.0, 0.0, 0.0, 1.6635870523925977E9, 0.0, 2022-09-19 16:30:52.392
96.0, 9383.95522641602, -120196.70697411383, 17983.207760239573, 5043.42526715103, -183648.66031988387, 187500.0, 27323.264160545372, 14514.574648687203, 0.62, -0.7000000000000001, 0.43, 192.0, 0.0, 0.0, 0.0, 0.0, 0.0, 0.0, 0.0, 0.0, 0.0, 1.6635870523976667E9, 0.0, 2022-09-19 16:30:52.397
97.0, 9373.762830944399, -120206.83231435208, 17977.66452761466, 5044.296985184787, -183583.10265339646, 187500.0, 27313.83172438523, 14506.930352083487, 0.62, -0.7000000000000001, 0.43, 192.0, 0.0, 0.0, 0.0, 0.0, 0.0, 0.0, 0.0, 0.0, 0.0, 1.6635870524006617E9, 0.0, 2022-09-19 16:30:52.400
98.0, 9357.647223192123, -120224.44548898286, 17962.510044873958, 5047.225063708433, -183554.73828968266, 187500.0, 27294.564520664757, 14497.766136856811, 0.62, -0.7000000000000001, 0.43, 192.0, 0.0, 0.0, 0.0, 0.0, 0.0, 0.0, 0.0, 0.0, 0.0, 1.6635870524046328E9, 0.0, 2022-09-19 16:30:52.404
99.0, 9360.150618571117, -120232.73798617578, 17960.297222172885, 5045.638089852106, -183603.86742399543, 187500.0, 27296.576177665735, 14497.63202639008, 0.62, -0.7000000000000001, 0.43, 192.0, 0.0, 0.0, 0.0, 0.0, 0.0, 0.0, 0.0, 0.0, 0.0, 1.6635870524086325E9, 0.0, 2022-09-19 16:30:52.408
100.0, 9369.784220431355, -120227.59708495106, 17972.545978134392, 5041.972403761435, -183664.0383200691, 187500.0, 27312.468267973458, 14502.370596214605, 0.62, -0.7000000000000001, 0.43, 192.0, 0.0, 0.0, 0.0, 0.0, 0.0, 0.0, 0.0, 0.0, 0.0, 1.663587052412728E9, 0.0, 2022-09-19 16:30:52.412
101.0, 9372.533484999358, -120217.33763424607, 17987.56635040836, 5037.904386270569, -183659.9032473449, 187500.0, 27324.58291346823, 14503.577590415192, 0.62, -0.7000000000000001, 0.43, 192.0, 0.0, 0.0, 0.0, 0.0, 0.0, 0.0, 0.0, 0.0, 0.0, 1.6635870524167228E9, 0.0, 2022-09-19 16:30:52.416
102.0, 9356.686098180544, -120223.0820325711, 17978.871521815243, 5037.23383393691, -183590.65754302236, 187500.0, 27311.909474362074, 14497.922599067999, 0.62, -0.7000000000000001, 0.43, 192.0, 0.0, 0.0, 0.0, 0.0, 0.0, 0.0, 0.0, 0.0, 0.0, 1.6635870524207108E9, 0.0, 2022-09-19 16:30:52.420
103.0, 9345.778446886356, -120239.68937870138, 17956.631536082215, 5042.821770050737, -183545.082336078, 187500.0, 27294.072782286737, 14491.507648409326, 0.62, -0.7000000000000001, 0.43, 192.0, 0.0, 0.0, 0.0, 0.0, 0.0, 0.0, 0.0, 0.0, 0.0, 1.6635870524247084E9, 0.0, 2022-09-19 16:30:52.424
104.0, 9350.829941133254, -120248.3842072945, 17950.976544735022, 5043.335860173209, -183594.8820227244, 187500.0, 27294.676279387033, 14491.619407131602, 0.62, -0.7000000000000001, 0.43, 192.0, 0.0, 0.0, 0.0, 0.0, 0.0, 0.0, 0.0, 0.0, 0.0, 1.6635870524286864E9, 0.0, 2022-09-19 16:30:52.428
105.0, 9360.620005204679, -120242.30453280265, 17965.438123397606, 5039.558415360262, -183657.8915903439, 187500.0, 27305.963910336963, 14497.743785112356, 0.62, -0.7000000000000001, 0.43, 192.0, 0.0, 0.0, 0.0, 0.0, 0.0, 0.0, 0.0, 0.0, 0.0, 1.6635870524326043E9, 0.0, 2022-09-19 16:30:52.432
106.0, 9362.586958716745, -120233.14031757598, 17981.732545105522, 5039.04432523779, -183654.851753098, 187500.0, 27315.709270919477, 14502.325892725694, 0.614, -0.7020000000000001, 0.43, 192.0, 19.0, 48.0, 234.0, 16.0, 13.0, 112.0, 0.0, 0.0, 0.0, 1.6635870524366336E9, 0.0, 2022-09-19 16:30:52.436
107.0, 9349.04180157683, -120241.54457349118, 17971.920129289643, 5041.681831083516, -183569.04340613406, 187500.0, 27301.068878301252, 14497.587322901169, 0.614, -0.7020000000000001, 0.43, 192.0, 0.0, 0.0, 0.0, 0.0, 0.0, 0.0, 0.0, 0.0, 0.0, 1.6635870524406567E9, 0.0, 2022-09-19 16:30:52.440
108.0, 9345.174949786062, -120259.56007952215, 17950.037771467898, 5046.040421252301, -183551.54199022555, 187500.0, 27283.07572401473, 14486.478505906882, 0.614, -0.7020000000000001, 0.43, 192.0, 0.0, 0.0, 0.0, 0.0, 0.0, 0.0, 0.0, 0.0, 0.0, 1.663587052444638E9, 0.0, 2022-09-19 16:30:52.444
109.0, 9355.18853130204, -120267.07026565913, 17946.84147201079, 5046.778028819326, -183587.5282987986, 187500.0, 27287.300203716783, 14482.879875049577, 0.614, -0.7020000000000001, 0.43, 192.0, 0.0, 0.0, 0.0, 0.0, 0.0, 0.0, 0.0, 0.0, 0.0, 1.6635870524488015E9, 0.0, 2022-09-19 16:30:52.448
110.0, 9366.565569229791, -120264.72333249132, 17956.855053526768, 5044.408743907064, -183641.79833433608, 187500.0, 27302.387631224112, 14487.037299518264, 0.614, -0.7020000000000001, 0.43, 192.0, 0.0, 0.0, 0.0, 0.0, 0.0, 0.0, 0.0, 0.0, 0.0, 1.6635870524527335E9, 0.0, 2022-09-19 16:30:52.452
111.0, 9373.852237922221, -120259.7835969667, 17966.645117598193, 5039.7148775714495, -183653.8012211086, 187500.0, 27314.524628463347, 14493.675767621491, 0.614, -0.7020000000000001, 0.43, 192.0, 0.0, 0.0, 0.0, 0.0, 0.0, 0.0, 0.0, 0.0, 0.0, 1.6635870524567513E9, 0.0, 2022-09-19 16:30:52.456
112.0, 9360.977633115965, -120271.20533838337, 17951.535338346403, 5035.870377525137, -183562.8296211755, 187500.0, 27295.54799742079, 14484.399793672537, 0.614, -0.7020000000000001, 0.43, 192.0, 0.0, 0.0, 0.0, 0.0, 0.0, 0.0, 0.0, 0.0, 0.0, 1.6635870524597156E9, 0.0, 2022-09-19 16:30:52.459
113.0, 9346.18077828655, -120295.27816716173, 17925.048521166864, 5031.958822245458, -183548.54685646854, 187500.0, 27273.844453554688, 14472.218092944395, 0.614, -0.7020000000000001, 0.43, 192.0, 0.0, 0.0, 0.0, 0.0, 0.0, 0.0, 0.0, 0.0, 0.0, 1.6635870524647737E9, 0.0, 2022-09-19 16:30:52.464
114.0, 9353.646260934624, -120301.62606258703, 17924.15445138865, 5041.57007236124, -183596.9830867032, 187500.0, 27282.561633892255, 14478.588340114158, 0.614, -0.7020000000000001, 0.43, 192.0, 0.0, 0.0, 0.0, 0.0, 0.0, 0.0, 0.0, 0.0, 0.0, 1.6635870524687588E9, 0.0, 2022-09-19 16:30:52.468
115.0, 9370.208903576005, -120301.42489688694, 17934.8832887272, 5045.593386363195, -183647.90036057238, 187500.0, 27300.241863756404, 14484.064517505709, 0.614, -0.7020000000000001, 0.43, 192.0, 0.0, 0.0, 0.0, 0.0, 0.0, 0.0, 0.0, 0.0, 0.0, 1.6635870524727094E9, 0.0, 2022-09-19 16:30:52.472
116.0, 9384.983406660964, -120294.07117296115, 17950.26128891245, 5039.781932804815, -183632.90234004287, 187500.0, 27312.51297146237, 14486.545561140247, 0.614, -0.7000000000000001, 0.424, 192.0, 19.0, 48.0, 234.0, 32.0, 13.0, 64.0, 0.0, 0.0, 0.0, 1.663587052476864E9, 0.0, 2022-09-19 16:30:52.476
117.0, 9373.963996644497, -120302.58718759862, 17941.544108574883, 5041.52536887233, -183580.44279580627, 187500.0, 27296.35266022118, 14479.236540703361, 0.614, -0.7000000000000001, 0.424, 192.0, 0.0, 0.0, 0.0, 0.0, 0.0, 0.0, 0.0, 0.0, 0.0, 1.6635870524827845E9, 0.0, 2022-09-19 16:30:52.482
118.0, 9360.843522649231, -120326.57060939916, 17921.047558909366, 5037.747924059382, -183525.5692631685, 187500.0, 27276.6384216116, 14464.618499829592, 0.614, -0.7000000000000001, 0.424, 192.0, 0.0, 0.0, 0.0, 0.0, 0.0, 0.0, 0.0, 0.0, 0.0, 1.6635870524858088E9, 0.0, 2022-09-19 16:30:52.485
119.0, 9364.509208739903, -120337.18768801543, 17918.0300734079, 5031.936470501002, -183600.9393454718, 187500.0, 27274.850282055177, 14459.522302093781, 0.614, -0.7000000000000001, 0.424, 192.0, 0.0, 0.0, 0.0, 0.0, 0.0, 0.0, 0.0, 0.0, 0.0, 1.663587052488826E9, 0.0, 2022-09-19 16:30:52.488
120.0, 9382.792935704343, -120328.55991465568, 17934.793881749378, 5037.770275803838, -183668.7992416381, 187500.0, 27291.189407252004, 14472.978052255876, 0.614, -0.7000000000000001, 0.424, 192.0, 0.0, 0.0, 0.0, 0.0, 0.0, 0.0, 0.0, 0.0, 0.0, 1.6635870524928656E9, 0.0, 2022-09-19 16:30:52.492
121.0, 9386.793897961843, -120322.7484610973, 17947.02028596643, 5038.843159537692, -183641.08307851353, 187500.0, 27305.74039289241, 14478.878912792077, 0.614, -0.7000000000000001, 0.424, 192.0, 0.0, 0.0, 0.0, 0.0, 0.0, 0.0, 0.0, 0.0, 0.0, 1.663587052496704E9, 0.0, 2022-09-19 16:30:52.496
122.0, 9372.28761581035, -120337.83588860463, 17931.038788680886, 5039.6031188491725, -183561.51086825263, 187500.0, 27290.49650317389, 14468.53005510927, 0.614, -0.7000000000000001, 0.424, 192.0, 0.0, 0.0, 0.0, 0.0, 0.0, 0.0, 0.0, 0.0, 0.0, 1.6635870525007885E9, 0.0, 2022-09-19 16:30:52.500
123.0, 9364.442153506536, -120354.13031031255, 17915.951361173557, 5041.838293294703, -183571.43504279078, 187500.0, 27278.49361640139, 14462.450380617427, 0.614, -0.7000000000000001, 0.424, 192.0, 0.0, 0.0, 0.0, 0.0, 0.0, 0.0, 0.0, 0.0, 0.0, 1.663587052504736E9, 0.0, 2022-09-19 16:30:52.504
124.0, 9367.593749474734, -120361.72990342736, 17915.660788495636, 5042.933528773014, -183591.75277850067, 187500.0, 27284.48388391541, 14467.121895208586, 0.614, -0.7000000000000001, 0.424, 192.0, 0.0, 0.0, 0.0, 0.0, 0.0, 0.0, 0.0, 0.0, 0.0, 1.66358705250774E9, 0.0, 2022-09-19 16:30:52.507
125.0, 9376.534447256858, -120360.6570196935, 17926.389625834185, 5038.753752559871, -183671.81672713958, 187500.0, 27299.012517811363, 14474.855598790122, 0.614, -0.7000000000000001, 0.424, 192.0, 0.0, 0.0, 0.0, 0.0, 0.0, 0.0, 0.0, 0.0, 0.0, 1.6635870525118558E9, 0.0, 2022-09-19 16:30:52.511
126.0, 9390.839563708254, -120345.79310963073, 17946.77441677742, 5043.022935750835, -183644.48054367074, 187500.0, 27319.84434364371, 14493.362843199116, 0.614, -0.6980000000000001, 0.424, 192.0, 19.0, 48.0, 234.0, 48.0, 13.0, 64.0, 0.0, 0.0, 0.0, 1.6635870525158224E9, 0.0, 2022-09-19 16:30:52.515
127.0, 9378.18847634655, -120357.84069989214, 17932.871631726222, 5043.402915406575, -183568.66342647834, 187500.0, 27302.298224246293, 14492.938160054466, 0.614, -0.6980000000000001, 0.424, 192.0, 0.0, 0.0, 0.0, 0.0, 0.0, 0.0, 0.0, 0.0, 0.0, 1.6635870525208132E9, 0.0, 2022-09-19 16:30:52.520
128.0, 9367.012604118896, -120372.50344425482, 17917.20305886305, 5039.446656637986, -183573.20083060276, 187500.0, 27283.008668781364, 14489.764212341812, 0.614, -0.6980000000000001, 0.424, 192.0, 0.0, 0.0, 0.0, 0.0, 0.0, 0.0, 0.0, 0.0, 0.0, 1.6635870525248187E9, 0.0, 2022-09-19 16:30:52.524
129.0, 9365.403278518115, -120375.87855766757, 17918.387701319185, 5030.1483309445775, -183623.98399400522, 187500.0, 27280.617032124643, 14490.05478501973, 0.614, -0.6980000000000001, 0.424, 192.0, 0.0, 0.0, 0.0, 0.0, 0.0, 0.0, 0.0, 0.0, 0.0, 1.6635870525287974E9, 0.0, 2022-09-19 16:30:52.528
130.0, 9374.567493744791, -120369.41890351998, 17934.21273639354, 5032.85289202367, -183671.9508376063, 187500.0, 27296.59852941019, 14499.934256068977, 0.614, -0.6980000000000001, 0.424, 192.0, 0.0, 0.0, 0.0, 0.0, 0.0, 0.0, 0.0, 0.0, 0.0, 1.663587052532822E9, 0.0, 2022-09-19 16:30:52.532
131.0, 9377.070889123785, -120361.88636563855, 17945.343905132282, 5028.695467554983, -183647.4980291722, 187500.0, 27304.354584736182, 14504.96339857142, 0.614, -0.6980000000000001, 0.424, 192.0, 0.0, 0.0, 0.0, 0.0, 0.0, 0.0, 0.0, 0.0, 0.0, 1.663587052536824E9, 0.0, 2022-09-19 16:30:52.536
132.0, 9354.13799931264, -120374.04571462223, 17926.300218856362, 5017.653705794061, -183553.50894373763, 187500.0, 27279.745314090887, 14494.525133910793, 0.614, -0.6980000000000001, 0.424, 192.0, 0.0, 0.0, 0.0, 0.0, 0.0, 0.0, 0.0, 0.0, 0.0, 1.663587052540854E9, 0.0, 2022-09-19 16:30:52.540
133.0, 9341.598670673213, -120389.96015667441, 17907.614160491725, 5017.363133116142, -183580.26398185064, 187500.0, 27263.093264471685, 14488.087831507664, 0.614, -0.6980000000000001, 0.424, 192.0, 0.0, 0.0, 0.0, 0.0, 0.0, 0.0, 0.0, 0.0, 0.0, 1.6635870525438387E9, 0.0, 2022-09-19 16:30:52.543
134.0, 9351.589900444735, -120392.39649682005, 17907.278884324896, 5018.793644761282, -183624.76630506114, 187500.0, 27269.44115989699, 14489.96537804191, 0.614, -0.6980000000000001, 0.424, 192.0, 0.0, 0.0, 0.0, 0.0, 0.0, 0.0, 0.0, 0.0, 0.0, 1.66358705254788E9, 0.0, 2022-09-19 16:30:52.547
135.0, 9369.314833797793, -120384.79690370524, 17918.231239107998, 5012.691618524983, -183668.21809628227, 187500.0, 27283.902738559573, 14493.29578796575, 0.614, -0.6980000000000001, 0.424, 192.0, 0.0, 0.0, 0.0, 0.0, 0.0, 0.0, 0.0, 0.0, 0.0, 1.66358705255287E9, 0.0, 2022-09-19 16:30:52.552
136.0, 9383.061156637807, -120368.86010990861, 17931.30700961435, 5002.566278286729, -183691.7097797048, 187500.0, 27290.69766887399, 14492.245255976351, 0.614, -0.6960000000000001, 0.426, 192.0, 19.0, 48.0, 234.0, 64.0, 13.0, 80.0, 0.0, 0.0, 0.0, 1.6635870525569053E9, 0.0, 2022-09-19 16:30:52.556
137.0, 9363.27986279486, -120380.88534842555, 17910.184611104087, 5001.7392637418825, -183558.96276938473, 187500.0, 27267.094226729183, 14477.537808124758, 0.614, -0.6960000000000001, 0.426, 192.0, 0.0, 0.0, 0.0, 0.0, 0.0, 0.0, 0.0, 0.0, 0.0, 1.663587052560838E9, 0.0, 2022-09-19 16:30:52.560
138.0, 9344.794970130322, -120404.75701150383, 17883.49662822445, 4998.520612540318, -183545.6858331783, 187500.0, 27244.317799129225, 14461.645717817035, 0.614, -0.6960000000000001, 0.426, 192.0, 0.0, 0.0, 0.0, 0.0, 0.0, 0.0, 0.0, 0.0, 0.0, 1.663587052563874E9, 0.0, 2022-09-19 16:30:52.563
139.0, 9350.360554499694, -120404.86877022611, 17884.48010498048, 4997.917115440026, -183616.16088344585, 187500.0, 27249.905735243054, 14461.869235261589, 0.614, -0.6960000000000001, 0.426, 192.0, 0.0, 0.0, 0.0, 0.0, 0.0, 0.0, 0.0, 0.0, 0.0, 1.6635870525679371E9, 0.0, 2022-09-19 16:30:52.567
140.0, 9363.682194195057, -120396.71038349991, 17896.661805708623, 4993.737339226883, -183669.13451780492, 187500.0, 27266.58013660671, 14468.842979531644, 0.614, -0.6960000000000001, 0.426, 192.0, 0.0, 0.0, 0.0, 0.0, 0.0, 0.0, 0.0, 0.0, 0.0, 1.6635870525718741E9, 0.0, 2022-09-19 16:30:52.571
141.0, 9362.452848250014, -120388.75316247382, 17906.585980246782, 4989.55756301374, -183663.21130552428, 187500.0, 27277.197215222983, 14468.641813831546, 0.614, -0.6960000000000001, 0.426, 192.0, 0.0, 0.0, 0.0, 0.0, 0.0, 0.0, 0.0, 0.0, 0.0, 1.6635870525761085E9, 0.0, 2022-09-19 16:30:52.576
142.0, 9342.649202662613, -120408.84738073914, 17883.9213113691, 4992.955028170947, -183546.9822343567, 187500.0, 27258.62291558062, 14450.715714778391, 0.614, -0.6960000000000001, 0.426, 192.0, 0.0, 0.0, 0.0, 0.0, 0.0, 0.0, 0.0, 0.0, 0.0, 1.6635870525799649E9, 0.0, 2022-09-19 16:30:52.579
143.0, 9333.775560113854, -120428.38280539309, 17865.123494282187, 4992.84326944867, -183545.6858331783, 187500.0, 27243.133156673095, 14440.411560584495, 0.614, -0.6960000000000001, 0.426, 192.0, 0.0, 0.0, 0.0, 0.0, 0.0, 0.0, 0.0, 0.0, 0.0, 1.663587052585048E9, 0.0, 2022-09-19 16:30:52.585
144.0, 9338.067095049273, -120433.99309325137, 17864.564700670802, 4995.614885761129, -183610.6847060543, 187500.0, 27250.464528854434, 14443.451397830415, 0.614, -0.6960000000000001, 0.426, 192.0, 0.0, 0.0, 0.0, 0.0, 0.0, 0.0, 0.0, 0.0, 0.0, 1.6635870525889668E9, 0.0, 2022-09-19 16:30:52.588
145.0, 9349.42178123257, -120427.8240117817, 17876.746401398945, 4992.418586304019, -183660.842020612, 187500.0, 27264.523776116825, 14445.61951704258, 0.614, -0.6960000000000001, 0.426, 192.0, 0.0, 0.0, 0.0, 0.0, 0.0, 0.0, 0.0, 0.0, 0.0, 1.6635870525920577E9, 0.0, 2022-09-19 16:30:52.592
146.0, 9353.288633023338, -120419.39740412205, 17885.55298871434, 4986.182449600989, -183658.0480525551, 187500.0, 27267.518909873834, 14444.993668197832, 0.614, -0.6900000000000001, 0.428, 192.0, 19.0, 48.0, 234.0, 112.0, 13.0, 96.0, 0.0, 0.0, 0.0, 1.663587052595981E9, 0.0, 2022-09-19 16:30:52.595
147.0, 9335.27312699236, -120432.40611939505, 17866.68811639406, 4983.74610945536, -183560.10270835194, 187500.0, 27242.77552876181, 14435.896508204522, 0.614, -0.6900000000000001, 0.428, 192.0, 0.0, 0.0, 0.0, 0.0, 0.0, 0.0, 0.0, 0.0, 0.0, 1.6635870525999537E9, 0.0, 2022-09-19 16:30:52.599
148.0, 9327.6511821331, -120448.00763702484, 17852.00302028692, 4990.295170580765, -183564.39424328736, 187500.0, 27234.77360424681, 14426.32996157765, 0.614, -0.6900000000000001, 0.428, 192.0, 0.0, 0.0, 0.0, 0.0, 0.0, 0.0, 0.0, 0.0, 0.0, 1.6635870526039755E9, 0.0, 2022-09-19 16:30:52.603
149.0, 9340.436379961537, -120448.54407889178, 17860.563738413304, 4988.596438002162, -183617.07730496852, 187500.0, 27247.134118930593, 14428.90041219001, 0.614, -0.6900000000000001, 0.428, 192.0, 0.0, 0.0, 0.0, 0.0, 0.0, 0.0, 0.0, 0.0, 0.0, 1.66358705260902E9, 0.0, 2022-09-19 16:30:52.609
150.0, 9355.210883046495, -120436.04945374126, 17882.468447979503, 4983.433185032986, -183671.1461748059, 187500.0, 27264.121444716628, 14434.287182603739, 0.614, -0.6900000000000001, 0.428, 192.0, 0.0, 0.0, 0.0, 0.0, 0.0, 0.0, 0.0, 0.0, 0.0, 1.663587052613025E9, 0.0, 2022-09-19 16:30:52.613
151.0, 9357.513112725392, -120427.19816293695, 17895.54421848586, 4985.221324589411, -183625.25804343916, 187500.0, 27271.16224422005, 14438.019923927775, 0.614, -0.6900000000000001, 0.428, 192.0, 0.0, 0.0, 0.0, 0.0, 0.0, 0.0, 0.0, 0.0, 0.0, 1.663587052616928E9, 0.0, 2022-09-19 16:30:52.616
152.0, 9336.390714215126, -120448.00763702484, 17872.63368041917, 4982.740280954871, -183542.04249883207, 187500.0, 27248.274057897816, 14425.011208654787, 0.614, -0.6900000000000001, 0.428, 192.0, 0.0, 0.0, 0.0, 0.0, 0.0, 0.0, 0.0, 0.0, 0.0, 1.6635870526200562E9, 0.0, 2022-09-19 16:30:52.620
153.0, 9331.875661835154, -120465.91138433355, 17854.640526132647, 4986.3612635566315, -183553.88892339336, 187500.0, 27237.411110092537, 14416.04815912821, 0.614, -0.6900000000000001, 0.428, 192.0, 0.0, 0.0, 0.0, 0.0, 0.0, 0.0, 0.0, 0.0, 0.0, 1.6635870526249633E9, 0.0, 2022-09-19 16:30:52.624
154.0, 9343.006830573897, -120470.35938148016, 17854.193491243543, 4988.976417657902, -183609.45536010928, 187500.0, 27245.681255541, 14417.411615539982, 0.614, -0.6900000000000001, 0.428, 192.0, 0.0, 0.0, 0.0, 0.0, 0.0, 0.0, 0.0, 0.0, 0.0, 1.6635870526290708E9, 0.0, 2022-09-19 16:30:52.629
