%OpenBCI Raw EEG Data
%Number of channels = 8
%Sample Rate = 250 Hz
%Board = OpenBCI_GUI$BoardCytonSerial
Sample Index, EXG Channel 0, EXG Channel 1, EXG Channel 2, EXG Channel 3, EXG Channel 4, EXG Channel 5, EXG Channel 6, EXG Channel 7, Accel Channel 0, Accel Channel 1, Accel Channel 2, Other, Other, Other, Other, Other, Other, Other, Analog Channel 0, Analog Channel 1, Analog Channel 2, Timestamp, Other, Timestamp (Formatted)
137.0, 12996.891200171853, -13959.245557695098, 16133.131519929353, 36585.35767619106, 187500.0, 187500.0, -19008.147002237678, 22916.885962115048, 0.0, 0.0, 0.0, 192.0, 0.0, 0.0, 0.0, 0.0, 0.0, 0.0, 0.0, 0.0, 0.0, 1.6635887320725236E9, 0.0, 2022-09-19 16:58:52.072
138.0, 12981.42379300878, -13959.312612928465, 16131.589249561937, 36575.96994351983, 187500.0, 187500.0, -19013.936104051605, 22913.37673823556, 0.0, 0.0, 0.0, 192.0, 0.0, 0.0, 0.0, 0.0, 0.0, 0.0, 0.0, 0.0, 0.0, 1.663588732072564E9, 0.0, 2022-09-19 16:58:52.072
139.0, 12964.145894544828, -13988.079308042445, 16116.077138909954, 36535.4238790779, 187500.0, 187500.0, -19021.289827977398, 22900.39037470703, 0.0, 0.0, 0.0, 192.0, 0.0, 0.0, 0.0, 0.0, 0.0, 0.0, 0.0, 0.0, 0.0, 1.663588732072584E9, 0.0, 2022-09-19 16:58:52.072
0.0, 0.0, 0.0, 0.0, 0.0, 0.0, 0.0, 0.0, 0.0, 0.0, 0.0, 0.0, 192.0, 0.0, 0.0, 0.0, 0.0, 0.0, 0.0, 0.0, 0.0, 0.0, 1.663588732175633E9, 0.0, 2022-09-19 16:58:52.175
1.0, 13471.977528569405, 26098.097991716622, 13276.802095985664, 44551.072365173386, 187500.0, 187500.0, -18718.80367026373, 22515.22511425318, 0.584, -0.616, 0.562, 192.0, 18.0, 64.0, 236.0, 192.0, 17.0, 144.0, 0.0, 0.0, 0.0, 1.663588732192759E9, 0.0, 2022-09-19 16:58:52.192
2.0, 13440.685086331974, 26021.163287301457, 13265.91679643593, 44519.84697816932, 187500.0, 187500.0, -18730.024245980294, 22525.596323680442, 0.584, -0.616, 0.562, 192.0, 0.0, 0.0, 0.0, 0.0, 0.0, 0.0, 0.0, 0.0, 0.0, 1.6635887321956663E9, 0.0, 2022-09-19 16:58:52.195
3.0, 13449.75989458083, 25961.171205183415, 13277.807924486153, 44501.74206516052, 187500.0, 187500.0, -18717.59667606314, 22536.41456799681, 0.584, -0.616, 0.562, 192.0, 0.0, 0.0, 0.0, 0.0, 0.0, 0.0, 0.0, 0.0, 0.0, 1.66358873219966E9, 0.0, 2022-09-19 16:58:52.199
4.0, 13520.324351826233, 25922.502687275733, 13288.11207868005, 44505.541861717924, 187500.0, 187500.0, -18699.737632243352, 22533.26297202861, 0.584, -0.616, 0.562, 192.0, 0.0, 0.0, 0.0, 0.0, 0.0, 0.0, 0.0, 0.0, 0.0, 1.6635887322036133E9, 0.0, 2022-09-19 16:58:52.203
5.0, 13517.82095644724, 25886.806951380608, 13280.154857653959, 44515.22016706708, 187500.0, 187500.0, -18705.63849277955, 22528.74791964864, 0.584, -0.616, 0.562, 192.0, 0.0, 0.0, 0.0, 0.0, 0.0, 0.0, 0.0, 0.0, 0.0, 1.6635887322067053E9, 0.0, 2022-09-19 16:58:52.206
6.0, 13498.173773071025, 25845.92561077185, 13281.25009313227, 44514.14728333322, 187500.0, 187500.0, -18704.520905556787, 22531.49718421664, 0.584, -0.616, 0.562, 192.0, 0.0, 0.0, 0.0, 0.0, 0.0, 0.0, 0.0, 0.0, 0.0, 1.663588732210694E9, 0.0, 2022-09-19 16:58:52.210
7.0, 13476.00084257136, 25782.87133966343, 13271.817656972129, 44490.163861532674, 187500.0, 187500.0, -18706.912542213508, 22510.397137450833, 0.584, -0.616, 0.562, 192.0, 0.0, 0.0, 0.0, 0.0, 0.0, 0.0, 0.0, 0.0, 0.0, 1.66358873221465E9, 0.0, 2022-09-19 16:58:52.214
8.0, 13481.81229612974, 25740.2242112427, 13275.10336340706, 44483.79361436291, 187500.0, 187500.0, -18704.811478234707, 22502.64108212484, 0.582, -0.62, 0.56, 192.0, 18.0, 48.0, 236.0, 160.0, 17.0, 128.0, 0.0, 0.0, 0.0, 1.6635887322187083E9, 0.0, 2022-09-19 16:58:52.218
9.0, 13490.86475263414, 25715.905513275327, 13284.91577922294, 44492.33198074484, 187500.0, 187500.0, -18701.905751455517, 22518.98020732167, 0.582, -0.62, 0.56, 192.0, 0.0, 0.0, 0.0, 0.0, 0.0, 0.0, 0.0, 0.0, 0.0, 1.6635887322226317E9, 0.0, 2022-09-19 16:58:52.222
10.0, 13486.036775831793, 25707.38949863786, 13300.606703830565, 44514.86253915579, 187500.0, 187500.0, -18695.35669033011, 22534.80524239603, 0.582, -0.62, 0.56, 192.0, 0.0, 0.0, 0.0, 0.0, 0.0, 0.0, 0.0, 0.0, 0.0, 1.6635887322276907E9, 0.0, 2022-09-19 16:58:52.227
11.0, 13480.694708906974, 25681.550882047522, 13295.734023539308, 44520.11519910279, 187500.0, 187500.0, -18701.726937499876, 22539.230887798178, 0.582, -0.62, 0.56, 192.0, 0.0, 0.0, 0.0, 0.0, 0.0, 0.0, 0.0, 0.0, 0.0, 1.6635887322317228E9, 0.0, 2022-09-19 16:58:52.231
12.0, 13492.697595679474, 25641.83183215044, 13294.102346194071, 44509.69928618662, 187500.0, 187500.0, -18700.162315388003, 22540.1696610653, 0.582, -0.62, 0.56, 192.0, 0.0, 0.0, 0.0, 0.0, 0.0, 0.0, 0.0, 0.0, 0.0, 1.6635887322347689E9, 0.0, 2022-09-19 16:58:52.234
13.0, 13484.606264186654, 25611.053480035484, 13291.934226981906, 44506.23476579604, 187500.0, 187500.0, -18701.12344039958, 22526.13276554737, 0.582, -0.62, 0.56, 192.0, 0.0, 0.0, 0.0, 0.0, 0.0, 0.0, 0.0, 0.0, 0.0, 1.6635887322387369E9, 0.0, 2022-09-19 16:58:52.238
14.0, 13465.942557566472, 25592.948567026684, 13280.624244287521, 44516.49421650103, 187500.0, 187500.0, -18712.098146927136, 22511.648835140328, 0.582, -0.62, 0.56, 192.0, 0.0, 0.0, 0.0, 0.0, 0.0, 0.0, 0.0, 0.0, 0.0, 1.6635887322427783E9, 0.0, 2022-09-19 16:58:52.242
15.0, 13453.80556032724, 25594.6920030942, 13278.031441930705, 44545.77500173748, 187500.0, 187500.0, -18711.874629482583, 22511.40296595132, 0.582, -0.62, 0.56, 192.0, 0.0, 0.0, 0.0, 0.0, 0.0, 0.0, 0.0, 0.0, 0.0, 1.6635887322467144E9, 0.0, 2022-09-19 16:58:52.246
16.0, 13446.027153256793, 25587.673555335234, 13276.042136674183, 44563.58934206836, 187500.0, 187500.0, -18711.092318426647, 22518.957855577213, 0.582, -0.62, 0.56, 192.0, 0.0, 0.0, 0.0, 0.0, 0.0, 0.0, 0.0, 0.0, 0.0, 1.6635887322517204E9, 0.0, 2022-09-19 16:58:52.251
17.0, 13435.588888596165, 25560.493834077577, 13279.685471020399, 44561.130650178275, 187500.0, 187500.0, -18707.27017012479, 22531.631294683375, 0.582, -0.62, 0.56, 192.0, 0.0, 0.0, 0.0, 0.0, 0.0, 0.0, 0.0, 0.0, 0.0, 1.663588732255715E9, 0.0, 2022-09-19 16:58:52.255
18.0, 13446.027153256793, 25538.969104167118, 13280.91481696544, 44563.522286834996, 187500.0, 187500.0, -18709.684158525964, 22526.490393458655, 0.584, -0.624, 0.554, 192.0, 18.0, 64.0, 236.0, 128.0, 17.0, 80.0, 0.0, 0.0, 0.0, 1.663588732259761E9, 0.0, 2022-09-19 16:58:52.259
19.0, 13457.672412118009, 25534.811679698432, 13282.501790821767, 44580.084929476376, 187500.0, 187500.0, -18707.3148736137, 22525.618675424896, 0.584, -0.624, 0.554, 192.0, 0.0, 0.0, 0.0, 0.0, 0.0, 0.0, 0.0, 0.0, 0.0, 1.6635887322628036E9, 0.0, 2022-09-19 16:58:52.262
20.0, 13436.550013607743, 25542.567735024422, 13282.39003209949, 44608.98573505709, 187500.0, 187500.0, -18710.42176609299, 22523.472907957188, 0.584, -0.624, 0.554, 192.0, 0.0, 0.0, 0.0, 0.0, 0.0, 0.0, 0.0, 0.0, 0.0, 1.6635887322667794E9, 0.0, 2022-09-19 16:58:52.266
21.0, 13435.387722896066, 25537.695054733165, 13264.329822579602, 44622.665002663736, 187500.0, 187500.0, -18723.586943577164, 22511.35826246241, 0.584, -0.624, 0.554, 192.0, 0.0, 0.0, 0.0, 0.0, 0.0, 0.0, 0.0, 0.0, 0.0, 1.6635887322706895E9, 0.0, 2022-09-19 16:58:52.270
22.0, 13458.119447007115, 25524.596932482356, 13262.966366167828, 44627.69414516618, 187500.0, 187500.0, -18714.869763239596, 22516.70032938723, 0.584, -0.624, 0.554, 192.0, 0.0, 0.0, 0.0, 0.0, 0.0, 0.0, 0.0, 0.0, 0.0, 1.6635887322749345E9, 0.0, 2022-09-19 16:58:52.274
23.0, 13503.694653951485, 25527.368548794813, 13268.95663368185, 44647.52014249803, 187500.0, 187500.0, -18701.57047528869, 22532.815937139505, 0.584, -0.624, 0.554, 192.0, 0.0, 0.0, 0.0, 0.0, 0.0, 0.0, 0.0, 0.0, 0.0, 1.6635887322788978E9, 0.0, 2022-09-19 16:58:52.278
24.0, 13504.298151051778, 25541.47249954611, 13266.699107491864, 44678.96904694665, 187500.0, 187500.0, -18700.07290841018, 22535.498146474143, 0.584, -0.624, 0.554, 192.0, 0.0, 0.0, 0.0, 0.0, 0.0, 0.0, 0.0, 0.0, 0.0, 1.6635887322838137E9, 0.0, 2022-09-19 16:58:52.283
25.0, 13482.684014163497, 25563.24309864558, 13258.29485157667, 44717.861082298885, 187500.0, 187500.0, -18704.967940445895, 22533.37473075089, 0.584, -0.624, 0.554, 192.0, 0.0, 0.0, 0.0, 0.0, 0.0, 0.0, 0.0, 0.0, 0.0, 1.6635887322867944E9, 0.0, 2022-09-19 16:58:52.286
26.0, 13475.28558674879, 25566.059418446952, 13244.637935714476, 44740.793972110034, 187500.0, 187500.0, -18708.3654056031, 22535.453442985232, 0.584, -0.624, 0.554, 192.0, 0.0, 0.0, 0.0, 0.0, 0.0, 0.0, 0.0, 0.0, 0.0, 1.663588732290824E9, 0.0, 2022-09-19 16:58:52.290
27.0, 13494.597493958176, 25558.929211965708, 13246.068447359616, 44755.23319902816, 187500.0, 187500.0, -18693.188571117946, 22537.46509998621, 0.584, -0.624, 0.554, 192.0, 0.0, 0.0, 0.0, 0.0, 0.0, 0.0, 0.0, 0.0, 0.0, 1.6635887322948E9, 0.0, 2022-09-19 16:58:52.294
28.0, 13496.139764325591, 25561.85729048935, 13255.076200375104, 44779.28367606207, 187500.0, 187500.0, -18682.817361690686, 22538.627390697886, 0.58, -0.62, 0.554, 192.0, 18.0, 32.0, 236.0, 160.0, 17.0, 80.0, 0.0, 0.0, 0.0, 1.6635887322987895E9, 0.0, 2022-09-19 16:58:52.298
29.0, 13489.791868900284, 25582.555005854967, 13263.323994079114, 44817.61691780292, 187500.0, 187500.0, -18678.056440121705, 22544.550602978543, 0.58, -0.62, 0.554, 192.0, 0.0, 0.0, 0.0, 0.0, 0.0, 0.0, 0.0, 0.0, 0.0, 1.6635887323029103E9, 0.0, 2022-09-19 16:58:52.302
30.0, 13463.081534276193, 25616.663767893766, 13271.05769766065, 44864.55558115907, 187500.0, 187500.0, -18674.21194007539, 22556.55348975104, 0.58, -0.62, 0.554, 192.0, 0.0, 0.0, 0.0, 0.0, 0.0, 0.0, 0.0, 0.0, 0.0, 1.6635887323068E9, 0.0, 2022-09-19 16:58:52.306
31.0, 13424.748292535342, 25617.848410349896, 13254.539758508177, 44881.20763077827, 187500.0, 187500.0, -18687.108896626105, 22546.115225090412, 0.58, -0.62, 0.554, 192.0, 0.0, 0.0, 0.0, 0.0, 0.0, 0.0, 0.0, 0.0, 0.0, 1.663588732311931E9, 0.0, 2022-09-19 16:58:52.311
32.0, 13408.453870827421, 25600.50345665258, 13244.816749670119, 44881.945238345295, 187500.0, 187500.0, -18690.21578910539, 22535.676960429784, 0.58, -0.62, 0.554, 192.0, 0.0, 0.0, 0.0, 0.0, 0.0, 0.0, 0.0, 0.0, 0.0, 1.6635887323148403E9, 0.0, 2022-09-19 16:58:52.314
33.0, 13451.212757970425, 25607.030166033528, 13255.85851143104, 44901.70418044379, 187500.0, 187500.0, -18670.993288873826, 22543.83534715597, 0.58, -0.62, 0.554, 192.0, 0.0, 0.0, 0.0, 0.0, 0.0, 0.0, 0.0, 0.0, 0.0, 1.6635887323179295E9, 0.0, 2022-09-19 16:58:52.317
34.0, 13513.440014533999, 25621.536448185023, 13263.592215012577, 44928.25805285669, 187500.0, 187500.0, -18663.192530058925, 22549.244469314155, 0.58, -0.62, 0.554, 192.0, 0.0, 0.0, 0.0, 0.0, 0.0, 0.0, 0.0, 0.0, 0.0, 1.6635887323228948E9, 0.0, 2022-09-19 16:58:52.322
35.0, 13500.632464961109, 25642.12240482836, 13260.418267299923, 44962.65738757341, 187500.0, 187500.0, -18670.814474918185, 22548.685675702774, 0.58, -0.62, 0.554, 192.0, 0.0, 0.0, 0.0, 0.0, 0.0, 0.0, 0.0, 0.0, 0.0, 1.6635887323268983E9, 0.0, 2022-09-19 16:58:52.326
36.0, 13463.148589509557, 25650.526660743555, 13250.851720673052, 44983.71273085031, 187500.0, 187500.0, -18678.525826755267, 22549.31152454752, 0.58, -0.62, 0.554, 192.0, 0.0, 0.0, 0.0, 0.0, 0.0, 0.0, 0.0, 0.0, 0.0, 1.6635887323309584E9, 0.0, 2022-09-19 16:58:52.330
37.0, 13451.078647503693, 25650.325495043457, 13243.766217680719, 44993.14516701045, 187500.0, 187500.0, -18685.432515791956, 22545.55643147903, 0.58, -0.62, 0.554, 192.0, 0.0, 0.0, 0.0, 0.0, 0.0, 0.0, 0.0, 0.0, 0.0, 1.663588732334901E9, 0.0, 2022-09-19 16:58:52.334
38.0, 13477.654871661052, 25668.36335281889, 13239.586441467578, 45018.31323126712, 187500.0, 187500.0, -18691.445135050435, 22536.012236596613, 0.5680000000000001, -0.63, 0.556, 192.0, 17.0, 192.0, 236.0, 80.0, 17.0, 96.0, 0.0, 0.0, 0.0, 1.6635887323399065E9, 0.0, 2022-09-19 16:58:52.339
39.0, 13475.95613908245, 25694.98428046516, 13235.697237932354, 45050.58915026059, 187500.0, 187500.0, -18694.730841485365, 22533.575896450984, 0.5680000000000001, -0.63, 0.556, 192.0, 0.0, 0.0, 0.0, 0.0, 0.0, 0.0, 0.0, 0.0, 0.0, 1.6635887323429544E9, 0.0, 2022-09-19 16:58:52.342
40.0, 13470.256444246346, 25733.2728187171, 13238.29004028917, 45096.96902000535, 187500.0, 187500.0, -18693.836771707152, 22540.1696610653, 0.5680000000000001, -0.63, 0.556, 192.0, 0.0, 0.0, 0.0, 0.0, 0.0, 0.0, 0.0, 0.0, 0.0, 1.6635887323459008E9, 0.0, 2022-09-19 16:58:52.345
41.0, 13473.385688470089, 25748.114377035425, 13234.199671053848, 45119.05254352719, 187500.0, 187500.0, -18690.4616582944, 22540.594344209952, 0.5680000000000001, -0.63, 0.556, 192.0, 0.0, 0.0, 0.0, 0.0, 0.0, 0.0, 0.0, 0.0, 0.0, 1.6635887323509033E9, 0.0, 2022-09-19 16:58:52.350
42.0, 13478.52658969481, 25749.254316002647, 13242.939203135873, 45124.48401742984, 187500.0, 187500.0, -18691.020451905784, 22543.45536750023, 0.5680000000000001, -0.63, 0.556, 192.0, 0.0, 0.0, 0.0, 0.0, 0.0, 0.0, 0.0, 0.0, 0.0, 1.6635887323549447E9, 0.0, 2022-09-19 16:58:52.354
43.0, 13472.446915202967, 25762.374789997913, 13239.631144956487, 45140.152590293, 187500.0, 187500.0, -18693.54619902923, 22550.18324258128, 0.5680000000000001, -0.63, 0.556, 192.0, 0.0, 0.0, 0.0, 0.0, 0.0, 0.0, 0.0, 0.0, 0.0, 1.6635887323588996E9, 0.0, 2022-09-19 16:58:52.358
44.0, 13464.266176732324, 25786.7381914542, 13232.299772775146, 45168.852230173616, 187500.0, 187500.0, -18696.89896069753, 22560.353286308444, 0.5680000000000001, -0.63, 0.556, 192.0, 0.0, 0.0, 0.0, 0.0, 0.0, 0.0, 0.0, 0.0, 0.0, 1.6635887323629055E9, 0.0, 2022-09-19 16:58:52.362
45.0, 13442.696743332952, 25816.28719762411, 13225.549545949645, 45203.00569570133, 187500.0, 187500.0, -18702.97863518937, 22558.56514675202, 0.5680000000000001, -0.63, 0.556, 192.0, 0.0, 0.0, 0.0, 0.0, 0.0, 0.0, 0.0, 0.0, 0.0, 1.663588732367942E9, 0.0, 2022-09-19 16:58:52.367
46.0, 13407.336283604656, 25831.329921642533, 13231.405702996935, 45221.356477899135, 187500.0, 187500.0, -18704.163277645504, 22560.26387933062, 0.5680000000000001, -0.63, 0.556, 192.0, 0.0, 0.0, 0.0, 0.0, 0.0, 0.0, 0.0, 0.0, 0.0, 1.6635887323709729E9, 0.0, 2022-09-19 16:58:52.370
47.0, 13372.31110004319, 25836.001436233695, 13224.320200004602, 45227.21263494642, 187500.0, 187500.0, -18711.315835871203, 22565.449484044253, 0.5680000000000001, -0.63, 0.556, 192.0, 0.0, 0.0, 0.0, 0.0, 0.0, 0.0, 0.0, 0.0, 0.0, 1.66358873237398E9, 0.0, 2022-09-19 16:58:52.373
48.0, 13403.3129696027, 25858.576698133555, 13220.878031358485, 45247.798591589766, 187500.0, 187500.0, -18703.716242756396, 22563.37077180991, 0.562, -0.628, 0.554, 192.0, 17.0, 144.0, 236.0, 96.0, 17.0, 80.0, 0.0, 0.0, 0.0, 1.6635887323789213E9, 0.0, 2022-09-19 16:58:52.378
49.0, 13482.460496718944, 25898.966300364293, 13232.5232902197, 45287.78586242031, 187500.0, 187500.0, -18684.180818102457, 22564.890690432872, 0.562, -0.628, 0.554, 192.0, 0.0, 0.0, 0.0, 0.0, 0.0, 0.0, 0.0, 0.0, 0.0, 1.663588732382966E9, 0.0, 2022-09-19 16:58:52.382
50.0, 13523.498299538887, 25948.22954514379, 13238.066522844616, 45336.4009066106, 187500.0, 187500.0, -18677.87762616606, 22569.852777701948, 0.562, -0.628, 0.554, 192.0, 0.0, 0.0, 0.0, 0.0, 0.0, 0.0, 0.0, 0.0, 0.0, 1.663588732386934E9, 0.0, 2022-09-19 16:58:52.386
51.0, 13505.527496996821, 25969.530757609697, 13233.037380342172, 45361.32310167827, 187500.0, 187500.0, -18683.68907972444, 22576.580652782995, 0.562, -0.628, 0.554, 192.0, 0.0, 0.0, 0.0, 0.0, 0.0, 0.0, 0.0, 0.0, 0.0, 1.663588732390927E9, 0.0, 2022-09-19 16:58:52.390
52.0, 13486.215589787435, 25980.416057159433, 13233.819691398108, 45376.67875011906, 187500.0, 187500.0, -18680.582187245152, 22577.47472256121, 0.562, -0.628, 0.554, 192.0, 0.0, 0.0, 0.0, 0.0, 0.0, 0.0, 0.0, 0.0, 0.0, 1.6635887323959565E9, 0.0, 2022-09-19 16:58:52.395
53.0, 13515.049340134781, 26002.790153359194, 13224.700179660342, 45401.22096553099, 187500.0, 187500.0, -18686.259530336803, 22565.874167188904, 0.562, -0.628, 0.554, 192.0, 0.0, 0.0, 0.0, 0.0, 0.0, 0.0, 0.0, 0.0, 0.0, 1.6635887323990035E9, 0.0, 2022-09-19 16:58:52.399
54.0, 13527.722779240941, 26040.072863110647, 13212.987865565761, 45441.163532872626, 187500.0, 187500.0, -18689.858161194108, 22558.587498496476, 0.562, -0.628, 0.554, 192.0, 0.0, 0.0, 0.0, 0.0, 0.0, 0.0, 0.0, 0.0, 0.0, 1.6635887324019818E9, 0.0, 2022-09-19 16:58:52.401
55.0, 13514.669360479042, 26087.369154378077, 13219.805147624631, 45486.582277605805, 187500.0, 187500.0, -18681.632719234552, 22557.671076973806, 0.562, -0.628, 0.554, 192.0, 0.0, 0.0, 0.0, 0.0, 0.0, 0.0, 0.0, 0.0, 0.0, 1.6635887324070015E9, 0.0, 2022-09-19 16:58:52.407
56.0, 13492.09409857918, 26104.02120399728, 13222.24148777026, 45502.20614698007, 187500.0, 187500.0, -18682.191512845937, 22555.838233928473, 0.562, -0.628, 0.554, 192.0, 0.0, 0.0, 0.0, 0.0, 0.0, 0.0, 0.0, 0.0, 0.0, 1.6635887324110744E9, 0.0, 2022-09-19 16:58:52.411
57.0, 13477.498409449865, 26109.273863944276, 13212.56318242111, 45505.58126039282, 187500.0, 187500.0, -18685.70073672542, 22559.347457807955, 0.562, -0.628, 0.554, 192.0, 0.0, 0.0, 0.0, 0.0, 0.0, 0.0, 0.0, 0.0, 0.0, 1.6635887324150176E9, 0.0, 2022-09-19 16:58:52.415
58.0, 13471.865769847129, 26123.288407717755, 13211.177374264882, 45517.78531286542, 187500.0, 187500.0, -18687.13124837056, 22558.587498496476, 0.5680000000000001, -0.622, 0.55, 192.0, 17.0, 192.0, 236.0, 144.0, 17.0, 48.0, 0.0, 0.0, 0.0, 1.663588732418994E9, 0.0, 2022-09-19 16:58:52.418
59.0, 13465.249653488358, 26154.245573788354, 13219.693388902353, 45547.31196729088, 187500.0, 187500.0, -18682.146809357026, 22558.56514675202, 0.5680000000000001, -0.622, 0.55, 192.0, 0.0, 0.0, 0.0, 0.0, 0.0, 0.0, 0.0, 0.0, 0.0, 1.6635887324230192E9, 0.0, 2022-09-19 16:58:52.423
60.0, 13461.114580764126, 26182.967565413426, 13223.292019759658, 45573.284694347945, 187500.0, 187500.0, -18682.41503029049, 22558.945126407758, 0.5680000000000001, -0.622, 0.55, 192.0, 0.0, 0.0, 0.0, 0.0, 0.0, 0.0, 0.0, 0.0, 0.0, 1.6635887324270601E9, 0.0, 2022-09-19 16:58:52.427
61.0, 13451.883310304083, 26181.671164235016, 13205.23181023977, 45569.32843557936, 187500.0, 187500.0, -18701.03403342176, 22555.99469613966, 0.5680000000000001, -0.622, 0.55, 192.0, 0.0, 0.0, 0.0, 0.0, 0.0, 0.0, 0.0, 0.0, 0.0, 1.6635887324300416E9, 0.0, 2022-09-19 16:58:52.430
62.0, 13445.334249178679, 26174.876233920604, 13195.486449657255, 45565.372176810764, 187500.0, 187500.0, -18709.17006840349, 22555.346495550453, 0.5680000000000001, -0.622, 0.55, 192.0, 0.0, 0.0, 0.0, 0.0, 0.0, 0.0, 0.0, 0.0, 0.0, 1.663588732434001E9, 0.0, 2022-09-19 16:58:52.434
63.0, 13443.970792766904, 26182.632289246594, 13198.168658991894, 45578.045615916926, 187500.0, 187500.0, -18703.582132289666, 22557.447559529253, 0.5680000000000001, -0.622, 0.55, 192.0, 0.0, 0.0, 0.0, 0.0, 0.0, 0.0, 0.0, 0.0, 0.0, 1.66358873243903E9, 0.0, 2022-09-19 16:58:52.439
64.0, 13441.75797006583, 26203.262949378844, 13211.199726009338, 45603.0125144735, 187500.0, 187500.0, -18698.4635828094, 22559.3251060635, 0.5680000000000001, -0.622, 0.55, 192.0, 0.0, 0.0, 0.0, 0.0, 0.0, 0.0, 0.0, 0.0, 0.0, 1.6635887324430618E9, 0.0, 2022-09-19 16:58:52.443
65.0, 13441.84737704365, 26228.05103397978, 13223.04615057065, 45627.599433374344, 187500.0, 187500.0, -18700.7658124883, 22553.424245527298, 0.5680000000000001, -0.622, 0.55, 192.0, 0.0, 0.0, 0.0, 0.0, 0.0, 0.0, 0.0, 0.0, 0.0, 1.6635887324470851E9, 0.0, 2022-09-19 16:58:52.447
66.0, 13442.428522399488, 26222.0384147213, 13213.52430743269, 45620.55863387092, 187500.0, 187500.0, -18712.299312627234, 22555.681771717285, 0.5680000000000001, -0.622, 0.55, 192.0, 0.0, 0.0, 0.0, 0.0, 0.0, 0.0, 0.0, 0.0, 0.0, 1.6635887324501157E9, 0.0, 2022-09-19 16:58:52.450
67.0, 13454.878444061094, 26206.28043488031, 13207.310522474114, 45607.661677320204, 187500.0, 187500.0, -18715.76383301781, 22559.973306652704, 0.5680000000000001, -0.622, 0.55, 192.0, 0.0, 0.0, 0.0, 0.0, 0.0, 0.0, 0.0, 0.0, 0.0, 1.6635887324541025E9, 0.0, 2022-09-19 16:58:52.454
68.0, 13438.002876997338, 26204.581702301708, 13201.521420660189, 45612.422598889185, 187500.0, 187500.0, -18723.206963921424, 22560.688562475272, 0.5680000000000001, -0.622, 0.55, 192.0, 0.0, 0.0, 0.0, 0.0, 0.0, 0.0, 0.0, 0.0, 0.0, 1.6635887324580874E9, 0.0, 2022-09-19 16:58:52.458
69.0, 13403.290617858245, 26213.410641361552, 13198.414528180901, 45630.23693922006, 187500.0, 187500.0, -18728.683141312977, 22561.06854213101, 0.584, -0.622, 0.544, 192.0, 18.0, 64.0, 236.0, 144.0, 17.0, 0.0, 0.0, 0.0, 0.0, 1.663588732462081E9, 0.0, 2022-09-19 16:58:52.462
70.0, 13396.875667199572, 26226.866391523647, 13199.621522381489, 45650.957006330136, 187500.0, 187500.0, -18726.447966867443, 22562.65551598734, 0.584, -0.622, 0.544, 192.0, 0.0, 0.0, 0.0, 0.0, 0.0, 0.0, 0.0, 0.0, 0.0, 1.663588732467108E9, 0.0, 2022-09-19 16:58:52.467
71.0, 13477.118429794125, 26219.512667597854, 13199.398004936935, 45649.682956896184, 187500.0, 187500.0, -18717.306103385225, 22563.437827043275, 0.584, -0.622, 0.544, 192.0, 0.0, 0.0, 0.0, 0.0, 0.0, 0.0, 0.0, 0.0, 0.0, 1.6635887324711125E9, 0.0, 2022-09-19 16:58:52.471
72.0, 13507.650912720075, 26198.770248743327, 13195.620560123989, 45635.2213782336, 187500.0, 187500.0, -18720.211830164415, 22552.84310017146, 0.584, -0.622, 0.544, 192.0, 0.0, 0.0, 0.0, 0.0, 0.0, 0.0, 0.0, 0.0, 0.0, 1.6635887324750812E9, 0.0, 2022-09-19 16:58:52.475
73.0, 13468.937691323483, 26190.00836491685, 13188.870333298486, 45632.18154098768, 187500.0, 187500.0, -18729.42074888, 22545.71289369022, 0.584, -0.622, 0.544, 192.0, 0.0, 0.0, 0.0, 0.0, 0.0, 0.0, 0.0, 0.0, 0.0, 1.6635887324781222E9, 0.0, 2022-09-19 16:58:52.478
74.0, 13491.37884275661, 26207.398022103076, 13191.194914721837, 45650.44291620766, 187500.0, 187500.0, -18721.172955175993, 22539.677922687286, 0.584, -0.622, 0.544, 192.0, 0.0, 0.0, 0.0, 0.0, 0.0, 0.0, 0.0, 0.0, 0.0, 1.6635887324821315E9, 0.0, 2022-09-19 16:58:52.482
75.0, 13491.781174156808, 26220.920827498536, 13188.780926320664, 45666.75968966004, 187500.0, 187500.0, -18721.46352785391, 22537.50980347512, 0.584, -0.622, 0.544, 192.0, 0.0, 0.0, 0.0, 0.0, 0.0, 0.0, 0.0, 0.0, 0.0, 1.6635887324861631E9, 0.0, 2022-09-19 16:58:52.486
76.0, 13486.439107231989, 26204.291129623787, 13180.264911683193, 45655.47205871011, 187500.0, 187500.0, -18722.983446476872, 22536.906306374825, 0.584, -0.622, 0.544, 192.0, 0.0, 0.0, 0.0, 0.0, 0.0, 0.0, 0.0, 0.0, 0.0, 1.6635887324901788E9, 0.0, 2022-09-19 16:58:52.490
77.0, 13490.4847729784, 26194.74693474137, 13186.389289663946, 45650.3758609743, 187500.0, 187500.0, -18714.065100439206, 22538.336818019965, 0.584, -0.622, 0.544, 192.0, 0.0, 0.0, 0.0, 0.0, 0.0, 0.0, 0.0, 0.0, 0.0, 1.663588732495202E9, 0.0, 2022-09-19 16:58:52.495
78.0, 13457.672412118009, 26197.831475476203, 13186.501048386222, 45659.830648878895, 187500.0, 187500.0, -18714.065100439206, 22544.66236170082, 0.584, -0.622, 0.544, 192.0, 0.0, 0.0, 0.0, 0.0, 0.0, 0.0, 0.0, 0.0, 0.0, 1.6635887324992752E9, 0.0, 2022-09-19 16:58:52.499
79.0, 13464.422638943512, 26215.154077429066, 13189.160905976405, 45684.641085224284, 187500.0, 187500.0, -18710.80174574873, 22554.765350194615, 0.592, -0.624, 0.548, 192.0, 18.0, 128.0, 236.0, 128.0, 17.0, 32.0, 0.0, 0.0, 0.0, 1.6635887325031583E9, 0.0, 2022-09-19 16:58:52.503
80.0, 13467.842455845173, 26231.582609603716, 13186.255179197215, 45707.8868994578, 187500.0, 187500.0, -18712.969864960894, 22557.067579873514, 0.592, -0.624, 0.548, 192.0, 0.0, 0.0, 0.0, 0.0, 0.0, 0.0, 0.0, 0.0, 0.0, 1.6635887325061495E9, 0.0, 2022-09-19 16:58:52.506
81.0, 13476.738450138386, 26224.608865333663, 13195.218228723792, 45712.111379159855, 187500.0, 187500.0, -18709.460641081412, 22561.783797953583, 0.592, -0.624, 0.548, 192.0, 0.0, 0.0, 0.0, 0.0, 0.0, 0.0, 0.0, 0.0, 0.0, 1.6635887325101843E9, 0.0, 2022-09-19 16:58:52.510
82.0, 13469.585891912688, 26212.896551239082, 13196.067595013094, 45714.10068441638, 187500.0, 187500.0, -18715.428556850977, 22554.13950134987, 0.592, -0.624, 0.548, 192.0, 0.0, 0.0, 0.0, 0.0, 0.0, 0.0, 0.0, 0.0, 0.0, 1.663588732514219E9, 0.0, 2022-09-19 16:58:52.514
83.0, 13463.752086609851, 26210.862542493647, 13190.725528088276, 45729.23281541262, 187500.0, 187500.0, -18719.451870852932, 22542.449538999743, 0.592, -0.624, 0.548, 192.0, 0.0, 0.0, 0.0, 0.0, 0.0, 0.0, 0.0, 0.0, 0.0, 1.66358873251821E9, 0.0, 2022-09-19 16:58:52.518
84.0, 13459.885234819083, 26223.826554277726, 13201.18614449336, 45760.43585067223, 187500.0, 187500.0, -18712.23225739387, 22540.92962037678, 0.592, -0.624, 0.548, 192.0, 0.0, 0.0, 0.0, 0.0, 0.0, 0.0, 0.0, 0.0, 0.0, 1.663588732522187E9, 0.0, 2022-09-19 16:58:52.522
85.0, 13462.366278453623, 26236.23177245042, 13197.676920613876, 45788.86726961938, 187500.0, 187500.0, -18718.669559796996, 22532.190088294756, 0.592, -0.624, 0.548, 192.0, 0.0, 0.0, 0.0, 0.0, 0.0, 0.0, 0.0, 0.0, 0.0, 1.6635887325271828E9, 0.0, 2022-09-19 16:58:52.527
86.0, 13456.71128710643, 26226.62052233464, 13190.65847285491, 45793.270563277074, 187500.0, 187500.0, -18725.84446976715, 22532.055977828026, 0.592, -0.624, 0.548, 192.0, 0.0, 0.0, 0.0, 0.0, 0.0, 0.0, 0.0, 0.0, 0.0, 1.663588732531196E9, 0.0, 2022-09-19 16:58:52.531
87.0, 13462.031002286792, 26215.42229836253, 13195.553504890622, 45800.3113627805, 187500.0, 187500.0, -18723.028149965783, 22553.446597271755, 0.592, -0.624, 0.548, 192.0, 0.0, 0.0, 0.0, 0.0, 0.0, 0.0, 0.0, 0.0, 0.0, 1.6635887325341551E9, 0.0, 2022-09-19 16:58:52.534
88.0, 13458.477074918399, 26213.410641361552, 13200.336778204059, 45822.90897642481, 187500.0, 187500.0, -18725.822118022697, 22568.355210823443, 0.592, -0.624, 0.548, 192.0, 0.0, 0.0, 0.0, 0.0, 0.0, 0.0, 0.0, 0.0, 0.0, 1.6635887325382087E9, 0.0, 2022-09-19 16:58:52.538
89.0, 13445.334249178679, 26225.011196733856, 13200.001502037228, 45859.61054082043, 187500.0, 187500.0, -18735.90275477204, 22566.41060905583, 0.6, -0.606, 0.55, 192.0, 18.0, 192.0, 237.0, 16.0, 17.0, 48.0, 0.0, 0.0, 0.0, 1.6635887325422344E9, 0.0, 2022-09-19 16:58:52.542
90.0, 13432.28083041678, 26237.61758060665, 13190.300844943626, 45894.25574472616, 187500.0, 187500.0, -18746.653943855043, 22556.397027539853, 0.6, -0.606, 0.55, 192.0, 0.0, 0.0, 0.0, 0.0, 0.0, 0.0, 0.0, 0.0, 0.0, 1.6635887325462947E9, 0.0, 2022-09-19 16:58:52.546
91.0, 13423.630705312575, 26225.27941766732, 13190.524362388178, 45900.7824541071, 187500.0, 187500.0, -18752.465397413423, 22547.411626268822, 0.6, -0.606, 0.55, 192.0, 0.0, 0.0, 0.0, 0.0, 0.0, 0.0, 0.0, 0.0, 0.0, 1.663588732551289E9, 0.0, 2022-09-19 16:58:52.551
92.0, 13448.798769569252, 26217.724528041428, 13200.113260759505, 45911.019553067636, 187500.0, 187500.0, -18743.368237420113, 22546.405797768333, 0.6, -0.606, 0.55, 192.0, 0.0, 0.0, 0.0, 0.0, 0.0, 0.0, 0.0, 0.0, 0.0, 1.663588732555246E9, 0.0, 2022-09-19 16:58:52.555
93.0, 13465.517874421821, 26229.347435158186, 13200.537943904155, 45938.4451435143, 187500.0, 187500.0, -18737.55678386173, 22536.3698645079, 0.6, -0.606, 0.55, 192.0, 0.0, 0.0, 0.0, 0.0, 0.0, 0.0, 0.0, 0.0, 0.0, 1.6635887325592892E9, 0.0, 2022-09-19 16:58:52.559
94.0, 13467.23895874488, 26253.71083661447, 13200.202667737327, 45976.66662653287, 187500.0, 187500.0, -18735.992161749862, 22531.07250107199, 0.6, -0.606, 0.55, 192.0, 0.0, 0.0, 0.0, 0.0, 0.0, 0.0, 0.0, 0.0, 0.0, 1.66358873256226E9, 0.0, 2022-09-19 16:58:52.562
95.0, 13455.660755117031, 26272.419246723563, 13195.531153146167, 46009.501339137714, 187500.0, 187500.0, -18740.127234474094, 22537.330989519476, 0.6, -0.606, 0.55, 192.0, 0.0, 0.0, 0.0, 0.0, 0.0, 0.0, 0.0, 0.0, 0.0, 1.663588732566297E9, 0.0, 2022-09-19 16:58:52.566
96.0, 13459.058220274237, 26271.1004938007, 13190.524362388178, 46021.10189451002, 187500.0, 187500.0, -18744.217603709414, 22536.682788930273, 0.6, -0.606, 0.55, 192.0, 0.0, 0.0, 0.0, 0.0, 0.0, 0.0, 0.0, 0.0, 0.0, 1.6635887325702906E9, 0.0, 2022-09-19 16:58:52.570
97.0, 13467.685993633986, 26273.313316501775, 13188.624464109476, 46033.03772604916, 187500.0, 187500.0, -18743.10001648665, 22527.69738765924, 0.6, -0.606, 0.55, 192.0, 0.0, 0.0, 0.0, 0.0, 0.0, 0.0, 0.0, 0.0, 0.0, 1.6635887325742536E9, 0.0, 2022-09-19 16:58:52.574
98.0, 13466.94838606696, 26292.602871966705, 13182.99182450674, 46061.670310696405, 187500.0, 187500.0, -18744.619935109607, 22517.92967533227, 0.6, -0.606, 0.55, 192.0, 0.0, 0.0, 0.0, 0.0, 0.0, 0.0, 0.0, 0.0, 0.0, 1.6635887325783682E9, 0.0, 2022-09-19 16:58:52.578
99.0, 13449.737542836374, 26327.73981425045, 13181.091926228039, 46110.06183744215, 187500.0, 187500.0, -18749.24674621186, 22521.79652712304, 0.604, -0.612, 0.544, 192.0, 18.0, 224.0, 236.0, 224.0, 17.0, 0.0, 0.0, 0.0, 0.0, 1.663588732583361E9, 0.0, 2022-09-19 16:58:52.583
100.0, 13426.536432091765, 26357.802910542836, 13174.498161613723, 46150.384384439516, 187500.0, 187500.0, -18763.082476029693, 22514.733375875163, 0.604, -0.612, 0.544, 192.0, 0.0, 0.0, 0.0, 0.0, 0.0, 0.0, 0.0, 0.0, 0.0, 1.6635887325862606E9, 0.0, 2022-09-19 16:58:52.586
101.0, 13443.61316485562, 26369.85050080425, 13176.80039129262, 46169.18220152643, 187500.0, 187500.0, -18758.612127138633, 22520.231905011166, 0.604, -0.612, 0.544, 192.0, 0.0, 0.0, 0.0, 0.0, 0.0, 0.0, 0.0, 0.0, 0.0, 1.6635887325902376E9, 0.0, 2022-09-19 16:58:52.590
102.0, 13471.306976235746, 26390.190588258578, 13182.455382639811, 46194.216155316375, 187500.0, 187500.0, -18749.24674621186, 22530.066672571502, 0.604, -0.612, 0.544, 192.0, 0.0, 0.0, 0.0, 0.0, 0.0, 0.0, 0.0, 0.0, 0.0, 1.6635887325943508E9, 0.0, 2022-09-19 16:58:52.594
103.0, 13483.28751126379, 26425.37223403123, 13185.13759197445, 46234.78457150276, 187500.0, 187500.0, -18748.956173533938, 22529.105547559924, 0.604, -0.612, 0.544, 192.0, 0.0, 0.0, 0.0, 0.0, 0.0, 0.0, 0.0, 0.0, 0.0, 1.6635887325983014E9, 0.0, 2022-09-19 16:58:52.598
104.0, 13486.796735143273, 26476.870653256257, 13186.255179197215, 46292.094444286166, 187500.0, 187500.0, -18747.883289800084, 22525.909248102816, 0.604, -0.612, 0.544, 192.0, 0.0, 0.0, 0.0, 0.0, 0.0, 0.0, 0.0, 0.0, 0.0, 1.6635887326023204E9, 0.0, 2022-09-19 16:58:52.602
105.0, 13478.280720505802, 26524.2116480126, 13176.88979827044, 46338.13903786409, 187500.0, 187500.0, -18756.108731759636, 22521.39419572284, 0.604, -0.612, 0.544, 192.0, 0.0, 0.0, 0.0, 0.0, 0.0, 0.0, 0.0, 0.0, 0.0, 1.6635887326063435E9, 0.0, 2022-09-19 16:58:52.606
106.0, 13479.197142028468, 26548.88797389126, 13169.536074344645, 46357.83092472922, 187500.0, 187500.0, -18758.94740330546, 22524.232867268667, 0.604, -0.612, 0.544, 192.0, 0.0, 0.0, 0.0, 0.0, 0.0, 0.0, 0.0, 0.0, 0.0, 1.6635887326114247E9, 0.0, 2022-09-19 16:58:52.611
107.0, 13495.71508118094, 26589.36698309982, 13179.79552504963, 46395.89594553661, 187500.0, 187500.0, -18746.38572292158, 22536.951009863737, 0.604, -0.612, 0.544, 192.0, 0.0, 0.0, 0.0, 0.0, 0.0, 0.0, 0.0, 0.0, 0.0, 1.663588732614325E9, 0.0, 2022-09-19 16:58:52.614
108.0, 13501.951217883972, 26641.625361636325, 13179.683766327355, 46445.5615217163, 187500.0, 187500.0, -18740.529565874287, 22537.621562197397, 0.604, -0.612, 0.544, 192.0, 0.0, 0.0, 0.0, 0.0, 0.0, 0.0, 0.0, 0.0, 0.0, 1.663588732617344E9, 0.0, 2022-09-19 16:58:52.617
109.0, 13498.754918426863, 26705.126667633853, 13174.967548247285, 46507.18528117958, 187500.0, 187500.0, -18741.021304252303, 22533.821765639994, 0.604, -0.62, 0.544, 192.0, 18.0, 224.0, 236.0, 160.0, 17.0, 0.0, 0.0, 0.0, 0.0, 1.6635887326223884E9, 0.0, 2022-09-19 16:58:52.622
110.0, 13481.208799029446, 26755.306333936016, 13159.567196317577, 46553.67690964662, 187500.0, 187500.0, -18755.95226954845, 22529.79845163804, 0.604, -0.62, 0.544, 192.0, 0.0, 0.0, 0.0, 0.0, 0.0, 0.0, 0.0, 0.0, 0.0, 1.663588732626314E9, 0.0, 2022-09-19 16:58:52.626
111.0, 13467.082496533692, 26784.721229639203, 13154.493350326224, 46576.766261668956, 187500.0, 187500.0, -18763.61891789662, 22532.815937139505, 0.604, -0.62, 0.544, 192.0, 0.0, 0.0, 0.0, 0.0, 0.0, 0.0, 0.0, 0.0, 0.0, 1.6635887326303153E9, 0.0, 2022-09-19 16:58:52.630
112.0, 13464.556749410243, 26822.853305679957, 13163.590510319533, 46608.72925624005, 187500.0, 187500.0, -18758.008630038337, 22537.107472074924, 0.604, -0.62, 0.544, 192.0, 0.0, 0.0, 0.0, 0.0, 0.0, 0.0, 0.0, 0.0, 0.0, 1.663588732634385E9, 0.0, 2022-09-19 16:58:52.634
113.0, 13449.871653303106, 26876.206919694774, 13162.003536463206, 46653.879780039766, 187500.0, 187500.0, -18760.08734227268, 22527.719739403696, 0.604, -0.62, 0.544, 192.0, 0.0, 0.0, 0.0, 0.0, 0.0, 0.0, 0.0, 0.0, 0.0, 1.6635887326394072E9, 0.0, 2022-09-19 16:58:52.639
114.0, 13443.032019499782, 26941.563420482093, 13153.576928803555, 46706.96517312112, 187500.0, 187500.0, -18765.34000221968, 22516.65562589832, 0.604, -0.62, 0.544, 192.0, 0.0, 0.0, 0.0, 0.0, 0.0, 0.0, 0.0, 0.0, 0.0, 1.6635887326424036E9, 0.0, 2022-09-19 16:58:52.642
115.0, 13455.727810350396, 26997.666299064913, 13146.469074066768, 46752.04864168747, 187500.0, 187500.0, -18766.72581037591, 22513.772250863585, 0.604, -0.62, 0.544, 192.0, 0.0, 0.0, 0.0, 0.0, 0.0, 0.0, 0.0, 0.0, 0.0, 1.6635887326464229E9, 0.0, 2022-09-19 16:58:52.646
116.0, 13448.552900380242, 27036.06659603913, 13150.514739813178, 46779.04954898948, 187500.0, 187500.0, -18756.958098048937, 22519.40489046632, 0.604, -0.62, 0.544, 192.0, 0.0, 0.0, 0.0, 0.0, 0.0, 0.0, 0.0, 0.0, 0.0, 1.6635887326503713E9, 0.0, 2022-09-19 16:58:52.650
117.0, 13451.168054481514, 27080.054829127173, 13150.715905513276, 46807.86094759237, 187500.0, 187500.0, -18757.025153282306, 22512.74407061864, 0.604, -0.62, 0.544, 192.0, 0.0, 0.0, 0.0, 0.0, 0.0, 0.0, 0.0, 0.0, 0.0, 1.663588732654421E9, 0.0, 2022-09-19 16:58:52.654
118.0, 13490.820049145228, 27142.52795487976, 13160.684783540342, 46853.43615453674, 187500.0, 187500.0, -18746.229260710392, 22524.657550413318, 0.604, -0.62, 0.544, 192.0, 0.0, 0.0, 0.0, 0.0, 0.0, 0.0, 0.0, 0.0, 0.0, 1.6635887326584373E9, 0.0, 2022-09-19 16:58:52.658
119.0, 13482.259331018846, 27216.892208682562, 13170.899530756418, 46913.092960487964, 187500.0, 187500.0, -18736.88623152807, 22545.914059390314, 0.602, -0.62, 0.546, 192.0, 18.0, 208.0, 236.0, 160.0, 17.0, 16.0, 0.0, 0.0, 0.0, 1.6635887326624565E9, 0.0, 2022-09-19 16:58:52.662
120.0, 13426.715246047408, 27277.55484313427, 13176.934501759351, 46961.395080255876, 187500.0, 187500.0, -18733.913449515516, 22559.79449269706, 0.602, -0.62, 0.546, 192.0, 0.0, 0.0, 0.0, 0.0, 0.0, 0.0, 0.0, 0.0, 0.0, 1.6635887326664608E9, 0.0, 2022-09-19 16:58:52.666
121.0, 13457.739467351374, 27313.809372640775, 13172.687670312844, 46982.56218225505, 187500.0, 187500.0, -18723.22931566588, 22556.955821151238, 0.602, -0.62, 0.546, 192.0, 0.0, 0.0, 0.0, 0.0, 0.0, 0.0, 0.0, 0.0, 0.0, 1.6635887326704009E9, 0.0, 2022-09-19 16:58:52.670
122.0, 13580.271730455368, 27365.777178499364, 13188.266836198192, 47018.7496565282, 187500.0, 187500.0, -18691.109858883603, 22564.84598694396, 0.602, -0.62, 0.546, 192.0, 0.0, 0.0, 0.0, 0.0, 0.0, 0.0, 0.0, 0.0, 0.0, 1.6635887326734612E9, 0.0, 2022-09-19 16:58:52.673
123.0, 13596.812021352294, 27420.248379736946, 13200.023853781684, 47059.16161050339, 187500.0, 187500.0, -18680.671594222975, 22571.03742015808, 0.602, -0.62, 0.546, 192.0, 0.0, 0.0, 0.0, 0.0, 0.0, 0.0, 0.0, 0.0, 0.0, 1.663588732678562E9, 0.0, 2022-09-19 16:58:52.678
124.0, 13600.790631865339, 27480.53103453291, 13207.399929451934, 47103.306305802624, 187500.0, 187500.0, -18672.513207496788, 22586.057792432046, 0.602, -0.62, 0.546, 192.0, 0.0, 0.0, 0.0, 0.0, 0.0, 0.0, 0.0, 0.0, 0.0, 1.6635887326824944E9, 0.0, 2022-09-19 16:58:52.682
125.0, 13594.420384695577, 27516.696157061597, 13199.912095059408, 47123.177006623395, 187500.0, 187500.0, -18679.93398665595, 22596.56311232604, 0.602, -0.62, 0.546, 192.0, 0.0, 0.0, 0.0, 0.0, 0.0, 0.0, 0.0, 0.0, 0.0, 1.66358873268645E9, 0.0, 2022-09-19 16:58:52.686
126.0, 13572.4039164071, 27531.627122357742, 13188.535057131656, 47125.479236302286, 187500.0, 187500.0, -18687.198303603924, 22603.67096706283, 0.602, -0.62, 0.546, 192.0, 0.0, 0.0, 0.0, 0.0, 0.0, 0.0, 0.0, 0.0, 0.0, 1.6635887326904428E9, 0.0, 2022-09-19 16:58:52.690
127.0, 13561.518616857365, 27551.676637134155, 13185.025833252173, 47138.130323663994, 187500.0, 187500.0, -18686.013661147794, 22605.772031041626, 0.602, -0.62, 0.546, 192.0, 0.0, 0.0, 0.0, 0.0, 0.0, 0.0, 0.0, 0.0, 0.0, 1.6635887326945927E9, 0.0, 2022-09-19 16:58:52.694
128.0, 13551.39327661911, 27584.35488752781, 13194.480621156767, 47162.27020767573, 187500.0, 187500.0, -18680.1575041005, 22612.23168518921, 0.602, -0.62, 0.546, 192.0, 0.0, 0.0, 0.0, 0.0, 0.0, 0.0, 0.0, 0.0, 0.0, 1.6635887326985693E9, 0.0, 2022-09-19 16:58:52.698
129.0, 13526.672247251541, 27627.583161304377, 13195.732318846265, 47195.39549295849, 187500.0, 187500.0, -18684.06905938018, 22607.71663280924, 0.592, -0.622, 0.546, 192.0, 18.0, 128.0, 236.0, 144.0, 17.0, 16.0, 0.0, 0.0, 0.0, 1.6635887327015367E9, 0.0, 2022-09-19 16:58:52.701
130.0, 13536.90934621207, 27657.445091896665, 13186.590455364045, 47214.99797284579, 187500.0, 187500.0, -18686.55010301472, 22612.27638867812, 0.592, -0.622, 0.546, 192.0, 0.0, 0.0, 0.0, 0.0, 0.0, 0.0, 0.0, 0.0, 0.0, 1.6635887327065413E9, 0.0, 2022-09-19 16:58:52.706
131.0, 13543.324296870745, 27661.021371009516, 13183.841190796042, 47211.42169373294, 187500.0, 187500.0, -18687.37711755957, 22609.102440965467, 0.592, -0.622, 0.546, 192.0, 0.0, 0.0, 0.0, 0.0, 0.0, 0.0, 0.0, 0.0, 0.0, 1.663588732710534E9, 0.0, 2022-09-19 16:58:52.710
132.0, 13537.579898545731, 27673.00190603756, 13177.426240137369, 47218.61895544755, 187500.0, 187500.0, -18688.31589082669, 22601.2346269172, 0.592, -0.622, 0.546, 192.0, 0.0, 0.0, 0.0, 0.0, 0.0, 0.0, 0.0, 0.0, 0.0, 1.663588732714579E9, 0.0, 2022-09-19 16:58:52.714
133.0, 13524.235907105913, 27693.3866969808, 13165.155132431404, 47239.78605744673, 187500.0, 187500.0, -18693.277978095768, 22594.082068691503, 0.592, -0.622, 0.546, 192.0, 0.0, 0.0, 0.0, 0.0, 0.0, 0.0, 0.0, 0.0, 0.0, 1.6635887327185605E9, 0.0, 2022-09-19 16:58:52.718
134.0, 13525.755825728873, 27738.15724112478, 13169.111391199995, 47287.19410743644, 187500.0, 187500.0, -18688.494704782333, 22598.865342004938, 0.592, -0.622, 0.546, 192.0, 0.0, 0.0, 0.0, 0.0, 0.0, 0.0, 0.0, 0.0, 0.0, 1.6635887327225277E9, 0.0, 2022-09-19 16:58:52.722
135.0, 13534.87533746664, 27765.404017615798, 13167.278548154658, 47320.16293050801, 187500.0, 187500.0, -18687.332414070657, 22600.85464726146, 0.592, -0.622, 0.546, 192.0, 0.0, 0.0, 0.0, 0.0, 0.0, 0.0, 0.0, 0.0, 0.0, 1.6635887327255235E9, 0.0, 2022-09-19 16:58:52.725
136.0, 13534.294192110801, 27769.248517662112, 13162.137646929938, 47332.79166612526, 187500.0, 187500.0, -18689.2099606049, 22606.621397330928, 0.592, -0.622, 0.546, 192.0, 0.0, 0.0, 0.0, 0.0, 0.0, 0.0, 0.0, 0.0, 0.0, 1.6635887327295566E9, 0.0, 2022-09-19 16:58:52.729
137.0, 13537.959878201471, 27788.001631260115, 13169.044335966628, 47365.671082219014, 187500.0, 187500.0, -18679.956338400407, 22619.361891670454, 0.592, -0.622, 0.546, 192.0, 0.0, 0.0, 0.0, 0.0, 0.0, 0.0, 0.0, 0.0, 0.0, 1.6635887327335372E9, 0.0, 2022-09-19 16:58:52.733
138.0, 13555.3495353877, 27822.333910743466, 13177.023908737172, 47419.24821367839, 187500.0, 187500.0, -18670.07686735116, 22623.541667883597, 0.592, -0.622, 0.546, 192.0, 0.0, 0.0, 0.0, 0.0, 0.0, 0.0, 0.0, 0.0, 0.0, 1.6635887327385156E9, 0.0, 2022-09-19 16:58:52.738
139.0, 13552.510863841875, 27852.732283202684, 13165.624519064966, 47467.14800204611, 187500.0, 187500.0, -18682.392678546035, 22604.073298463023, 0.592, -0.62, 0.548, 192.0, 18.0, 128.0, 236.0, 160.0, 17.0, 32.0, 0.0, 0.0, 0.0, 1.6635887327425632E9, 0.0, 2022-09-19 16:58:52.742
140.0, 13536.283497367323, 27866.076274642503, 13149.26304212368, 47494.57359249277, 187500.0, 187500.0, -18695.021414163282, 22599.692356549785, 0.592, -0.62, 0.548, 192.0, 0.0, 0.0, 0.0, 0.0, 0.0, 0.0, 0.0, 0.0, 0.0, 1.6635887327465925E9, 0.0, 2022-09-19 16:58:52.746
141.0, 13528.05805540777, 27866.322143831512, 13153.08519042554, 47502.53081351886, 187500.0, 187500.0, -18688.874684438073, 22607.202542686766, 0.592, -0.62, 0.548, 192.0, 0.0, 0.0, 0.0, 0.0, 0.0, 0.0, 0.0, 0.0, 0.0, 1.6635887327496135E9, 0.0, 2022-09-19 16:58:52.749
142.0, 13518.491508780899, 27882.594213794975, 13149.911242712886, 47519.58519453826, 187500.0, 187500.0, -18686.214826847892, 22607.1354874534, 0.592, -0.62, 0.548, 192.0, 0.0, 0.0, 0.0, 0.0, 0.0, 0.0, 0.0, 0.0, 0.0, 1.663588732753521E9, 0.0, 2022-09-19 16:58:52.753
143.0, 13503.3370260402, 27909.081030974514, 13143.004553676195, 47546.36258439572, 187500.0, 187500.0, -18691.042803650238, 22598.597121071474, 0.592, -0.62, 0.548, 192.0, 0.0, 0.0, 0.0, 0.0, 0.0, 0.0, 0.0, 0.0, 0.0, 1.6635887327576325E9, 0.0, 2022-09-19 16:58:52.757
144.0, 13502.778232428818, 27937.91478132186, 13126.039579634617, 47577.431509188595, 187500.0, 187500.0, -18699.75998398781, 22580.872187718414, 0.592, -0.62, 0.548, 192.0, 0.0, 0.0, 0.0, 0.0, 0.0, 0.0, 0.0, 0.0, 0.0, 1.663588732761717E9, 0.0, 2022-09-19 16:58:52.761
145.0, 13545.023029449349, 27960.892374621915, 13121.278658065638, 47596.81047163135, 187500.0, 187500.0, -18701.07873691067, 22586.683641276795, 0.592, -0.62, 0.548, 192.0, 0.0, 0.0, 0.0, 0.0, 0.0, 0.0, 0.0, 0.0, 0.0, 1.6635887327666316E9, 0.0, 2022-09-19 16:58:52.766
146.0, 13548.53225332883, 27970.25775554869, 13120.608105731977, 47597.99511408748, 187500.0, 187500.0, -18698.28476885376, 22596.987795470694, 0.592, -0.62, 0.548, 192.0, 0.0, 0.0, 0.0, 0.0, 0.0, 0.0, 0.0, 0.0, 0.0, 1.6635887327705944E9, 0.0, 2022-09-19 16:58:52.770
147.0, 13523.095968138692, 27978.103217852502, 13110.348655026992, 47594.62000067473, 187500.0, 187500.0, -18702.643359022542, 22589.298795378065, 0.592, -0.62, 0.548, 192.0, 0.0, 0.0, 0.0, 0.0, 0.0, 0.0, 0.0, 0.0, 0.0, 1.6635887327746973E9, 0.0, 2022-09-19 16:58:52.774
148.0, 13504.164040585047, 27989.212034846787, 13095.976483342229, 47591.58016342881, 187500.0, 187500.0, -18706.4655073244, 22578.65936501734, 0.592, -0.62, 0.548, 192.0, 0.0, 0.0, 0.0, 0.0, 0.0, 0.0, 0.0, 0.0, 0.0, 1.6635887327776444E9, 0.0, 2022-09-19 16:58:52.777
149.0, 13470.971700068916, 28015.40827934841, 13082.408974457858, 47608.075750836826, 187500.0, 187500.0, -18719.60833306412, 22579.687545262284, 0.594, -0.624, 0.546, 192.0, 18.0, 144.0, 236.0, 128.0, 17.0, 16.0, 0.0, 0.0, 0.0, 1.6635887327826004E9, 0.0, 2022-09-19 16:58:52.782
150.0, 13484.852133375662, 28034.563724346608, 13073.691794120288, 47617.73170444152, 187500.0, 187500.0, -18723.74340578835, 22580.98394644069, 0.594, -0.624, 0.546, 192.0, 0.0, 0.0, 0.0, 0.0, 0.0, 0.0, 0.0, 0.0, 0.0, 1.663588732787671E9, 0.0, 2022-09-19 16:58:52.787
151.0, 13528.035703663314, 28038.989369748757, 13075.837561587998, 47606.33231476931, 187500.0, 187500.0, -18709.237123636856, 22587.66711803283, 0.594, -0.624, 0.546, 192.0, 0.0, 0.0, 0.0, 0.0, 0.0, 0.0, 0.0, 0.0, 0.0, 1.6635887327916696E9, 0.0, 2022-09-19 16:58:52.791
152.0, 13538.25045087939, 28047.617143108506, 13079.369137211936, 47593.54711694087, 187500.0, 187500.0, -18704.632664279066, 22579.79930398456, 0.594, -0.624, 0.546, 192.0, 0.0, 0.0, 0.0, 0.0, 0.0, 0.0, 0.0, 0.0, 0.0, 1.6635887327946637E9, 0.0, 2022-09-19 16:58:52.794
153.0, 13539.636259035618, 28064.31389621662, 13076.351651710469, 47587.288628493385, 187500.0, 187500.0, -18712.008739949317, 22555.1229781059, 0.594, -0.624, 0.546, 192.0, 0.0, 0.0, 0.0, 0.0, 0.0, 0.0, 0.0, 0.0, 0.0, 1.6635887327976773E9, 0.0, 2022-09-19 16:58:52.797
154.0, 13548.755770773385, 28091.493617474272, 13076.239892988193, 47596.67636116462, 187500.0, 187500.0, -18719.47422259739, 22557.246393829155, 0.594, -0.624, 0.546, 192.0, 0.0, 0.0, 0.0, 0.0, 0.0, 0.0, 0.0, 0.0, 0.0, 1.6635887328016431E9, 0.0, 2022-09-19 16:58:52.801
155.0, 13582.685718856541, 28106.625748470517, 13080.933759323807, 47589.90378259466, 187500.0, 187500.0, -18711.40524284902, 22583.800266242062, 0.594, -0.624, 0.546, 192.0, 0.0, 0.0, 0.0, 0.0, 0.0, 0.0, 0.0, 0.0, 0.0, 1.6635887328056512E9, 0.0, 2022-09-19 16:58:52.805
156.0, 13576.203712964501, 28104.569387980628, 13086.700509393277, 47565.048642760354, 187500.0, 187500.0, -18706.33139685767, 22594.037365202592, 0.594, -0.624, 0.546, 192.0, 0.0, 0.0, 0.0, 0.0, 0.0, 0.0, 0.0, 0.0, 0.0, 1.6635887328106976E9, 0.0, 2022-09-19 16:58:52.810
157.0, 13559.238738922924, 28110.492600261285, 13092.221390273739, 47547.03313672938, 187500.0, 187500.0, -18707.33722535816, 22592.1821704128, 0.594, -0.624, 0.546, 192.0, 0.0, 0.0, 0.0, 0.0, 0.0, 0.0, 0.0, 0.0, 0.0, 1.6635887328146923E9, 0.0, 2022-09-19 16:58:52.814
158.0, 13538.809244490772, 28120.84145794409, 13078.296253478082, 47530.515197576904, 187500.0, 187500.0, -18714.93681847296, 22567.639955000872, 0.594, -0.624, 0.546, 192.0, 0.0, 0.0, 0.0, 0.0, 0.0, 0.0, 0.0, 0.0, 0.0, 1.6635887328177085E9, 0.0, 2022-09-19 16:58:52.817
159.0, 13539.211575890968, 28151.932734481423, 13082.274863991126, 47532.616261555704, 187500.0, 187500.0, -18711.315835871203, 22571.50680679164, 0.592, -0.62, 0.544, 192.0, 18.0, 128.0, 236.0, 160.0, 17.0, 0.0, 0.0, 0.0, 0.0, 1.6635887328216982E9, 0.0, 2022-09-19 16:58:52.821
160.0, 13538.63043053513, 28165.612002088073, 13087.214599515748, 47520.21104338301, 187500.0, 187500.0, -18710.60058004863, 22581.65449877435, 0.592, -0.62, 0.544, 192.0, 0.0, 0.0, 0.0, 0.0, 0.0, 0.0, 0.0, 0.0, 0.0, 1.6635887328257198E9, 0.0, 2022-09-19 16:58:52.825
161.0, 13535.434131078022, 28162.23688867532, 13072.35068945297, 47489.92442964607, 187500.0, 187500.0, -18716.12146092909, 22568.71283873473, 0.592, -0.62, 0.544, 192.0, 0.0, 0.0, 0.0, 0.0, 0.0, 0.0, 0.0, 0.0, 0.0, 1.6635887328296604E9, 0.0, 2022-09-19 16:58:52.829
162.0, 13516.077520379726, 28162.125129953045, 13052.43528514329, 47464.71166190048, 187500.0, 187500.0, -18726.64913256754, 22550.40676002583, 0.592, -0.62, 0.544, 192.0, 0.0, 0.0, 0.0, 0.0, 0.0, 0.0, 0.0, 0.0, 0.0, 1.6635887328337996E9, 0.0, 2022-09-19 16:58:52.833
163.0, 13514.445843034488, 28189.260147721787, 13067.790933584087, 47466.52215320136, 187500.0, 187500.0, -18712.85810623862, 22566.969402667215, 0.592, -0.62, 0.544, 192.0, 0.0, 0.0, 0.0, 0.0, 0.0, 0.0, 0.0, 0.0, 0.0, 1.6635887328387449E9, 0.0, 2022-09-19 16:58:52.838
164.0, 13513.708235467462, 28225.71584292839, 13071.434267930303, 47476.64749343962, 187500.0, 187500.0, -18708.767737003298, 22588.360022110945, 0.592, -0.62, 0.544, 192.0, 0.0, 0.0, 0.0, 0.0, 0.0, 0.0, 0.0, 0.0, 0.0, 1.66358873284273E9, 0.0, 2022-09-19 16:58:52.842
165.0, 13490.752993911863, 28218.25036028032, 13043.002848983151, 47448.28312972583, 187500.0, 187500.0, -18729.75602504683, 22571.462103302732, 0.592, -0.62, 0.544, 192.0, 0.0, 0.0, 0.0, 0.0, 0.0, 0.0, 0.0, 0.0, 0.0, 1.6635887328457325E9, 0.0, 2022-09-19 16:58:52.845
166.0, 13477.297243749768, 28197.999679803812, 13021.232249883682, 47413.570870586744, 187500.0, 187500.0, -18747.592717122167, 22542.114262832914, 0.592, -0.62, 0.544, 192.0, 0.0, 0.0, 0.0, 0.0, 0.0, 0.0, 0.0, 0.0, 0.0, 1.6635887328497343E9, 0.0, 2022-09-19 16:58:52.849
167.0, 13464.422638943512, 28203.05117405071, 13009.363473577914, 47405.41248386056, 187500.0, 187500.0, -18760.80259809525, 22528.97143709319, 0.592, -0.62, 0.544, 192.0, 0.0, 0.0, 0.0, 0.0, 0.0, 0.0, 0.0, 0.0, 0.0, 1.663588732853753E9, 0.0, 2022-09-19 16:58:52.853
168.0, 13447.927051535495, 28220.82081089268, 13006.614209009911, 47410.26281240735, 187500.0, 187500.0, -18768.111618532137, 22520.433070711264, 0.592, -0.62, 0.544, 192.0, 0.0, 0.0, 0.0, 0.0, 0.0, 0.0, 0.0, 0.0, 0.0, 1.6635887328577805E9, 0.0, 2022-09-19 16:58:52.857
169.0, 13454.90079580555, 28250.570982762696, 12999.819278695499, 47423.60680384717, 187500.0, 187500.0, -18768.692763887975, 22511.380614206864, 0.592, -0.62, 0.544, 192.0, 0.0, 0.0, 0.0, 0.0, 0.0, 0.0, 0.0, 0.0, 0.0, 1.6635887328617527E9, 0.0, 2022-09-19 16:58:52.861
170.0, 13464.132066265593, 28257.947058432947, 12988.442240767747, 47415.20254793198, 187500.0, 187500.0, -18771.933766833994, 22512.3640909629, 0.596, -0.618, 0.538, 192.0, 18.0, 160.0, 236.0, 176.0, 16.0, 208.0, 0.0, 0.0, 0.0, 1.6635887328677917E9, 0.0, 2022-09-19 16:58:52.867
171.0, 13456.599528384153, 28251.509756029816, 12977.065202839996, 47395.71182676695, 187500.0, 187500.0, -18779.175732037515, 22507.379651949366, 0.596, -0.618, 0.538, 192.0, 0.0, 0.0, 0.0, 0.0, 0.0, 0.0, 0.0, 0.0, 0.0, 1.6635887328708053E9, 0.0, 2022-09-19 16:58:52.870
172.0, 13461.025173786304, 28274.085017929676, 12988.688109956754, 47405.50189083837, 187500.0, 187500.0, -18767.597528409664, 22520.74599513364, 0.596, -0.618, 0.538, 192.0, 0.0, 0.0, 0.0, 0.0, 0.0, 0.0, 0.0, 0.0, 0.0, 1.6635887328747451E9, 0.0, 2022-09-19 16:58:52.874
173.0, 13462.813313342729, 28309.7807538248, 13000.690996729256, 47431.69813534, 187500.0, 187500.0, -18762.81425509623, 22528.680864415273, 0.596, -0.618, 0.538, 192.0, 0.0, 0.0, 0.0, 0.0, 0.0, 0.0, 0.0, 0.0, 0.0, 1.6635887328779025E9, 0.0, 2022-09-19 16:58:52.877
174.0, 13446.764760823819, 28329.22677150092, 12993.918418159297, 47444.50568491289, 187500.0, 187500.0, -18780.405077982556, 22499.467134412185, 0.596, -0.618, 0.538, 192.0, 0.0, 0.0, 0.0, 0.0, 0.0, 0.0, 0.0, 0.0, 0.0, 1.663588732881826E9, 0.0, 2022-09-19 16:58:52.881
175.0, 13436.170033952003, 28339.352111739176, 12990.789173935555, 47447.21024599198, 187500.0, 187500.0, -18784.920130362527, 22494.415640165287, 0.596, -0.618, 0.538, 192.0, 0.0, 0.0, 0.0, 0.0, 0.0, 0.0, 0.0, 0.0, 0.0, 1.66358873288581E9, 0.0, 2022-09-19 16:58:52.885
176.0, 13425.999990224838, 28341.453175717972, 12978.965101118696, 47440.39296393311, 187500.0, 187500.0, -18788.988147853393, 22483.68680282674, 0.596, -0.618, 0.538, 192.0, 0.0, 0.0, 0.0, 0.0, 0.0, 0.0, 0.0, 0.0, 0.0, 1.6635887328898327E9, 0.0, 2022-09-19 16:58:52.889
177.0, 13431.945554249949, 28352.69610317899, 12985.201237821728, 47444.617443635165, 187500.0, 187500.0, -18778.371069237124, 22486.994861006126, 0.596, -0.618, 0.538, 192.0, 0.0, 0.0, 0.0, 0.0, 0.0, 0.0, 0.0, 0.0, 0.0, 1.6635887328938608E9, 0.0, 2022-09-19 16:58:52.893
178.0, 13440.841548543161, 28382.535682026828, 12983.52485698758, 47462.74470838842, 187500.0, 187500.0, -18786.350642007666, 22494.393288420833, 0.596, -0.618, 0.538, 192.0, 0.0, 0.0, 0.0, 0.0, 0.0, 0.0, 0.0, 0.0, 0.0, 1.6635887328989131E9, 0.0, 2022-09-19 16:58:52.898
179.0, 13456.71128710643, 28421.181848190052, 12973.466571982692, 47487.197516822525, 187500.0, 187500.0, -18789.301072275768, 22506.954968804715, 0.596, -0.618, 0.538, 192.0, 0.0, 0.0, 0.0, 0.0, 0.0, 0.0, 0.0, 0.0, 0.0, 1.663588732901873E9, 0.0, 2022-09-19 16:58:52.901
180.0, 13469.697650634964, 28435.19639196353, 12968.124505057873, 47482.95068537601, 187500.0, 187500.0, -18790.664528687543, 22508.89957057233, 0.594, -0.616, 0.546, 192.0, 18.0, 144.0, 236.0, 192.0, 17.0, 16.0, 0.0, 0.0, 0.0, 1.6635887329059105E9, 0.0, 2022-09-19 16:58:52.905
181.0, 13455.169016739013, 28438.459746654007, 12969.264444025093, 47464.5551996893, 187500.0, 187500.0, -18795.224284556425, 22505.055070526014, 0.594, -0.616, 0.546, 192.0, 0.0, 0.0, 0.0, 0.0, 0.0, 0.0, 0.0, 0.0, 0.0, 1.6635887329099407E9, 0.0, 2022-09-19 16:58:52.909
182.0, 13435.56653685171, 28454.754168361924, 12987.212894822705, 47458.76609787537, 187500.0, 187500.0, -18778.840455870682, 22501.992881535636, 0.594, -0.616, 0.546, 192.0, 0.0, 0.0, 0.0, 0.0, 0.0, 0.0, 0.0, 0.0, 0.0, 1.663588732913871E9, 0.0, 2022-09-19 16:58:52.913
183.0, 13426.335266391668, 28487.432418755583, 12987.771688434088, 47468.91378985808, 187500.0, 187500.0, -18777.745220392375, 22495.577930876963, 0.594, -0.616, 0.546, 192.0, 0.0, 0.0, 0.0, 0.0, 0.0, 0.0, 0.0, 0.0, 0.0, 1.663588732917898E9, 0.0, 2022-09-19 16:58:52.917
184.0, 13455.169016739013, 28520.557704038347, 12978.965101118696, 47480.98373186395, 187500.0, 187500.0, -18778.840455870682, 22483.35152665991, 0.594, -0.616, 0.546, 192.0, 0.0, 0.0, 0.0, 0.0, 0.0, 0.0, 0.0, 0.0, 0.0, 1.6635887329218993E9, 0.0, 2022-09-19 16:58:52.921
185.0, 13488.137839810592, 28527.59850354177, 12962.357754988403, 47461.26949325437, 187500.0, 187500.0, -18787.445877485978, 22491.286395941544, 0.594, -0.616, 0.546, 192.0, 0.0, 0.0, 0.0, 0.0, 0.0, 0.0, 0.0, 0.0, 0.0, 1.663588732925928E9, 0.0, 2022-09-19 16:58:52.925
186.0, 13481.432316474, 28535.801593756867, 12950.51133042709, 47443.81278083477, 187500.0, 187500.0, -18793.48084848891, 22494.706212843208, 0.594, -0.616, 0.546, 192.0, 0.0, 0.0, 0.0, 0.0, 0.0, 0.0, 0.0, 0.0, 0.0, 1.6635887329288964E9, 0.0, 2022-09-19 16:58:52.928
187.0, 13471.552845424754, 28557.12515796723, 12951.494807183124, 47438.71658309896, 187500.0, 187500.0, -18789.77045890933, 22489.453552896208, 0.594, -0.616, 0.546, 192.0, 0.0, 0.0, 0.0, 0.0, 0.0, 0.0, 0.0, 0.0, 0.0, 1.6635887329338746E9, 0.0, 2022-09-19 16:58:52.933
188.0, 13479.644176917574, 28589.982222316532, 12954.42288570677, 47444.326870957244, 187500.0, 187500.0, -18782.32732800571, 22486.324308672465, 0.594, -0.616, 0.546, 192.0, 0.0, 0.0, 0.0, 0.0, 0.0, 0.0, 0.0, 0.0, 0.0, 1.663588732937935E9, 0.0, 2022-09-19 16:58:52.937
189.0, 13477.073726305214, 28605.60609169079, 12947.6056036479, 47434.02271676335, 187500.0, 187500.0, -18781.924996605518, 22476.57894808995, 0.594, -0.616, 0.546, 192.0, 0.0, 0.0, 0.0, 0.0, 0.0, 0.0, 0.0, 0.0, 0.0, 1.6635887329419425E9, 0.0, 2022-09-19 16:58:52.941
190.0, 13475.710269893441, 28603.90735911219, 12935.401551175304, 47408.899355995585, 187500.0, 187500.0, -18784.607205940152, 22491.554616875008, 0.588, -0.612, 0.552, 192.0, 18.0, 96.0, 236.0, 224.0, 17.0, 64.0, 0.0, 0.0, 0.0, 1.6635887329459898E9, 0.0, 2022-09-19 16:58:52.945
191.0, 13469.89881633506, 28601.538074199925, 12928.561917371979, 47379.79738471477, 187500.0, 187500.0, -18792.698537432974, 22504.92096005928, 0.588, -0.612, 0.552, 192.0, 0.0, 0.0, 0.0, 0.0, 0.0, 0.0, 0.0, 0.0, 0.0, 1.6635887329499946E9, 0.0, 2022-09-19 16:58:52.949
192.0, 13468.557711667743, 28613.451553994604, 12947.672658881267, 47361.89363740607, 187500.0, 187500.0, -18778.99691808187, 22497.634291366852, 0.588, -0.612, 0.552, 192.0, 0.0, 0.0, 0.0, 0.0, 0.0, 0.0, 0.0, 0.0, 0.0, 1.663588732953892E9, 0.0, 2022-09-19 16:58:52.953
193.0, 13461.04752553076, 28636.33974031684, 12957.08274329695, 47355.836314658685, 187500.0, 187500.0, -18764.66944988602, 22497.50018090012, 0.588, -0.612, 0.552, 192.0, 0.0, 0.0, 0.0, 0.0, 0.0, 0.0, 0.0, 0.0, 0.0, 1.663588732956977E9, 0.0, 2022-09-19 16:58:52.956
194.0, 13462.075705775704, 28658.311505116406, 12942.196481489716, 47350.62835820059, 187500.0, 187500.0, -18774.548920935264, 22520.142498033347, 0.588, -0.612, 0.552, 192.0, 0.0, 0.0, 0.0, 0.0, 0.0, 0.0, 0.0, 0.0, 0.0, 1.6635887329619498E9, 0.0, 2022-09-19 16:58:52.961
195.0, 13456.778342339796, 28645.705121243613, 12948.209100748194, 47313.055075771226, 187500.0, 187500.0, -18776.851150614162, 22531.296018516543, 0.588, -0.612, 0.552, 192.0, 0.0, 0.0, 0.0, 0.0, 0.0, 0.0, 0.0, 0.0, 0.0, 1.6635887329659462E9, 0.0, 2022-09-19 16:58:52.965
196.0, 13454.856092316639, 28615.37380401776, 12964.324708500471, 47261.40019433501, 187500.0, 187500.0, -18764.356525463645, 22533.039454584057, 0.588, -0.612, 0.552, 192.0, 0.0, 0.0, 0.0, 0.0, 0.0, 0.0, 0.0, 0.0, 0.0, 1.6635887329699695E9, 0.0, 2022-09-19 16:58:52.969
197.0, 13444.149606722547, 28586.56240541487, 12956.188673518738, 47215.042676334706, 187500.0, 187500.0, -18774.504217446356, 22524.07640505748, 0.588, -0.612, 0.552, 192.0, 0.0, 0.0, 0.0, 0.0, 0.0, 0.0, 0.0, 0.0, 0.0, 1.6635887329739797E9, 0.0, 2022-09-19 16:58:52.973
198.0, 13435.320667662701, 28552.677160820625, 12945.7057053692, 47169.1321932235, 187500.0, 187500.0, -18780.740354149384, 22517.30382648752, 0.588, -0.612, 0.552, 192.0, 0.0, 0.0, 0.0, 0.0, 0.0, 0.0, 0.0, 0.0, 0.0, 1.6635887329779844E9, 0.0, 2022-09-19 16:58:52.977
199.0, 13429.352751893133, 28484.72785767649, 12933.278135452048, 47101.160538334916, 187500.0, 187500.0, -18788.563464708743, 22499.958872790205, 0.588, -0.612, 0.552, 192.0, 0.0, 0.0, 0.0, 0.0, 0.0, 0.0, 0.0, 0.0, 0.0, 1.6635887329819803E9, 0.0, 2022-09-19 16:58:52.981
200.0, 13436.594717096654, 28360.653324205083, 12933.076969751952, 46991.48052829272, 187500.0, 187500.0, -18790.865694387638, 22498.327195444966, 0.592, -0.614, 0.552, 192.0, 18.0, 128.0, 236.0, 208.0, 17.0, 64.0, 0.0, 0.0, 0.0, 1.6635887329850383E9, 0.0, 2022-09-19 16:58:52.985
201.0, 13447.435313157477, 28214.316453256186, 12946.443312936224, 46870.98227393416, 187500.0, 187500.0, -18784.495447217876, 22504.719794359185, 0.592, -0.614, 0.552, 192.0, 0.0, 0.0, 0.0, 0.0, 0.0, 0.0, 0.0, 0.0, 0.0, 1.6635887329889684E9, 0.0, 2022-09-19 16:58:52.988
202.0, 13432.481996116878, 28056.401378679442, 12945.236318735639, 46750.416964342236, 187500.0, 187500.0, -18780.04745007127, 22510.50889617311, 0.592, -0.614, 0.552, 192.0, 0.0, 0.0, 0.0, 0.0, 0.0, 0.0, 0.0, 0.0, 0.0, 1.6635887329940007E9, 0.0, 2022-09-19 16:58:52.994
203.0, 13409.996141194839, 27891.04317319908, 12930.953554028698, 46631.57273907337, 187500.0, 187500.0, -18794.06199384475, 22513.59343690794, 0.592, -0.614, 0.552, 192.0, 0.0, 0.0, 0.0, 0.0, 0.0, 0.0, 0.0, 0.0, 0.0, 1.6635887329981692E9, 0.0, 2022-09-19 16:58:52.998
204.0, 13409.973789450383, 27708.51882797704, 12925.857356292887, 46501.9773247215, 187500.0, 187500.0, -18796.3865752681, 22512.40879445181, 0.592, -0.614, 0.552, 192.0, 0.0, 0.0, 0.0, 0.0, 0.0, 0.0, 0.0, 0.0, 0.0, 1.6635887330020669E9, 0.0, 2022-09-19 16:58:53.002
205.0, 13399.289655600745, 27475.01015365245, 12911.686350308222, 46327.14197959209, 187500.0, 187500.0, -18801.81804917074, 22487.397192406323, 0.592, -0.614, 0.552, 192.0, 0.0, 0.0, 0.0, 0.0, 0.0, 0.0, 0.0, 0.0, 0.0, 1.663588733006066E9, 0.0, 2022-09-19 16:58:53.006
206.0, 13405.391681837045, 27248.743444531377, 12915.597905587902, 46162.70019563439, 187500.0, 187500.0, -18796.431278757012, 22489.87823604086, 0.592, -0.614, 0.552, 192.0, 0.0, 0.0, 0.0, 0.0, 0.0, 0.0, 0.0, 0.0, 0.0, 1.6635887330100691E9, 0.0, 2022-09-19 16:58:53.010
207.0, 13431.297353660746, 27045.364921732536, 12931.802920318, 46027.136865512955, 187500.0, 187500.0, -18783.176694295013, 22520.522477689086, 0.592, -0.614, 0.552, 192.0, 0.0, 0.0, 0.0, 0.0, 0.0, 0.0, 0.0, 0.0, 0.0, 1.6635887330130963E9, 0.0, 2022-09-19 16:58:53.013
208.0, 13440.640382843065, 26844.64625652388, 12938.575498887956, 45900.1342535179, 187500.0, 187500.0, -18773.744258134873, 22539.923791876292, 0.592, -0.614, 0.552, 192.0, 0.0, 0.0, 0.0, 0.0, 0.0, 0.0, 0.0, 0.0, 0.0, 1.6635887330170588E9, 0.0, 2022-09-19 16:58:53.017
209.0, 13446.496539890355, 26622.358157915853, 12925.857356292887, 45760.43585067223, 187500.0, 187500.0, -18791.692708932485, 22546.718722190708, 0.592, -0.614, 0.552, 192.0, 0.0, 0.0, 0.0, 0.0, 0.0, 0.0, 0.0, 0.0, 0.0, 1.663588733021984E9, 0.0, 2022-09-19 16:58:53.021
210.0, 13441.13212122108, 26339.809756256316, 12908.378292128837, 45571.13892688024, 187500.0, 187500.0, -18801.035738114802, 22540.482585487676, 0.594, -0.62, 0.548, 192.0, 18.0, 144.0, 236.0, 160.0, 17.0, 32.0, 0.0, 0.0, 0.0, 1.6635887330261245E9, 0.0, 2022-09-19 16:58:53.026
211.0, 13424.301257646235, 26009.38391797351, 12923.957458014185, 45349.700194561505, 187500.0, 187500.0, -18776.76174363634, 22514.532210175064, 0.594, -0.62, 0.548, 192.0, 0.0, 0.0, 0.0, 0.0, 0.0, 0.0, 0.0, 0.0, 0.0, 1.6635887330300305E9, 0.0, 2022-09-19 16:58:53.030
212.0, 13393.567609020187, 25665.569384761977, 12911.284018908027, 45127.92618607595, 187500.0, 187500.0, -18790.53041822081, 22496.382593677354, 0.594, -0.62, 0.548, 192.0, 0.0, 0.0, 0.0, 0.0, 0.0, 0.0, 0.0, 0.0, 0.0, 1.6635887330340395E9, 0.0, 2022-09-19 16:58:53.034
213.0, 13399.736690489852, 25333.511869133934, 12908.93708574022, 44924.43590455483, 187500.0, 187500.0, -18793.436145, 22495.600282621417, 0.594, -0.62, 0.548, 192.0, 0.0, 0.0, 0.0, 0.0, 0.0, 0.0, 0.0, 0.0, 0.0, 1.6635887330380552E9, 0.0, 2022-09-19 16:58:53.038
214.0, 13414.13121391907, 24990.814923145168, 12923.421016147258, 44717.01171600958, 187500.0, 187500.0, -18782.372031494622, 22508.78781185005, 0.594, -0.62, 0.548, 192.0, 0.0, 0.0, 0.0, 0.0, 0.0, 0.0, 0.0, 0.0, 0.0, 1.6635887330411887E9, 0.0, 2022-09-19 16:58:53.041
215.0, 13402.41889982449, 24624.849811178425, 12912.98275148663, 44485.33588473033, 187500.0, 187500.0, -18791.3350810212, 22507.26789322709, 0.594, -0.62, 0.548, 192.0, 0.0, 0.0, 0.0, 0.0, 0.0, 0.0, 0.0, 0.0, 0.0, 1.663588733045136E9, 0.0, 2022-09-19 16:58:53.045
216.0, 13381.542370503232, 24275.08971394178, 12910.702873552189, 44270.82619319275, 187500.0, 187500.0, -18797.750031679872, 22504.429221681265, 0.594, -0.62, 0.548, 192.0, 0.0, 0.0, 0.0, 0.0, 0.0, 0.0, 0.0, 0.0, 0.0, 1.6635887330500395E9, 0.0, 2022-09-19 16:58:53.050
217.0, 13397.948550933428, 23970.32367829367, 12927.019647004563, 44100.505900443306, 187500.0, 187500.0, -18784.853075129162, 22525.26104751361, 0.594, -0.62, 0.548, 192.0, 0.0, 0.0, 0.0, 0.0, 0.0, 0.0, 0.0, 0.0, 0.0, 1.6635887330541165E9, 0.0, 2022-09-19 16:58:53.054
218.0, 13406.151641148525, 23677.58288116251, 12925.32091442596, 43941.60734911053, 187500.0, 187500.0, -18792.273854288323, 22530.044320827048, 0.594, -0.62, 0.548, 192.0, 0.0, 0.0, 0.0, 0.0, 0.0, 0.0, 0.0, 0.0, 0.0, 1.663588733058061E9, 0.0, 2022-09-19 16:58:53.058
219.0, 13383.97871064886, 23370.939298980153, 12902.611542059369, 43769.677730760304, 187500.0, 187500.0, -18803.203857326967, 22519.337835232956, 0.594, -0.62, 0.548, 192.0, 0.0, 0.0, 0.0, 0.0, 0.0, 0.0, 0.0, 0.0, 0.0, 1.6635887330621717E9, 0.0, 2022-09-19 16:58:53.062
220.0, 13371.439382009434, 23039.328818241218, 12888.708757008168, 43580.00082731257, 187500.0, 187500.0, -18796.72185143493, 22521.59536142294, 0.59, -0.616, 0.546, 192.0, 18.0, 112.0, 236.0, 192.0, 17.0, 16.0, 0.0, 0.0, 0.0, 1.6635887330651252E9, 0.0, 2022-09-19 16:58:53.065
221.0, 13400.116670145593, 22710.44525032583, 12891.83800123191, 43395.01779020045, 187500.0, 187500.0, -18792.832647899708, 22520.433070711264, 0.59, -0.616, 0.546, 192.0, 0.0, 0.0, 0.0, 0.0, 0.0, 0.0, 0.0, 0.0, 0.0, 1.6635887330692213E9, 0.0, 2022-09-19 16:58:53.069
222.0, 13417.103995931626, 22395.06213606145, 12906.880725250332, 43224.049296861805, 187500.0, 187500.0, -18784.026060584314, 22516.007425309115, 0.59, -0.616, 0.546, 192.0, 0.0, 0.0, 0.0, 0.0, 0.0, 0.0, 0.0, 0.0, 0.0, 1.6635887330731416E9, 0.0, 2022-09-19 16:58:53.073
223.0, 13392.584132264154, 22084.059963710304, 12899.281132135528, 43060.725100126874, 187500.0, 187500.0, -18797.593569468685, 22507.536114160554, 0.59, -0.616, 0.546, 192.0, 0.0, 0.0, 0.0, 0.0, 0.0, 0.0, 0.0, 0.0, 0.0, 1.663588733078179E9, 0.0, 2022-09-19 16:58:53.078
224.0, 13358.587128947633, 21768.274518045728, 12891.234504131617, 42894.80810103513, 187500.0, 187500.0, -18803.89676140508, 22492.851018053418, 0.59, -0.616, 0.546, 192.0, 0.0, 0.0, 0.0, 0.0, 0.0, 0.0, 0.0, 0.0, 0.0, 1.6635887330821228E9, 0.0, 2022-09-19 16:58:53.082
225.0, 13336.190681003414, 21431.277266893063, 12879.052803403474, 42711.121465101416, 187500.0, 187500.0, -18818.73831972341, 22472.26506141008, 0.59, -0.616, 0.546, 192.0, 0.0, 0.0, 0.0, 0.0, 0.0, 0.0, 0.0, 0.0, 0.0, 1.6635887330862317E9, 0.0, 2022-09-19 16:58:53.086
226.0, 13369.852408153107, 21125.885382400204, 12895.593094300402, 42559.57663769444, 187500.0, 187500.0, -18797.839438657695, 22496.583759377452, 0.59, -0.616, 0.546, 192.0, 0.0, 0.0, 0.0, 0.0, 0.0, 0.0, 0.0, 0.0, 0.0, 1.6635887330891483E9, 0.0, 2022-09-19 16:58:53.089
227.0, 13413.37125460759, 20829.97063755639, 12908.043015962008, 42417.2630807475, 187500.0, 187500.0, -18786.887083874593, 22508.944274061236, 0.59, -0.616, 0.546, 192.0, 0.0, 0.0, 0.0, 0.0, 0.0, 0.0, 0.0, 0.0, 0.0, 1.6635887330931408E9, 0.0, 2022-09-19 16:58:53.093
228.0, 13400.049614912226, 20531.239572911214, 12877.823457458433, 42275.26244822293, 187500.0, 187500.0, -18814.312674321256, 22489.721773829675, 0.59, -0.616, 0.546, 192.0, 0.0, 0.0, 0.0, 0.0, 0.0, 0.0, 0.0, 0.0, 0.0, 1.6635887330971177E9, 0.0, 2022-09-19 16:58:53.097
229.0, 13390.84069619664, 20235.257772834037, 12873.420163800736, 42138.20155122299, 187500.0, 187500.0, -18801.840400915196, 22497.45547741121, 0.59, -0.616, 0.546, 192.0, 0.0, 0.0, 0.0, 0.0, 0.0, 0.0, 0.0, 0.0, 0.0, 1.663588733101192E9, 0.0, 2022-09-19 16:58:53.101
230.0, 13403.13415564706, 19926.55783016179, 12890.36278609786, 41987.17081393848, 187500.0, 187500.0, -18778.125200048114, 22508.40783219431, 0.586, -0.614, 0.546, 192.0, 18.0, 80.0, 236.0, 208.0, 17.0, 16.0, 0.0, 0.0, 0.0, 1.6635887331051383E9, 0.0, 2022-09-19 16:58:53.105
231.0, 13411.113728417604, 19639.02498948872, 12904.422033360248, 41850.93693148338, 187500.0, 187500.0, -18774.928900591007, 22504.853904825915, 0.586, -0.614, 0.546, 192.0, 0.0, 0.0, 0.0, 0.0, 0.0, 0.0, 0.0, 0.0, 0.0, 1.663588733110149E9, 0.0, 2022-09-19 16:58:53.110
232.0, 13404.184687636458, 19396.575617382005, 12897.470640834646, 41752.00811052419, 187500.0, 187500.0, -18778.728697148406, 22506.731451360163, 0.586, -0.614, 0.546, 192.0, 0.0, 0.0, 0.0, 0.0, 0.0, 0.0, 0.0, 0.0, 0.0, 1.663588733114225E9, 0.0, 2022-09-19 16:58:53.114
233.0, 13402.41889982449, 19197.220408585123, 12889.781640742021, 41686.673961481334, 187500.0, 187500.0, -18778.52753144831, 22501.814067579995, 0.586, -0.614, 0.546, 192.0, 0.0, 0.0, 0.0, 0.0, 0.0, 0.0, 0.0, 0.0, 0.0, 1.6635887331172018E9, 0.0, 2022-09-19 16:58:53.117
234.0, 13396.518039288288, 19009.689272605094, 12884.797201728488, 41626.078382263, 187500.0, 187500.0, -18786.4847524744, 22494.88502679885, 0.586, -0.614, 0.546, 192.0, 0.0, 0.0, 0.0, 0.0, 0.0, 0.0, 0.0, 0.0, 0.0, 1.663588733121201E9, 0.0, 2022-09-19 16:58:53.121
235.0, 13399.5131730453, 18827.187279127513, 12873.353108567371, 41563.135869876845, 187500.0, 187500.0, -18794.03964210029, 22500.40590767931, 0.586, -0.614, 0.546, 192.0, 0.0, 0.0, 0.0, 0.0, 0.0, 0.0, 0.0, 0.0, 0.0, 1.6635887331252203E9, 0.0, 2022-09-19 16:58:53.125
236.0, 13384.984539149349, 18685.94660591443, 12863.339527051394, 41525.92021535876, 187500.0, 187500.0, -18799.851095658672, 22501.970529791182, 0.586, -0.614, 0.546, 192.0, 0.0, 0.0, 0.0, 0.0, 0.0, 0.0, 0.0, 0.0, 0.0, 1.663588733129239E9, 0.0, 2022-09-19 16:58:53.129
237.0, 13375.93208264495, 18577.071258672626, 12865.082963118908, 41514.140846030816, 187500.0, 187500.0, -18796.252464801368, 22494.08036399846, 0.586, -0.614, 0.546, 192.0, 0.0, 0.0, 0.0, 0.0, 0.0, 0.0, 0.0, 0.0, 0.0, 1.6635887331332889E9, 0.0, 2022-09-19 16:58:53.133
238.0, 13394.864010198595, 18472.643908577433, 12877.26466384705, 41509.871662839854, 187500.0, 187500.0, -18786.797676896775, 22500.69648035723, 0.586, -0.614, 0.546, 192.0, 0.0, 0.0, 0.0, 0.0, 0.0, 0.0, 0.0, 0.0, 0.0, 1.6635887331382225E9, 0.0, 2022-09-19 16:58:53.138
239.0, 13395.735728232352, 18347.943526261275, 12861.752553195067, 41483.854232293874, 187500.0, 187500.0, -18797.81708691324, 22487.12897147286, 0.586, -0.614, 0.546, 192.0, 0.0, 0.0, 0.0, 0.0, 0.0, 0.0, 0.0, 0.0, 0.0, 1.6635887331422668E9, 0.0, 2022-09-19 16:58:53.142
240.0, 13413.974751707883, 18233.79316732802, 12859.249157816072, 41456.875676736316, 187500.0, 187500.0, -18794.2855112893, 22478.769419046574, 0.592, -0.616, 0.548, 192.0, 18.0, 128.0, 236.0, 192.0, 17.0, 32.0, 0.0, 0.0, 0.0, 1.6635887331453853E9, 0.0, 2022-09-19 16:58:53.145
241.0, 13432.79492053925, 18158.35602979136, 12866.759343953056, 41457.21095290315, 187500.0, 187500.0, -18791.96092986595, 22491.487561641643, 0.592, -0.616, 0.548, 192.0, 0.0, 0.0, 0.0, 0.0, 0.0, 0.0, 0.0, 0.0, 0.0, 1.6635887331492996E9, 0.0, 2022-09-19 16:58:53.149
242.0, 13435.432426384978, 18116.96059906013, 12884.238408117106, 41482.24490669309, 187500.0, 187500.0, -18778.52753144831, 22501.970529791182, 0.592, -0.616, 0.548, 192.0, 0.0, 0.0, 0.0, 0.0, 0.0, 0.0, 0.0, 0.0, 0.0, 1.663588733153257E9, 0.0, 2022-09-19 16:58:53.153
243.0, 13413.862992985607, 18094.988834260563, 12886.808858729466, 41519.63937516682, 187500.0, 187500.0, -18781.589720438686, 22501.903474557814, 0.592, -0.616, 0.548, 192.0, 0.0, 0.0, 0.0, 0.0, 0.0, 0.0, 0.0, 0.0, 0.0, 1.663588733157234E9, 0.0, 2022-09-19 16:58:53.157
244.0, 13381.229446080857, 18075.25224390653, 12871.944948666687, 41551.93764590474, 187500.0, 187500.0, -18797.10183109067, 22494.996785521125, 0.592, -0.616, 0.548, 192.0, 0.0, 0.0, 0.0, 0.0, 0.0, 0.0, 0.0, 0.0, 0.0, 1.6635887331612525E9, 0.0, 2022-09-19 16:58:53.161
245.0, 13393.679367742465, 18055.873281463777, 12863.317175306938, 41573.30591360401, 187500.0, 187500.0, -18794.799601411774, 22483.68680282674, 0.592, -0.616, 0.548, 192.0, 0.0, 0.0, 0.0, 0.0, 0.0, 0.0, 0.0, 0.0, 0.0, 1.663588733166264E9, 0.0, 2022-09-19 16:58:53.166
246.0, 13421.999027967338, 18062.66821177819, 12863.048954373475, 41611.25917568913, 187500.0, 187500.0, -18791.71506067694, 22470.901604998304, 0.592, -0.616, 0.548, 192.0, 0.0, 0.0, 0.0, 0.0, 0.0, 0.0, 0.0, 0.0, 0.0, 1.6635887331702645E9, 0.0, 2022-09-19 16:58:53.170
247.0, 13443.657868344531, 18097.514581384014, 12868.078096875919, 41674.380502030916, 187500.0, 187500.0, -18785.434220485, 22469.269927653066, 0.592, -0.616, 0.548, 192.0, 0.0, 0.0, 0.0, 0.0, 0.0, 0.0, 0.0, 0.0, 0.0, 1.6635887331742592E9, 0.0, 2022-09-19 16:58:53.174
248.0, 13437.242917685857, 18144.49794822907, 12856.566948481435, 41745.36964242097, 187500.0, 187500.0, -18791.089211832194, 22467.63825030783, 0.592, -0.616, 0.548, 192.0, 0.0, 0.0, 0.0, 0.0, 0.0, 0.0, 0.0, 0.0, 0.0, 1.663588733178322E9, 0.0, 2022-09-19 16:58:53.178
249.0, 13397.233295110858, 18182.16063763626, 12853.616518213335, 41798.879718646975, 187500.0, 187500.0, -18796.811258412752, 22469.06876195297, 0.592, -0.616, 0.548, 192.0, 0.0, 0.0, 0.0, 0.0, 0.0, 0.0, 0.0, 0.0, 0.0, 1.663588733182375E9, 0.0, 2022-09-19 16:58:53.182
250.0, 13395.758079976807, 18211.620236828356, 12856.25402405906, 41837.23531213228, 187500.0, 187500.0, -18792.00563335486, 22475.193139933723, 0.596, -0.62, 0.55, 192.0, 18.0, 160.0, 236.0, 160.0, 17.0, 48.0, 0.0, 0.0, 0.0, 1.6635887331863256E9, 0.0, 2022-09-19 16:58:53.186
251.0, 13428.838661770662, 18256.301373994516, 12858.243329315583, 41887.37027494553, 187500.0, 187500.0, -18790.485714731898, 22473.405000377297, 0.596, -0.62, 0.55, 192.0, 0.0, 0.0, 0.0, 0.0, 0.0, 0.0, 0.0, 0.0, 0.0, 1.6635887331892912E9, 0.0, 2022-09-19 16:58:53.189
252.0, 13434.761874051319, 18319.735624758676, 12862.31134680645, 41957.53240079074, 187500.0, 187500.0, -18787.356470508155, 22462.40794210529, 0.596, -0.62, 0.55, 192.0, 0.0, 0.0, 0.0, 0.0, 0.0, 0.0, 0.0, 0.0, 0.0, 1.6635887331953132E9, 0.0, 2022-09-19 16:58:53.195
253.0, 13429.79978678224, 18393.11640180545, 12857.036335114997, 42038.244550018855, 187500.0, 187500.0, -18788.85403738666, 22449.399226832298, 0.596, -0.62, 0.55, 192.0, 0.0, 0.0, 0.0, 0.0, 0.0, 0.0, 0.0, 0.0, 0.0, 1.6635887331984196E9, 0.0, 2022-09-19 16:58:53.198
254.0, 13429.33040014868, 18455.902451980408, 12847.089808832385, 42100.42710309352, 187500.0, 187500.0, -18802.66741546004, 22447.856956464882, 0.596, -0.62, 0.55, 192.0, 0.0, 0.0, 0.0, 0.0, 0.0, 0.0, 0.0, 0.0, 0.0, 1.6635887332014008E9, 0.0, 2022-09-19 16:58:53.201
255.0, 13417.036940698259, 18496.80614433362, 12831.085959802385, 42140.81670532426, 187500.0, 187500.0, -18815.653778988573, 22438.089244137915, 0.596, -0.62, 0.55, 192.0, 0.0, 0.0, 0.0, 0.0, 0.0, 0.0, 0.0, 0.0, 0.0, 1.6635887332053344E9, 0.0, 2022-09-19 16:58:53.205
0.0, 13405.36933009259, 18553.82544443911, 12837.925593605709, 42193.11978734968, 187500.0, 187500.0, -18798.19706656898, 22435.094110380902, 0.596, -0.62, 0.55, 192.0, 0.0, 0.0, 0.0, 0.0, 0.0, 0.0, 0.0, 0.0, 0.0, 1.6635887332093427E9, 0.0, 2022-09-19 16:58:53.209
1.0, 13392.628835753065, 18630.335465709624, 12839.646677928768, 42259.727985826496, 187500.0, 187500.0, -18799.873447403126, 22432.724825468642, 0.596, -0.62, 0.55, 192.0, 0.0, 0.0, 0.0, 0.0, 0.0, 0.0, 0.0, 0.0, 0.0, 1.663588733213345E9, 0.0, 2022-09-19 16:58:53.213
2.0, 13420.948495977938, 18727.006760478827, 12845.838111142888, 42344.68696650112, 187500.0, 187500.0, -18794.66549094504, 22444.59360177441, 0.596, -0.62, 0.55, 192.0, 0.0, 0.0, 0.0, 0.0, 0.0, 0.0, 0.0, 0.0, 0.0, 1.6635887332174213E9, 0.0, 2022-09-19 16:58:53.217
3.0, 13438.405208397533, 18795.648967701076, 12839.02082908402, 42399.605202627805, 187500.0, 187500.0, -18798.264121802345, 22451.209718133177, 0.596, -0.62, 0.55, 192.0, 0.0, 0.0, 0.0, 0.0, 0.0, 0.0, 0.0, 0.0, 0.0, 1.66358873322147E9, 0.0, 2022-09-19 16:58:53.221
4.0, 13431.766740294308, 18842.006485701382, 12830.191890024173, 42426.36024074081, 187500.0, 187500.0, -18796.744203179383, 22445.845299463905, 0.59, -0.622, 0.548, 192.0, 18.0, 112.0, 236.0, 144.0, 17.0, 32.0, 0.0, 0.0, 0.0, 1.6635887332263997E9, 0.0, 2022-09-19 16:58:53.226
5.0, 13423.98833322386, 18906.06658531029, 12833.723465648112, 42465.051110392946, 187500.0, 187500.0, -18795.067822345238, 22432.501308024086, 0.59, -0.622, 0.548, 192.0, 0.0, 0.0, 0.0, 0.0, 0.0, 0.0, 0.0, 0.0, 0.0, 1.6635887332294264E9, 0.0, 2022-09-19 16:58:53.229
6.0, 13452.822083571207, 18994.780659053406, 12839.02082908402, 42525.378468677816, 187500.0, 187500.0, -18790.865694387638, 22429.282656822525, 0.59, -0.622, 0.548, 192.0, 0.0, 0.0, 0.0, 0.0, 0.0, 0.0, 0.0, 0.0, 0.0, 1.6635887332333612E9, 0.0, 2022-09-19 16:58:53.233
7.0, 13450.944537036961, 19093.195389890123, 12832.941154592176, 42594.11008287789, 187500.0, 187500.0, -18792.743240921885, 22436.211697603667, 0.59, -0.622, 0.548, 192.0, 0.0, 0.0, 0.0, 0.0, 0.0, 0.0, 0.0, 0.0, 0.0, 1.663588733237472E9, 0.0, 2022-09-19 16:58:53.237
8.0, 13426.983466980872, 19161.949355834648, 12813.070453771408, 42632.86800776339, 187500.0, 187500.0, -18809.261180074358, 22431.920162668248, 0.59, -0.622, 0.548, 192.0, 0.0, 0.0, 0.0, 0.0, 0.0, 0.0, 0.0, 0.0, 0.0, 1.6635887332414863E9, 0.0, 2022-09-19 16:58:53.241
9.0, 13421.75315877833, 19217.761661739547, 12802.654540855234, 42656.873781308386, 187500.0, 187500.0, -18818.470098789945, 22418.48676425061, 0.59, -0.622, 0.548, 192.0, 0.0, 0.0, 0.0, 0.0, 0.0, 0.0, 0.0, 0.0, 0.0, 1.6635887332454438E9, 0.0, 2022-09-19 16:58:53.245
10.0, 13429.397455382044, 19305.939293615735, 12824.268677743517, 42711.72496220171, 187500.0, 187500.0, -18796.52068573483, 22438.58098251593, 0.59, -0.622, 0.548, 192.0, 0.0, 0.0, 0.0, 0.0, 0.0, 0.0, 0.0, 0.0, 0.0, 1.6635887332494268E9, 0.0, 2022-09-19 16:58:53.249
11.0, 13434.694818817952, 19405.091632019477, 12830.415407468727, 42775.718006577255, 187500.0, 187500.0, -18785.99301409638, 22442.67135175125, 0.59, -0.622, 0.548, 192.0, 0.0, 0.0, 0.0, 0.0, 0.0, 0.0, 0.0, 0.0, 0.0, 1.6635887332535903E9, 0.0, 2022-09-19 16:58:53.253
12.0, 13440.841548543161, 19506.47914486875, 12816.043235783964, 42840.67217596438, 187500.0, 187500.0, -18794.218456055936, 22430.713168467664, 0.59, -0.622, 0.548, 192.0, 0.0, 0.0, 0.0, 0.0, 0.0, 0.0, 0.0, 0.0, 0.0, 1.6635887332564564E9, 0.0, 2022-09-19 16:58:53.256
13.0, 13428.458682114922, 19573.802599168135, 12790.852819782833, 42871.09290016805, 187500.0, 187500.0, -18811.89868592008, 22398.10197330737, 0.59, -0.622, 0.548, 192.0, 0.0, 0.0, 0.0, 0.0, 0.0, 0.0, 0.0, 0.0, 0.0, 1.663588733261515E9, 0.0, 2022-09-19 16:58:53.261
14.0, 13414.578248808177, 19633.16883244143, 12789.981101749076, 42893.176423689896, 187500.0, 187500.0, -18812.3904242981, 22389.027165058516, 0.592, -0.622, 0.546, 192.0, 18.0, 128.0, 236.0, 144.0, 17.0, 16.0, 0.0, 0.0, 0.0, 1.6635887332655096E9, 0.0, 2022-09-19 16:58:53.265
15.0, 13411.113728417604, 19721.726443973355, 12803.168630977707, 42946.39592723798, 187500.0, 187500.0, -18805.4390317725, 22413.05529034797, 0.592, -0.622, 0.546, 192.0, 0.0, 0.0, 0.0, 0.0, 0.0, 0.0, 0.0, 0.0, 0.0, 1.6635887332695277E9, 0.0, 2022-09-19 16:58:53.269
16.0, 13417.282809887269, 19813.502706706848, 12806.38728217927, 43003.43757908793, 187500.0, 187500.0, -18804.232037571914, 22419.313778795455, 0.592, -0.622, 0.546, 192.0, 0.0, 0.0, 0.0, 0.0, 0.0, 0.0, 0.0, 0.0, 0.0, 1.6635887332735517E9, 0.0, 2022-09-19 16:58:53.273
17.0, 13436.550013607743, 19914.26437071137, 12809.471822914104, 43068.43645196396, 187500.0, 187500.0, -18797.750031679872, 22418.375005528334, 0.592, -0.622, 0.546, 192.0, 0.0, 0.0, 0.0, 0.0, 0.0, 0.0, 0.0, 0.0, 0.0, 1.6635887332775476E9, 0.0, 2022-09-19 16:58:53.277
18.0, 13430.269173415802, 19993.702470505534, 12798.564171619913, 43111.217690851416, 187500.0, 187500.0, -18801.01338637035, 22421.995988130093, 0.592, -0.622, 0.546, 192.0, 0.0, 0.0, 0.0, 0.0, 0.0, 0.0, 0.0, 0.0, 0.0, 1.6635887332804985E9, 0.0, 2022-09-19 16:58:53.280
19.0, 13402.910638202506, 20043.993895529973, 12785.063717968907, 43121.2312723674, 187500.0, 187500.0, -18803.04739511578, 22418.509115995064, 0.592, -0.622, 0.546, 192.0, 0.0, 0.0, 0.0, 0.0, 0.0, 0.0, 0.0, 0.0, 0.0, 1.6635887332845707E9, 0.0, 2022-09-19 16:58:53.284
20.0, 13420.680275044475, 20115.988864420517, 12789.444659882149, 43153.0378047273, 187500.0, 187500.0, -18801.05808985926, 22414.77637467103, 0.592, -0.622, 0.546, 192.0, 0.0, 0.0, 0.0, 0.0, 0.0, 0.0, 0.0, 0.0, 0.0, 1.6635887332885647E9, 0.0, 2022-09-19 16:58:53.288
21.0, 13451.503330648344, 20201.104307306327, 12807.460165913126, 43200.490558205915, 187500.0, 187500.0, -18789.39047925359, 22419.04555786199, 0.592, -0.622, 0.546, 192.0, 0.0, 0.0, 0.0, 0.0, 0.0, 0.0, 0.0, 0.0, 0.0, 1.6635887332935207E9, 0.0, 2022-09-19 16:58:53.293
22.0, 13424.971809979894, 20284.118686213336, 12811.86345957082, 43246.26693085038, 187500.0, 187500.0, -18791.491543232387, 22427.583924243918, 0.592, -0.622, 0.546, 192.0, 0.0, 0.0, 0.0, 0.0, 0.0, 0.0, 0.0, 0.0, 0.0, 1.6635887332976267E9, 0.0, 2022-09-19 16:58:53.297
23.0, 13381.587073992143, 20335.617105438367, 12787.634168581268, 43260.817916490785, 187500.0, 187500.0, -18816.190220855504, 22417.726804939128, 0.592, -0.622, 0.546, 192.0, 0.0, 0.0, 0.0, 0.0, 0.0, 0.0, 0.0, 0.0, 0.0, 1.6635887333015437E9, 0.0, 2022-09-19 16:58:53.301
24.0, 13367.416068007478, 20385.506199062613, 12778.134677187763, 43270.27270439538, 187500.0, 187500.0, -18823.186316870015, 22414.19522931519, 0.592, -0.622, 0.546, 192.0, 0.0, 0.0, 0.0, 0.0, 0.0, 0.0, 0.0, 0.0, 0.0, 1.6635887333055468E9, 0.0, 2022-09-19 16:58:53.305
25.0, 13382.07881237016, 20464.653726178854, 12791.143392460752, 43307.37660019119, 187500.0, 187500.0, -18809.775270196827, 22435.988180159115, 0.59, -0.624, 0.544, 192.0, 18.0, 112.0, 236.0, 128.0, 17.0, 0.0, 0.0, 0.0, 0.0, 1.6635887333085396E9, 0.0, 2022-09-19 16:58:53.308
26.0, 13436.170033952003, 20568.008192540194, 12821.452357942148, 43366.89929567567, 187500.0, 187500.0, -18783.355508250657, 22470.409866620288, 0.59, -0.624, 0.544, 192.0, 0.0, 0.0, 0.0, 0.0, 0.0, 0.0, 0.0, 0.0, 0.0, 1.66358873331254E9, 0.0, 2022-09-19 16:58:53.312
27.0, 13469.787057612784, 20665.551205343152, 12833.29878250346, 43420.92346202415, 187500.0, 187500.0, -18771.933766833994, 22477.83064577945, 0.59, -0.624, 0.544, 192.0, 0.0, 0.0, 0.0, 0.0, 0.0, 0.0, 0.0, 0.0, 0.0, 1.663588733316589E9, 0.0, 2022-09-19 16:58:53.316
28.0, 13478.392479228078, 20727.06320608416, 12825.945058577665, 43436.34616569831, 187500.0, 187500.0, -18778.57223493722, 22464.93368922874, 0.59, -0.624, 0.544, 192.0, 0.0, 0.0, 0.0, 0.0, 0.0, 0.0, 0.0, 0.0, 0.0, 1.6635887333206015E9, 0.0, 2022-09-19 16:58:53.320
29.0, 13454.4761126609, 20778.44986658691, 12818.591334651868, 43441.48706692304, 187500.0, 187500.0, -18790.463362987444, 22450.71797975516, 0.59, -0.624, 0.544, 192.0, 0.0, 0.0, 0.0, 0.0, 0.0, 0.0, 0.0, 0.0, 0.0, 1.663588733325706E9, 0.0, 2022-09-19 16:58:53.325
30.0, 13446.116560234614, 20853.194100045457, 12819.306590474438, 43466.476317224064, 187500.0, 187500.0, -18789.256368786857, 22455.322439112955, 0.59, -0.624, 0.544, 192.0, 0.0, 0.0, 0.0, 0.0, 0.0, 0.0, 0.0, 0.0, 0.0, 1.6635887333296363E9, 0.0, 2022-09-19 16:58:53.329
31.0, 13444.66369684502, 20944.210403467467, 12821.362950964327, 43504.60839326482, 187500.0, 187500.0, -18784.696612917975, 22467.302974141, 0.59, -0.624, 0.544, 192.0, 0.0, 0.0, 0.0, 0.0, 0.0, 0.0, 0.0, 0.0, 0.0, 1.6635887333336399E9, 0.0, 2022-09-19 16:58:53.333
32.0, 13437.824063041695, 21048.034256462368, 12828.627267912301, 43555.36920492282, 187500.0, 187500.0, -18779.801580882264, 22485.139666216335, 0.59, -0.624, 0.544, 192.0, 0.0, 0.0, 0.0, 0.0, 0.0, 0.0, 0.0, 0.0, 0.0, 1.663588733337644E9, 0.0, 2022-09-19 16:58:53.337
33.0, 13438.069932230705, 21117.682292185105, 12815.238572983573, 43573.49646967608, 187500.0, 187500.0, -18785.948310607473, 22472.198006176714, 0.59, -0.624, 0.544, 192.0, 0.0, 0.0, 0.0, 0.0, 0.0, 0.0, 0.0, 0.0, 0.0, 1.6635887333406477E9, 0.0, 2022-09-19 16:58:53.340
34.0, 13423.317780890202, 21174.634537057227, 12801.604008865836, 43577.028045300016, 187500.0, 187500.0, -18794.978415367415, 22445.01828491906, 0.59, -0.624, 0.544, 192.0, 0.0, 0.0, 0.0, 0.0, 0.0, 0.0, 0.0, 0.0, 0.0, 1.6635887333466322E9, 0.0, 2022-09-19 16:58:53.346
35.0, 13418.556859321221, 21254.899651396234, 12807.951904291142, 43600.3409147669, 187500.0, 187500.0, -18787.781153652806, 22438.87155519385, 0.588, -0.618, 0.542, 192.0, 18.0, 96.0, 236.0, 176.0, 16.0, 240.0, 0.0, 0.0, 0.0, 1.663588733349622E9, 0.0, 2022-09-19 16:58:53.349
36.0, 13472.648080903064, 21372.67099293125, 12835.288087759984, 43658.12017418387, 187500.0, 187500.0, -18758.835644583185, 22471.482750354142, 0.588, -0.618, 0.542, 192.0, 0.0, 0.0, 0.0, 0.0, 0.0, 0.0, 0.0, 0.0, 0.0, 1.663588733353655E9, 0.0, 2022-09-19 16:58:53.353
37.0, 13502.241790561891, 21497.863113625423, 12848.430913499704, 43720.03450632507, 187500.0, 187500.0, -18747.86093805563, 22482.613919092884, 0.588, -0.618, 0.542, 192.0, 0.0, 0.0, 0.0, 0.0, 0.0, 0.0, 0.0, 0.0, 0.0, 1.6635887333576553E9, 0.0, 2022-09-19 16:58:53.357
38.0, 13486.059127576247, 21595.204960728286, 12838.484387217091, 43752.15396310735, 187500.0, 187500.0, -18752.867728813617, 22481.36222140339, 0.588, -0.618, 0.542, 192.0, 0.0, 0.0, 0.0, 0.0, 0.0, 0.0, 0.0, 0.0, 0.0, 1.6635887333616512E9, 0.0, 2022-09-19 16:58:53.361
39.0, 13465.294356977267, 21678.71107801331, 12833.991686581576, 43772.94108545078, 187500.0, 187500.0, -18753.493577658366, 22480.512855114088, 0.588, -0.618, 0.542, 192.0, 0.0, 0.0, 0.0, 0.0, 0.0, 0.0, 0.0, 0.0, 0.0, 1.6635887333646111E9, 0.0, 2022-09-19 16:58:53.364
40.0, 13423.027208212283, 21773.728343692823, 12820.334770719383, 43802.266574176145, 187500.0, 187500.0, -18766.681106886997, 22461.670334538263, 0.588, -0.618, 0.542, 192.0, 0.0, 0.0, 0.0, 0.0, 0.0, 0.0, 0.0, 0.0, 0.0, 1.6635887333687613E9, 0.0, 2022-09-19 16:58:53.368
41.0, 13433.979562995382, 21890.04682183824, 12811.34936944835, 43847.12652529794, 187500.0, 187500.0, -18769.05039179926, 22446.269982608555, 0.588, -0.618, 0.542, 192.0, 0.0, 0.0, 0.0, 0.0, 0.0, 0.0, 0.0, 0.0, 0.0, 1.6635887333727195E9, 0.0, 2022-09-19 16:58:53.372
42.0, 13487.891970621584, 22029.16407932807, 12811.528183403992, 43913.44415109684, 187500.0, 187500.0, -18762.00959229584, 22457.78113100304, 0.588, -0.618, 0.542, 192.0, 0.0, 0.0, 0.0, 0.0, 0.0, 0.0, 0.0, 0.0, 0.0, 1.6635887333777332E9, 0.0, 2022-09-19 16:58:53.377
43.0, 13476.939615838482, 22156.971354123518, 12820.670046886213, 43966.23897150028, 187500.0, 187500.0, -18759.95323180595, 22481.004593492104, 0.588, -0.618, 0.542, 192.0, 0.0, 0.0, 0.0, 0.0, 0.0, 0.0, 0.0, 0.0, 0.0, 1.6635887333817036E9, 0.0, 2022-09-19 16:58:53.381
44.0, 13464.556749410243, 22269.89236711173, 12820.87121258631, 43999.65482946096, 187500.0, 187500.0, -18759.036810283284, 22476.422485878764, 0.588, -0.618, 0.542, 192.0, 0.0, 0.0, 0.0, 0.0, 0.0, 0.0, 0.0, 0.0, 0.0, 1.6635887333857107E9, 0.0, 2022-09-19 16:58:53.385
45.0, 13461.762781353329, 22411.289502536, 12823.843994598867, 44052.98609173133, 187500.0, 187500.0, -18759.95323180595, 22475.237843422634, 0.59, -0.622, 0.542, 192.0, 18.0, 112.0, 236.0, 144.0, 16.0, 240.0, 0.0, 0.0, 0.0, 1.66358873338972E9, 0.0, 2022-09-19 16:58:53.389
46.0, 13428.905717004029, 22575.127789393402, 12821.809985853433, 44126.83625541166, 187500.0, 187500.0, -18766.591699909175, 22476.377782389856, 0.59, -0.622, 0.542, 192.0, 0.0, 0.0, 0.0, 0.0, 0.0, 0.0, 0.0, 0.0, 0.0, 1.6635887333927124E9, 0.0, 2022-09-19 16:58:53.392
47.0, 13470.703479135453, 22765.207024241332, 12816.780843350989, 44220.02067804583, 187500.0, 187500.0, -18766.837569098185, 22476.02015447857, 0.59, -0.622, 0.542, 192.0, 0.0, 0.0, 0.0, 0.0, 0.0, 0.0, 0.0, 0.0, 0.0, 1.6635887333967907E9, 0.0, 2022-09-19 16:58:53.396
48.0, 13498.374938771123, 22960.807139969726, 12820.40182595275, 44308.421827366576, 187500.0, 187500.0, -18756.645173626563, 22489.855884296405, 0.59, -0.622, 0.542, 192.0, 0.0, 0.0, 0.0, 0.0, 0.0, 0.0, 0.0, 0.0, 0.0, 1.6635887334007359E9, 0.0, 2022-09-19 16:58:53.400
49.0, 13507.516802253343, 23179.720125165004, 12825.855651599843, 44404.26610759093, 187500.0, 187500.0, -18746.18455722148, 22502.2611024691, 0.59, -0.622, 0.542, 192.0, 0.0, 0.0, 0.0, 0.0, 0.0, 0.0, 0.0, 0.0, 0.0, 1.6635887334047348E9, 0.0, 2022-09-19 16:58:53.404
50.0, 13512.098909866681, 23443.06837833743, 12830.214241768628, 44529.10060037382, 187500.0, 187500.0, -18743.07766474219, 22500.20474197921, 0.59, -0.622, 0.542, 192.0, 0.0, 0.0, 0.0, 0.0, 0.0, 0.0, 0.0, 0.0, 0.0, 1.663588733409804E9, 0.0, 2022-09-19 16:58:53.409
51.0, 13502.934694640006, 23749.689608775334, 12824.20162251015, 44683.88643072682, 187500.0, 187500.0, -18750.386685179077, 22490.526436630065, 0.59, -0.622, 0.542, 192.0, 0.0, 0.0, 0.0, 0.0, 0.0, 0.0, 0.0, 0.0, 0.0, 1.6635887334137592E9, 0.0, 2022-09-19 16:58:53.413
52.0, 13476.47022920492, 24037.33420817068, 12813.517488660515, 44824.970641728716, 187500.0, 187500.0, -18762.344868462667, 22481.96571850368, 0.59, -0.622, 0.542, 192.0, 0.0, 0.0, 0.0, 0.0, 0.0, 0.0, 0.0, 0.0, 0.0, 1.6635887334167807E9, 0.0, 2022-09-19 16:58:53.416
53.0, 13455.28077546129, 24173.076352247757, 12803.950942033642, 44860.420508434836, 187500.0, 187500.0, -18771.24086275588, 22489.230035451656, 0.59, -0.622, 0.542, 192.0, 0.0, 0.0, 0.0, 0.0, 0.0, 0.0, 0.0, 0.0, 0.0, 1.663588733420751E9, 0.0, 2022-09-19 16:58:53.420
54.0, 13447.457664901933, 24219.74679467044, 12790.651654082734, 44832.54788309907, 187500.0, 187500.0, -18780.807409382753, 22475.930747500748, 0.59, -0.622, 0.542, 192.0, 0.0, 0.0, 0.0, 0.0, 0.0, 0.0, 0.0, 0.0, 0.0, 1.6635887334249272E9, 0.0, 2022-09-19 16:58:53.424
55.0, 13460.645194130564, 24308.48322015801, 12801.469898399104, 44846.31655768354, 187500.0, 187500.0, -18768.983336565892, 22481.943366759228, 0.59, -0.622, 0.544, 192.0, 18.0, 112.0, 236.0, 144.0, 17.0, 0.0, 0.0, 0.0, 0.0, 1.6635887334288116E9, 0.0, 2022-09-19 16:58:53.428
56.0, 13455.303127205745, 24429.763785572504, 12811.86345957082, 44885.00742733567, 187500.0, 187500.0, -18760.243804483867, 22490.057049996503, 0.59, -0.622, 0.544, 192.0, 0.0, 0.0, 0.0, 0.0, 0.0, 0.0, 0.0, 0.0, 0.0, 1.6635887334327948E9, 0.0, 2022-09-19 16:58:53.432
57.0, 13427.743426292353, 24573.664316375773, 12804.465032156115, 44935.41061108239, 187500.0, 187500.0, -18765.362353964134, 22493.92390178727, 0.59, -0.622, 0.544, 192.0, 0.0, 0.0, 0.0, 0.0, 0.0, 0.0, 0.0, 0.0, 0.0, 1.663588733438928E9, 0.0, 2022-09-19 16:58:53.438
58.0, 13429.620972826599, 24710.255826742152, 12793.53502911747, 44971.016939999696, 187500.0, 187500.0, -18769.251557499356, 22490.12410522987, 0.59, -0.622, 0.544, 192.0, 0.0, 0.0, 0.0, 0.0, 0.0, 0.0, 0.0, 0.0, 0.0, 1.6635887334417849E9, 0.0, 2022-09-19 16:58:53.441
59.0, 13478.347775739167, 24858.000857591735, 12787.947093003642, 45008.88079510698, 187500.0, 187500.0, -18760.735542861887, 22481.205759192202, 0.59, -0.622, 0.544, 192.0, 0.0, 0.0, 0.0, 0.0, 0.0, 0.0, 0.0, 0.0, 0.0, 1.6635887334458468E9, 0.0, 2022-09-19 16:58:53.445
60.0, 13512.411834289054, 25050.896412241033, 12793.646787839745, 45083.75913903226, 187500.0, 187500.0, -18748.86676655612, 22489.49825638512, 0.59, -0.622, 0.544, 192.0, 0.0, 0.0, 0.0, 0.0, 0.0, 0.0, 0.0, 0.0, 0.0, 1.6635887334487956E9, 0.0, 2022-09-19 16:58:53.448
61.0, 13504.164040585047, 25276.179644606073, 12791.255151183028, 45179.24579134533, 187500.0, 187500.0, -18752.867728813617, 22488.045392995526, 0.59, -0.622, 0.544, 192.0, 0.0, 0.0, 0.0, 0.0, 0.0, 0.0, 0.0, 0.0, 0.0, 1.6635887334529352E9, 0.0, 2022-09-19 16:58:53.452
62.0, 13478.57129318372, 25522.831144670385, 12782.29210165645, 45282.15322281757, 187500.0, 187500.0, -18764.311821974734, 22470.119293942367, 0.59, -0.622, 0.544, 192.0, 0.0, 0.0, 0.0, 0.0, 0.0, 0.0, 0.0, 0.0, 0.0, 1.6635887334569004E9, 0.0, 2022-09-19 16:58:53.456
63.0, 13455.99603128386, 25744.024007800104, 12787.522409858992, 45365.68169184705, 187500.0, 187500.0, -18753.51592940282, 22472.91326199928, 0.59, -0.622, 0.544, 192.0, 0.0, 0.0, 0.0, 0.0, 0.0, 0.0, 0.0, 0.0, 0.0, 1.6635887334609528E9, 0.0, 2022-09-19 16:58:53.460
64.0, 13455.95132779495, 25904.12955333347, 12775.497171342036, 45405.356038255224, 187500.0, 187500.0, -18760.80259809525, 22469.269927653066, 0.59, -0.622, 0.544, 192.0, 0.0, 0.0, 0.0, 0.0, 0.0, 0.0, 0.0, 0.0, 0.0, 1.6635887334649484E9, 0.0, 2022-09-19 16:58:53.464
65.0, 13488.473115977422, 26048.901802170494, 12782.537970845458, 45436.08968688127, 187500.0, 187500.0, -18754.85703407014, 22466.72182878516, 0.594, -0.626, 0.546, 192.0, 18.0, 144.0, 236.0, 112.0, 17.0, 16.0, 0.0, 0.0, 0.0, 1.663588733469942E9, 0.0, 2022-09-19 16:58:53.469
66.0, 13490.752993911863, 26204.42524009052, 12785.309587157917, 45483.14010895969, 187500.0, 187500.0, -18754.18648173648, 22464.531357828542, 0.594, -0.626, 0.546, 192.0, 0.0, 0.0, 0.0, 0.0, 0.0, 0.0, 0.0, 0.0, 0.0, 1.6635887334729342E9, 0.0, 2022-09-19 16:58:53.472
67.0, 13488.987206099893, 26346.314113892808, 12780.794534777944, 45520.288708244414, 187500.0, 187500.0, -18767.441066198477, 22450.226241377146, 0.594, -0.626, 0.546, 192.0, 0.0, 0.0, 0.0, 0.0, 0.0, 0.0, 0.0, 0.0, 0.0, 1.6635887334768453E9, 0.0, 2022-09-19 16:58:53.476
68.0, 13479.957101339949, 26444.393568562697, 12773.217293407595, 45520.355763477775, 187500.0, 187500.0, -18780.09215356018, 22448.929840198736, 0.594, -0.626, 0.546, 192.0, 0.0, 0.0, 0.0, 0.0, 0.0, 0.0, 0.0, 0.0, 0.0, 1.6635887334809663E9, 0.0, 2022-09-19 16:58:53.480
69.0, 13480.582950184698, 26528.190258525643, 12787.701223814634, 45511.81739709585, 187500.0, 187500.0, -18777.655813414553, 22461.670334538263, 0.594, -0.626, 0.546, 192.0, 0.0, 0.0, 0.0, 0.0, 0.0, 0.0, 0.0, 0.0, 0.0, 1.6635887334849E9, 0.0, 2022-09-19 16:58:53.484
70.0, 13472.245749502868, 26617.217256691132, 12796.351348918837, 45514.23138549702, 187500.0, 187500.0, -18781.634423927597, 22470.566328831475, 0.594, -0.626, 0.546, 192.0, 0.0, 0.0, 0.0, 0.0, 0.0, 0.0, 0.0, 0.0, 0.0, 1.663588733488896E9, 0.0, 2022-09-19 16:58:53.488
71.0, 13468.580063412199, 26721.19757189722, 12796.977197763586, 45535.331432262836, 187500.0, 187500.0, -18784.942482106984, 22480.87048302537, 0.594, -0.626, 0.546, 192.0, 0.0, 0.0, 0.0, 0.0, 0.0, 0.0, 0.0, 0.0, 0.0, 1.6635887334929197E9, 0.0, 2022-09-19 16:58:53.492
72.0, 13490.641235189587, 26820.148744600865, 12805.001474023042, 45551.53644699293, 187500.0, 187500.0, -18782.640252428086, 22486.2572534391, 0.594, -0.626, 0.546, 192.0, 0.0, 0.0, 0.0, 0.0, 0.0, 0.0, 0.0, 0.0, 0.0, 1.6635887334979107E9, 0.0, 2022-09-19 16:58:53.497
73.0, 13487.757860154852, 26899.832713584034, 12821.430006197692, 45545.47912424554, 187500.0, 187500.0, -18774.392458724076, 22499.310672201, 0.594, -0.626, 0.546, 192.0, 0.0, 0.0, 0.0, 0.0, 0.0, 0.0, 0.0, 0.0, 0.0, 1.6635887335009308E9, 0.0, 2022-09-19 16:58:53.500
74.0, 13486.752031654363, 26977.750894755234, 12816.892602073265, 45538.41597299767, 187500.0, 187500.0, -18776.33706049169, 22499.042451267534, 0.594, -0.626, 0.546, 192.0, 0.0, 0.0, 0.0, 0.0, 0.0, 0.0, 0.0, 0.0, 0.0, 1.663588733504922E9, 0.0, 2022-09-19 16:58:53.504
75.0, 13494.083403835702, 27068.275459799228, 12818.412520696225, 45547.58018822434, 187500.0, 187500.0, -18767.37401096511, 22494.4603436542, 0.592, -0.614, 0.546, 192.0, 18.0, 128.0, 236.0, 208.0, 17.0, 16.0, 0.0, 0.0, 0.0, 1.6635887335089307E9, 0.0, 2022-09-19 16:58:53.508
76.0, 13477.744278638875, 27171.80874011621, 12815.283276472483, 45572.74825248102, 187500.0, 187500.0, -18766.52464467581, 22488.06774473998, 0.592, -0.614, 0.546, 192.0, 0.0, 0.0, 0.0, 0.0, 0.0, 0.0, 0.0, 0.0, 0.0, 1.6635887335129192E9, 0.0, 2022-09-19 16:58:53.512
77.0, 13492.518781723831, 27275.69964834448, 12810.455299670137, 45596.97754347057, 187500.0, 187500.0, -18765.943499319972, 22491.97930001966, 0.592, -0.614, 0.546, 192.0, 0.0, 0.0, 0.0, 0.0, 0.0, 0.0, 0.0, 0.0, 0.0, 1.663588733516919E9, 0.0, 2022-09-19 16:58:53.516
78.0, 13474.123296037114, 27345.16887011157, 12788.19296219265, 45586.47222357657, 187500.0, 187500.0, -18791.603301954663, 22488.53713137354, 0.592, -0.614, 0.546, 192.0, 0.0, 0.0, 0.0, 0.0, 0.0, 0.0, 0.0, 0.0, 0.0, 1.6635887335209968E9, 0.0, 2022-09-19 16:58:53.520
79.0, 13454.543167894266, 27417.789687846864, 12782.359156889815, 45579.856107217805, 187500.0, 187500.0, -18788.831685642206, 22491.867541297383, 0.592, -0.614, 0.546, 192.0, 0.0, 0.0, 0.0, 0.0, 0.0, 0.0, 0.0, 0.0, 0.0, 1.6635887335259387E9, 0.0, 2022-09-19 16:58:53.525
80.0, 13482.751069396863, 27511.219979670048, 12806.856668812832, 45596.418749859185, 187500.0, 187500.0, -18760.601432395153, 22515.493335186642, 0.592, -0.614, 0.546, 192.0, 0.0, 0.0, 0.0, 0.0, 0.0, 0.0, 0.0, 0.0, 0.0, 1.6635887335289977E9, 0.0, 2022-09-19 16:58:53.528
81.0, 13522.380712316122, 27612.160457630212, 12818.25605848504, 45621.20683446012, 187500.0, 187500.0, -18749.09028400067, 22529.999617338137, 0.592, -0.614, 0.546, 192.0, 0.0, 0.0, 0.0, 0.0, 0.0, 0.0, 0.0, 0.0, 0.0, 1.6635887335329142E9, 0.0, 2022-09-19 16:58:53.532
82.0, 13526.292267595802, 27704.47316223063, 12816.512622417526, 45638.149456757244, 187500.0, 187500.0, -18751.03488576828, 22534.93935286276, 0.592, -0.614, 0.546, 192.0, 0.0, 0.0, 0.0, 0.0, 0.0, 0.0, 0.0, 0.0, 0.0, 1.6635887335370529E9, 0.0, 2022-09-19 16:58:53.537
83.0, 13515.876354679627, 27763.88409899284, 12810.34354094786, 45621.653869349226, 187500.0, 187500.0, -18758.56742364972, 22523.361149234912, 0.592, -0.614, 0.546, 192.0, 0.0, 0.0, 0.0, 0.0, 0.0, 0.0, 0.0, 0.0, 0.0, 1.6635887335410075E9, 0.0, 2022-09-19 16:58:53.541
84.0, 13486.997900843371, 27825.239637522656, 12808.622456624802, 45607.259345920014, 187500.0, 187500.0, -18766.301127231258, 22508.45253568322, 0.592, -0.614, 0.546, 192.0, 0.0, 0.0, 0.0, 0.0, 0.0, 0.0, 0.0, 0.0, 0.0, 1.6635887335450392E9, 0.0, 2022-09-19 16:58:53.545
85.0, 13474.547979181765, 27902.219045426733, 12807.460165913126, 45612.73552331156, 187500.0, 187500.0, -18766.77051386482, 22494.482695398652, 0.592, -0.618, 0.554, 192.0, 18.0, 128.0, 236.0, 176.0, 17.0, 80.0, 0.0, 0.0, 0.0, 1.6635887335489895E9, 0.0, 2022-09-19 16:58:53.548
86.0, 13505.728662696918, 28002.287805353142, 12813.137509004773, 45642.10571552583, 187500.0, 187500.0, -18756.175786993004, 22489.095924984926, 0.592, -0.618, 0.554, 192.0, 0.0, 0.0, 0.0, 0.0, 0.0, 0.0, 0.0, 0.0, 0.0, 1.6635887335529592E9, 0.0, 2022-09-19 16:58:53.552
87.0, 13536.886994467617, 28103.60826296905, 12815.43973868367, 45671.27474204001, 187500.0, 187500.0, -18754.90173755905, 22493.49921864262, 0.592, -0.618, 0.554, 192.0, 0.0, 0.0, 0.0, 0.0, 0.0, 0.0, 0.0, 0.0, 0.0, 1.6635887335559936E9, 0.0, 2022-09-19 16:58:53.555
88.0, 13537.311677612268, 28179.827711561647, 12816.91495381772, 45676.50505024255, 187500.0, 187500.0, -18753.270060213814, 22499.176561734268, 0.592, -0.618, 0.554, 192.0, 0.0, 0.0, 0.0, 0.0, 0.0, 0.0, 0.0, 0.0, 0.0, 1.663588733560002E9, 0.0, 2022-09-19 16:58:53.560
89.0, 13532.282535109824, 28227.660444696005, 12813.271619471505, 45659.38361398979, 187500.0, 187500.0, -18747.391551422068, 22500.07063151248, 0.592, -0.618, 0.554, 192.0, 0.0, 0.0, 0.0, 0.0, 0.0, 0.0, 0.0, 0.0, 0.0, 1.6635887335650792E9, 0.0, 2022-09-19 16:58:53.565
90.0, 13512.255372077869, 28257.052988654734, 12798.832392553377, 45630.527511897984, 187500.0, 187500.0, -18754.81233058123, 22489.274738940567, 0.592, -0.618, 0.554, 192.0, 0.0, 0.0, 0.0, 0.0, 0.0, 0.0, 0.0, 0.0, 0.0, 1.66358873356906E9, 0.0, 2022-09-19 16:58:53.569
91.0, 13507.29328480879, 28297.621404841117, 12797.513639630513, 45616.15534021323, 187500.0, 187500.0, -18751.66073461303, 22501.50114315762, 0.592, -0.618, 0.554, 192.0, 0.0, 0.0, 0.0, 0.0, 0.0, 0.0, 0.0, 0.0, 0.0, 1.6635887335730083E9, 0.0, 2022-09-19 16:58:53.573
92.0, 13489.791868900284, 28316.620387628125, 12780.638072566757, 45581.040749673935, 187500.0, 187500.0, -18764.557691163744, 22501.568198390985, 0.592, -0.618, 0.554, 192.0, 0.0, 0.0, 0.0, 0.0, 0.0, 0.0, 0.0, 0.0, 0.0, 1.6635887335771427E9, 0.0, 2022-09-19 16:58:53.577
93.0, 13486.930845610004, 28301.644718843072, 12766.489418326548, 45515.99717330899, 187500.0, 187500.0, -18775.554749435752, 22488.06774473998, 0.592, -0.618, 0.554, 192.0, 0.0, 0.0, 0.0, 0.0, 0.0, 0.0, 0.0, 0.0, 0.0, 1.6635887335810723E9, 0.0, 2022-09-19 16:58:53.581
94.0, 13505.616903974642, 28306.09271598968, 12778.559360332414, 45473.797079777374, 187500.0, 187500.0, -18764.580042908197, 22493.83449480945, 0.592, -0.618, 0.554, 192.0, 0.0, 0.0, 0.0, 0.0, 0.0, 0.0, 0.0, 0.0, 0.0, 1.6635887335840805E9, 0.0, 2022-09-19 16:58:53.584
95.0, 13526.62754376263, 28325.60578889916, 12792.931532017175, 45450.39480333267, 187500.0, 187500.0, -18753.314763702725, 22514.912189830804, 0.59, -0.616, 0.556, 192.0, 18.0, 112.0, 236.0, 192.0, 17.0, 96.0, 0.0, 0.0, 0.0, 1.6635887335880227E9, 0.0, 2022-09-19 16:58:53.588
96.0, 13516.748072713384, 28352.629047945626, 12801.939285032664, 45438.39191656017, 187500.0, 187500.0, -18749.47026365641, 22538.4709284867, 0.59, -0.616, 0.556, 192.0, 0.0, 0.0, 0.0, 0.0, 0.0, 0.0, 0.0, 0.0, 0.0, 1.6635887335930452E9, 0.0, 2022-09-19 16:58:53.593
97.0, 13478.906569350549, 28345.789414142302, 12784.326110401882, 45392.05675030431, 187500.0, 187500.0, -18766.2787754868, 22531.139556305356, 0.59, -0.616, 0.556, 192.0, 0.0, 0.0, 0.0, 0.0, 0.0, 0.0, 0.0, 0.0, 0.0, 1.6635887335970762E9, 0.0, 2022-09-19 16:58:53.597
98.0, 13490.596531700676, 28301.532960120796, 12760.588557790346, 45306.76249346286, 187500.0, 187500.0, -18779.578063437708, 22501.25527396861, 0.59, -0.616, 0.556, 192.0, 0.0, 0.0, 0.0, 0.0, 0.0, 0.0, 0.0, 0.0, 0.0, 1.663588733601081E9, 0.0, 2022-09-19 16:58:53.601
99.0, 13492.295264279279, 28292.391096638574, 12768.523427071981, 45258.95211207296, 187500.0, 187500.0, -18768.893929588074, 22512.006463051614, 0.59, -0.616, 0.556, 192.0, 0.0, 0.0, 0.0, 0.0, 0.0, 0.0, 0.0, 0.0, 0.0, 1.6635887336050808E9, 0.0, 2022-09-19 16:58:53.605
100.0, 13496.877371892617, 28301.063573487234, 12777.106496942819, 45224.99981224535, 187500.0, 187500.0, -18766.815217353727, 22510.50889617311, 0.59, -0.616, 0.556, 192.0, 0.0, 0.0, 0.0, 0.0, 0.0, 0.0, 0.0, 0.0, 0.0, 1.663588733609048E9, 0.0, 2022-09-19 16:58:53.609
101.0, 13514.490546523399, 28317.7826783398, 12772.502037585025, 45201.66459103401, 187500.0, 187500.0, -18771.41967671152, 22507.714928116195, 0.59, -0.616, 0.556, 192.0, 0.0, 0.0, 0.0, 0.0, 0.0, 0.0, 0.0, 0.0, 0.0, 1.663588733612077E9, 0.0, 2022-09-19 16:58:53.612
102.0, 13507.71796795344, 28319.749631851868, 12772.546741073937, 45165.52182024978, 187500.0, 187500.0, -18774.23599651289, 22499.578893134465, 0.59, -0.616, 0.556, 192.0, 0.0, 0.0, 0.0, 0.0, 0.0, 0.0, 0.0, 0.0, 0.0, 1.6635887336161387E9, 0.0, 2022-09-19 16:58:53.616
103.0, 13498.084366093204, 28305.064535744732, 12765.304775870416, 45110.60358412309, 187500.0, 187500.0, -18771.19615926697, 22501.814067579995, 0.59, -0.616, 0.556, 192.0, 0.0, 0.0, 0.0, 0.0, 0.0, 0.0, 0.0, 0.0, 0.0, 1.6635887336210983E9, 0.0, 2022-09-19 16:58:53.621
104.0, 13501.727700439418, 28302.449381643462, 12765.595348548335, 45066.39183359049, 187500.0, 187500.0, -18762.657792885042, 22497.701346600217, 0.59, -0.616, 0.556, 192.0, 0.0, 0.0, 0.0, 0.0, 0.0, 0.0, 0.0, 0.0, 0.0, 1.6635887336251197E9, 0.0, 2022-09-19 16:58:53.625
105.0, 13479.375955984111, 28312.619425370627, 12761.639089779746, 45035.322908797614, 187500.0, 187500.0, -18765.742333619874, 22492.292224442033, 0.586, -0.614, 0.554, 192.0, 18.0, 80.0, 236.0, 208.0, 17.0, 80.0, 0.0, 0.0, 0.0, 1.6635887336291342E9, 0.0, 2022-09-19 16:58:53.629
106.0, 13492.071746834727, 28341.810803629258, 12769.126924172275, 45028.39386801647, 187500.0, 187500.0, -18754.94644104796, 22511.850000840426, 0.586, -0.614, 0.554, 192.0, 0.0, 0.0, 0.0, 0.0, 0.0, 0.0, 0.0, 0.0, 0.0, 1.6635887336331372E9, 0.0, 2022-09-19 16:58:53.633
107.0, 13524.615886761652, 28348.628085688128, 12766.33295611536, 44997.10142577904, 187500.0, 187500.0, -18749.514967145322, 22506.753803104617, 0.586, -0.614, 0.554, 192.0, 0.0, 0.0, 0.0, 0.0, 0.0, 0.0, 0.0, 0.0, 0.0, 1.66358873363615E9, 0.0, 2022-09-19 16:58:53.636
108.0, 13520.883145437616, 28330.009082556855, 12765.662403781702, 44941.06560242958, 187500.0, 187500.0, -18753.00183928035, 22497.701346600217, 0.586, -0.614, 0.554, 192.0, 0.0, 0.0, 0.0, 0.0, 0.0, 0.0, 0.0, 0.0, 0.0, 1.6635887336400936E9, 0.0, 2022-09-19 16:58:53.640
109.0, 13506.354511541667, 28315.32398644972, 12767.271729382484, 44892.65172393939, 187500.0, 187500.0, -18756.823987582207, 22491.912244786294, 0.586, -0.614, 0.554, 192.0, 0.0, 0.0, 0.0, 0.0, 0.0, 0.0, 0.0, 0.0, 0.0, 1.6635887336442127E9, 0.0, 2022-09-19 16:58:53.644
110.0, 13499.693691693985, 28309.35607068015, 12757.168740888685, 44854.27377870963, 187500.0, 187500.0, -18759.796769594763, 22481.451628381208, 0.586, -0.614, 0.554, 192.0, 0.0, 0.0, 0.0, 0.0, 0.0, 0.0, 0.0, 0.0, 0.0, 1.663588733649115E9, 0.0, 2022-09-19 16:58:53.649
111.0, 13518.826784947729, 28326.388099955097, 12767.830522993867, 44840.907435525354, 187500.0, 187500.0, -18744.91050778753, 22505.256236226112, 0.586, -0.614, 0.554, 192.0, 0.0, 0.0, 0.0, 0.0, 0.0, 0.0, 0.0, 0.0, 0.0, 1.6635887336531029E9, 0.0, 2022-09-19 16:58:53.653
112.0, 13509.304941809767, 28316.37451843912, 12756.498188555026, 44804.11646415192, 187500.0, 187500.0, -18751.928955546493, 22514.42045145279, 0.586, -0.614, 0.554, 192.0, 0.0, 0.0, 0.0, 0.0, 0.0, 0.0, 0.0, 0.0, 0.0, 1.6635887336572728E9, 0.0, 2022-09-19 16:58:53.657
113.0, 13486.90849386555, 28267.44654982645, 12736.873356923266, 44732.36736445038, 187500.0, 187500.0, -18765.51881617532, 22496.561407633, 0.586, -0.614, 0.554, 192.0, 0.0, 0.0, 0.0, 0.0, 0.0, 0.0, 0.0, 0.0, 0.0, 1.6635887336612291E9, 0.0, 2022-09-19 16:58:53.661
114.0, 13474.682089648497, 28236.57879073367, 12736.716894712079, 44679.93017195823, 187500.0, 187500.0, -18767.217548753924, 22483.038602237535, 0.586, -0.614, 0.554, 192.0, 0.0, 0.0, 0.0, 0.0, 0.0, 0.0, 0.0, 0.0, 0.0, 1.6635887336641316E9, 0.0, 2022-09-19 16:58:53.664
115.0, 13476.626691416108, 28218.33976725814, 12730.681923709146, 44642.82627616242, 187500.0, 187500.0, -18768.5810051657, 22483.932672015748, 0.588, -0.612, 0.556, 192.0, 18.0, 96.0, 236.0, 224.0, 17.0, 96.0, 0.0, 0.0, 0.0, 1.6635887336681943E9, 0.0, 2022-09-19 16:58:53.668
116.0, 13482.751069396863, 28205.688679896437, 12726.926830640654, 44614.26074674854, 187500.0, 187500.0, -18771.86671160063, 22487.173674961767, 0.588, -0.612, 0.556, 192.0, 0.0, 0.0, 0.0, 0.0, 0.0, 0.0, 0.0, 0.0, 0.0, 1.663588733672242E9, 0.0, 2022-09-19 16:58:53.672
117.0, 13499.648988205076, 28182.174644729454, 12731.643048720724, 44577.82740328639, 187500.0, 187500.0, -18764.647098141562, 22504.138649003347, 0.588, -0.612, 0.556, 192.0, 0.0, 0.0, 0.0, 0.0, 0.0, 0.0, 0.0, 0.0, 0.0, 1.6635887336772192E9, 0.0, 2022-09-19 16:58:53.677
118.0, 13519.63144774812, 28139.058129675166, 12734.66053422219, 44521.72452470357, 187500.0, 187500.0, -18762.38957195158, 22500.540018146043, 0.588, -0.612, 0.556, 192.0, 0.0, 0.0, 0.0, 0.0, 0.0, 0.0, 0.0, 0.0, 0.0, 1.663588733681185E9, 0.0, 2022-09-19 16:58:53.681
119.0, 13515.541078512799, 28096.99214661028, 12725.675132951157, 44466.02397752094, 187500.0, 187500.0, -18765.13883651958, 22474.522587600066, 0.588, -0.612, 0.556, 192.0, 0.0, 0.0, 0.0, 0.0, 0.0, 0.0, 0.0, 0.0, 0.0, 1.6635887336852949E9, 0.0, 2022-09-19 16:58:53.685
120.0, 13502.889991151094, 28063.710399116328, 12710.56535369937, 44421.56635779934, 187500.0, 187500.0, -18773.14076103458, 22470.655735809298, 0.588, -0.612, 0.556, 192.0, 0.0, 0.0, 0.0, 0.0, 0.0, 0.0, 0.0, 0.0, 0.0, 1.6635887336882324E9, 0.0, 2022-09-19 16:58:53.688
121.0, 13484.650967675563, 28043.392663406452, 12694.360338969273, 44394.25252607495, 187500.0, 187500.0, -18787.937615863993, 22474.768456789072, 0.588, -0.612, 0.556, 192.0, 0.0, 0.0, 0.0, 0.0, 0.0, 0.0, 0.0, 0.0, 0.0, 1.6635887336922204E9, 0.0, 2022-09-19 16:58:53.692
122.0, 13453.604394627142, 27999.672651251873, 12681.172809740641, 44345.950406307034, 187500.0, 187500.0, -18805.282569561314, 22464.419599106266, 0.588, -0.612, 0.556, 192.0, 0.0, 0.0, 0.0, 0.0, 0.0, 0.0, 0.0, 0.0, 0.0, 1.6635887336962097E9, 0.0, 2022-09-19 16:58:53.696
123.0, 13453.4255806715, 27959.97595309925, 12694.695615136101, 44303.0574086973, 187500.0, 187500.0, -18794.732546178406, 22479.55173010251, 0.588, -0.612, 0.556, 192.0, 0.0, 0.0, 0.0, 0.0, 0.0, 0.0, 0.0, 0.0, 0.0, 1.663588733700353E9, 0.0, 2022-09-19 16:58:53.700
124.0, 13443.300240433246, 27925.66602536035, 12704.262161762974, 44264.90298091209, 187500.0, 187500.0, -18786.86473213014, 22479.954061502704, 0.588, -0.612, 0.556, 192.0, 0.0, 0.0, 0.0, 0.0, 0.0, 0.0, 0.0, 0.0, 0.0, 1.6635887337052584E9, 0.0, 2022-09-19 16:58:53.705
125.0, 13487.020252587827, 27897.61458606894, 12709.671283921158, 44230.8389223622, 187500.0, 187500.0, -18781.09798206067, 22469.471093353164, 0.588, -0.612, 0.556, 192.0, 0.0, 0.0, 0.0, 0.0, 0.0, 0.0, 0.0, 0.0, 0.0, 1.6635887337092743E9, 0.0, 2022-09-19 16:58:53.709
126.0, 13530.315581597755, 27889.255033642654, 12721.294191037918, 44218.41135244505, 187500.0, 187500.0, -18769.899758088563, 22478.814122535485, 0.59, -0.614, 0.554, 192.0, 18.0, 112.0, 236.0, 208.0, 17.0, 80.0, 0.0, 0.0, 0.0, 1.663588733713261E9, 0.0, 2022-09-19 16:58:53.713
127.0, 13523.565354772254, 27856.46502452672, 12706.94437109761, 44185.576639840205, 187500.0, 187500.0, -18775.063011057737, 22473.650869566307, 0.59, -0.614, 0.554, 192.0, 0.0, 0.0, 0.0, 0.0, 0.0, 0.0, 0.0, 0.0, 0.0, 1.6635887337163262E9, 0.0, 2022-09-19 16:58:53.716
128.0, 13494.351624769168, 27801.479733166663, 12685.8443243318, 44130.63605196906, 187500.0, 187500.0, -18786.775325152317, 22466.766532274072, 0.59, -0.614, 0.554, 192.0, 0.0, 0.0, 0.0, 0.0, 0.0, 0.0, 0.0, 0.0, 0.0, 1.6635887337203054E9, 0.0, 2022-09-19 16:58:53.720
129.0, 13483.265159519335, 27775.64111657633, 12686.693690621101, 44101.64583941053, 187500.0, 187500.0, -18778.169903537026, 22481.250462681113, 0.59, -0.614, 0.554, 192.0, 0.0, 0.0, 0.0, 0.0, 0.0, 0.0, 0.0, 0.0, 0.0, 1.6635887337243035E9, 0.0, 2022-09-19 16:58:53.724
130.0, 13501.705348694963, 27753.669351776764, 12689.107679022274, 44073.90732454149, 187500.0, 187500.0, -18766.56934816472, 22479.08234346895, 0.59, -0.614, 0.554, 192.0, 0.0, 0.0, 0.0, 0.0, 0.0, 0.0, 0.0, 0.0, 0.0, 1.6635887337282665E9, 0.0, 2022-09-19 16:58:53.728
131.0, 13503.761709184851, 27736.92789517974, 12681.55278939638, 44048.87337075155, 187500.0, 187500.0, -18771.151455778057, 22462.318535127466, 0.59, -0.614, 0.554, 192.0, 0.0, 0.0, 0.0, 0.0, 0.0, 0.0, 0.0, 0.0, 0.0, 1.6635887337323437E9, 0.0, 2022-09-19 16:58:53.732
132.0, 13484.047470575271, 27715.24670305809, 12677.082440505319, 44019.10084713708, 187500.0, 187500.0, -18776.225301769413, 22462.229128149644, 0.59, -0.614, 0.554, 192.0, 0.0, 0.0, 0.0, 0.0, 0.0, 0.0, 0.0, 0.0, 0.0, 1.663588733737291E9, 0.0, 2022-09-19 16:58:53.737
133.0, 13481.119392051625, 27687.172912022226, 12679.831705073322, 43985.908506620945, 187500.0, 187500.0, -18765.4294091975, 22473.74027654413, 0.59, -0.614, 0.554, 192.0, 0.0, 0.0, 0.0, 0.0, 0.0, 0.0, 0.0, 0.0, 0.0, 1.6635887337413576E9, 0.0, 2022-09-19 16:58:53.741
134.0, 13487.802563643761, 27671.61609788133, 12682.245693474495, 43968.04946280116, 187500.0, 187500.0, -18751.347810190655, 22481.49633187012, 0.59, -0.614, 0.554, 192.0, 0.0, 0.0, 0.0, 0.0, 0.0, 0.0, 0.0, 0.0, 0.0, 1.6635887337444181E9, 0.0, 2022-09-19 16:58:53.744
135.0, 13482.348737996666, 27660.395522164767, 12669.773420068434, 43953.051442271644, 187500.0, 187500.0, -18761.80842659574, 22466.92299448526, 0.59, -0.614, 0.554, 192.0, 0.0, 0.0, 0.0, 0.0, 0.0, 0.0, 0.0, 0.0, 0.0, 1.663588733748347E9, 0.0, 2022-09-19 16:58:53.748
136.0, 13483.153400797059, 27663.837690810884, 12674.288472448407, 43951.48682015977, 187500.0, 187500.0, -18762.85895858514, 22470.119293942367, 0.588, -0.616, 0.548, 192.0, 18.0, 96.0, 236.0, 192.0, 17.0, 32.0, 0.0, 0.0, 0.0, 1.663588733752359E9, 0.0, 2022-09-19 16:58:53.752
137.0, 13462.232167986891, 27642.00003647805, 12667.918225278643, 43926.34110764755, 187500.0, 187500.0, -18776.113543047137, 22464.82193050646, 0.588, -0.616, 0.548, 192.0, 0.0, 0.0, 0.0, 0.0, 0.0, 0.0, 0.0, 0.0, 0.0, 1.6635887337564216E9, 0.0, 2022-09-19 16:58:53.756
138.0, 13451.033944014782, 27613.881541953273, 12668.499370634481, 43892.589973520044, 187500.0, 187500.0, -18780.874464616118, 22450.49446231061, 0.588, -0.616, 0.548, 192.0, 0.0, 0.0, 0.0, 0.0, 0.0, 0.0, 0.0, 0.0, 0.0, 1.66358873376039E9, 0.0, 2022-09-19 16:58:53.760
139.0, 13467.127200022604, 27614.75325998703, 12683.206818486075, 43886.510299028196, 187500.0, 187500.0, -18772.157284278546, 22470.946308487215, 0.588, -0.616, 0.548, 192.0, 0.0, 0.0, 0.0, 0.0, 0.0, 0.0, 0.0, 0.0, 0.0, 1.6635887337653923E9, 0.0, 2022-09-19 16:58:53.765
140.0, 13466.300185477756, 27615.200294876136, 12682.916245808156, 43883.20224084881, 187500.0, 187500.0, -18779.555711693254, 22482.569215603973, 0.588, -0.616, 0.548, 192.0, 0.0, 0.0, 0.0, 0.0, 0.0, 0.0, 0.0, 0.0, 0.0, 1.6635887337695367E9, 0.0, 2022-09-19 16:58:53.769
141.0, 13475.620862915619, 27621.23526587907, 12688.101850521785, 43887.24790659522, 187500.0, 187500.0, -18780.09215356018, 22485.27377668307, 0.588, -0.616, 0.548, 192.0, 0.0, 0.0, 0.0, 0.0, 0.0, 0.0, 0.0, 0.0, 0.0, 1.6635887337723446E9, 0.0, 2022-09-19 16:58:53.772
142.0, 13496.586799214698, 27611.065222151905, 12694.98618781402, 43873.099252355016, 187500.0, 187500.0, -18771.86671160063, 22488.291262184535, 0.588, -0.616, 0.548, 192.0, 0.0, 0.0, 0.0, 0.0, 0.0, 0.0, 0.0, 0.0, 0.0, 1.6635887337763836E9, 0.0, 2022-09-19 16:58:53.776
143.0, 13471.530493680299, 27596.5142365115, 12692.862772090766, 43852.110964311476, 187500.0, 187500.0, -18771.66554590053, 22490.012346507592, 0.588, -0.616, 0.548, 192.0, 0.0, 0.0, 0.0, 0.0, 0.0, 0.0, 0.0, 0.0, 0.0, 1.6635887337804534E9, 0.0, 2022-09-19 16:58:53.780
144.0, 13439.455740386933, 27586.612413717798, 12697.89191459321, 43834.2966239806, 187500.0, 187500.0, -18766.010554553337, 22488.514779629088, 0.588, -0.616, 0.548, 192.0, 0.0, 0.0, 0.0, 0.0, 0.0, 0.0, 0.0, 0.0, 0.0, 1.6635887337844515E9, 0.0, 2022-09-19 16:58:53.784
145.0, 13523.833575705718, 27622.509315313022, 12729.609039975292, 43863.711519683784, 187500.0, 187500.0, -18729.241934924357, 22530.558410949518, 0.588, -0.616, 0.548, 192.0, 0.0, 0.0, 0.0, 0.0, 0.0, 0.0, 0.0, 0.0, 0.0, 1.6635887337884123E9, 0.0, 2022-09-19 16:58:53.788
146.0, 13604.232800511456, 27664.597650122363, 12741.589575003336, 43899.854290468014, 187500.0, 187500.0, -18708.99125444785, 22556.240565328666, 0.592, -0.622, 0.546, 192.0, 18.0, 128.0, 236.0, 144.0, 17.0, 16.0, 0.0, 0.0, 0.0, 1.6635887337933853E9, 0.0, 2022-09-19 16:58:53.793
147.0, 13567.575939604752, 27646.71625455812, 12716.71208342458, 43876.13908960093, 187500.0, 187500.0, -18730.292466913757, 22529.530230704575, 0.592, -0.622, 0.546, 192.0, 0.0, 0.0, 0.0, 0.0, 0.0, 0.0, 0.0, 0.0, 0.0, 1.6635887337974691E9, 0.0, 2022-09-19 16:58:53.797
148.0, 13562.613852335675, 27642.312960900425, 12725.652781206702, 43863.53270572814, 187500.0, 187500.0, -18717.462565596412, 22544.66236170082, 0.592, -0.622, 0.546, 192.0, 0.0, 0.0, 0.0, 0.0, 0.0, 0.0, 0.0, 0.0, 0.0, 1.6635887338005712E9, 0.0, 2022-09-19 16:58:53.800
149.0, 13567.844160538216, 27663.14478673277, 12736.269859822973, 43873.61334247748, 187500.0, 187500.0, -18708.231295136367, 22559.79449269706, 0.592, -0.622, 0.546, 192.0, 0.0, 0.0, 0.0, 0.0, 0.0, 0.0, 0.0, 0.0, 0.0, 1.6635887338044305E9, 0.0, 2022-09-19 16:58:53.804
150.0, 13554.276651653845, 27691.598557424375, 12736.985115645542, 43890.17598511887, 187500.0, 187500.0, -18705.772603246285, 22555.70412346174, 0.592, -0.622, 0.546, 192.0, 0.0, 0.0, 0.0, 0.0, 0.0, 0.0, 0.0, 0.0, 0.0, 1.6635887338084643E9, 0.0, 2022-09-19 16:58:53.808
151.0, 13550.074523696248, 27724.366214795857, 12736.359266800793, 43907.25271788272, 187500.0, 187500.0, -18702.062213666704, 22549.691504203263, 0.592, -0.622, 0.546, 192.0, 0.0, 0.0, 0.0, 0.0, 0.0, 0.0, 0.0, 0.0, 0.0, 1.6635887338124993E9, 0.0, 2022-09-19 16:58:53.812
152.0, 13559.261090667378, 27733.128098622336, 12730.503109753503, 43899.54136604564, 187500.0, 187500.0, -18705.772603246285, 22546.45050125724, 0.592, -0.622, 0.546, 192.0, 0.0, 0.0, 0.0, 0.0, 0.0, 0.0, 0.0, 0.0, 0.0, 1.6635887338164434E9, 0.0, 2022-09-19 16:58:53.816
153.0, 13557.405895877588, 27731.183496854723, 12724.155214328197, 43881.79408094813, 187500.0, 187500.0, -18709.348882359136, 22539.432053498276, 0.592, -0.622, 0.546, 192.0, 0.0, 0.0, 0.0, 0.0, 0.0, 0.0, 0.0, 0.0, 0.0, 1.6635887338214488E9, 0.0, 2022-09-19 16:58:53.821
154.0, 13552.01912546386, 27748.327284851945, 12725.876298651256, 43883.44811003782, 187500.0, 187500.0, -18707.18076314697, 22538.359169764422, 0.592, -0.622, 0.546, 192.0, 0.0, 0.0, 0.0, 0.0, 0.0, 0.0, 0.0, 0.0, 0.0, 1.6635887338244421E9, 0.0, 2022-09-19 16:58:53.824
155.0, 13555.662459810073, 27777.16103519929, 12728.156176585697, 43898.043799167135, 187500.0, 187500.0, -18705.169106145993, 22544.550602978543, 0.592, -0.622, 0.546, 192.0, 0.0, 0.0, 0.0, 0.0, 0.0, 0.0, 0.0, 0.0, 0.0, 1.66358873382751E9, 0.0, 2022-09-19 16:58:53.827
156.0, 13555.908328999083, 27801.949119800225, 12728.334990541338, 43908.951450461325, 187500.0, 187500.0, -18703.515077056298, 22544.774120423095, 0.592, -0.628, 0.55, 192.0, 18.0, 128.0, 236.0, 96.0, 17.0, 48.0, 0.0, 0.0, 0.0, 1.6635887338334796E9, 0.0, 2022-09-19 16:58:53.833
157.0, 13557.2494336664, 27802.150285500324, 12734.19114758863, 43897.283839855656, 187500.0, 187500.0, -18700.050556665727, 22545.46702450121, 0.592, -0.628, 0.55, 192.0, 0.0, 0.0, 0.0, 0.0, 0.0, 0.0, 0.0, 0.0, 0.0, 1.6635887338364503E9, 0.0, 2022-09-19 16:58:53.836
158.0, 13548.711067284474, 27792.65079410682, 12728.826728919355, 43877.34608380152, 187500.0, 187500.0, -18704.073870667682, 22537.755672664127, 0.592, -0.628, 0.55, 192.0, 0.0, 0.0, 0.0, 0.0, 0.0, 0.0, 0.0, 0.0, 0.0, 1.6635887338415058E9, 0.0, 2022-09-19 16:58:53.841
159.0, 13531.656686265074, 27793.12018074038, 12721.629467204746, 43864.35972027299, 187500.0, 187500.0, -18711.785222504765, 22525.864544613905, 0.592, -0.628, 0.55, 192.0, 0.0, 0.0, 0.0, 0.0, 0.0, 0.0, 0.0, 0.0, 0.0, 1.6635887338454843E9, 0.0, 2022-09-19 16:58:53.845
160.0, 13528.348628085689, 27820.344605486946, 12727.731493441046, 43879.00011289121, 187500.0, 187500.0, -18705.370271846088, 22537.129823819378, 0.592, -0.628, 0.55, 192.0, 0.0, 0.0, 0.0, 0.0, 0.0, 0.0, 0.0, 0.0, 0.0, 1.6635887338485453E9, 0.0, 2022-09-19 16:58:53.848
161.0, 13532.036665920814, 27846.22792556619, 12721.89768813821, 43890.846537452526, 187500.0, 187500.0, -18711.673463782485, 22536.21340229671, 0.592, -0.628, 0.55, 192.0, 0.0, 0.0, 0.0, 0.0, 0.0, 0.0, 0.0, 0.0, 0.0, 1.663588733852488E9, 0.0, 2022-09-19 16:58:53.852
162.0, 13559.3504976452, 27848.30663780053, 12719.617810203768, 43882.12935711496, 187500.0, 187500.0, -18706.33139685767, 22549.60209722544, 0.592, -0.628, 0.55, 192.0, 0.0, 0.0, 0.0, 0.0, 0.0, 0.0, 0.0, 0.0, 0.0, 1.663588733855574E9, 0.0, 2022-09-19 16:58:53.855
163.0, 13569.274672183356, 27843.59041972046, 12737.432150534649, 43864.94086562883, 187500.0, 187500.0, -18685.521922769778, 22553.60305948294, 0.592, -0.628, 0.55, 192.0, 0.0, 0.0, 0.0, 0.0, 0.0, 0.0, 0.0, 0.0, 0.0, 1.6635887338605125E9, 0.0, 2022-09-19 16:58:53.860
164.0, 13532.707218254474, 27839.1200708294, 12726.010409117987, 43851.08278406654, 187500.0, 187500.0, -18701.54812354423, 22529.954913849226, 0.592, -0.628, 0.55, 192.0, 0.0, 0.0, 0.0, 0.0, 0.0, 0.0, 0.0, 0.0, 0.0, 1.6635887338645198E9, 0.0, 2022-09-19 16:58:53.864
165.0, 13510.131956354613, 27847.5243267446, 12716.354455513294, 43849.652272421394, 187500.0, 187500.0, -18708.14188815855, 22514.42045145279, 0.592, -0.628, 0.55, 192.0, 0.0, 0.0, 0.0, 0.0, 0.0, 0.0, 0.0, 0.0, 0.0, 1.663588733868488E9, 0.0, 2022-09-19 16:58:53.868
166.0, 13525.755825728873, 27852.866393669417, 12710.699464166102, 43842.745583384705, 187500.0, 187500.0, -18710.913504471006, 22502.372861191376, 0.592, -0.624, 0.55, 192.0, 18.0, 128.0, 236.0, 128.0, 17.0, 48.0, 0.0, 0.0, 0.0, 1.6635887338725452E9, 0.0, 2022-09-19 16:58:53.872
167.0, 13569.364079161178, 27854.2745535701, 12709.313656009872, 43833.87194083595, 187500.0, 187500.0, -18710.51117307081, 22517.84026835445, 0.592, -0.624, 0.55, 192.0, 0.0, 0.0, 0.0, 0.0, 0.0, 0.0, 0.0, 0.0, 0.0, 1.663588733876551E9, 0.0, 2022-09-19 16:58:53.876
168.0, 13556.981212732937, 27846.809070922027, 12703.055167562386, 43815.81173131606, 187500.0, 187500.0, -18710.93585621546, 22541.041379099057, 0.592, -0.624, 0.55, 192.0, 0.0, 0.0, 0.0, 0.0, 0.0, 0.0, 0.0, 0.0, 0.0, 1.6635887338805785E9, 0.0, 2022-09-19 16:58:53.880
169.0, 13556.35536388819, 27841.31054178602, 12701.89287685071, 43797.57270784053, 187500.0, 187500.0, -18705.70554801292, 22544.684713445273, 0.592, -0.624, 0.55, 192.0, 0.0, 0.0, 0.0, 0.0, 0.0, 0.0, 0.0, 0.0, 0.0, 1.6635887338835676E9, 0.0, 2022-09-19 16:58:53.883
170.0, 13578.483590898943, 27858.74490246116, 12712.688769422624, 43801.6854288203, 187500.0, 187500.0, -18692.585074017654, 22552.999562382647, 0.592, -0.624, 0.55, 192.0, 0.0, 0.0, 0.0, 0.0, 0.0, 0.0, 0.0, 0.0, 0.0, 1.6635887338885257E9, 0.0, 2022-09-19 16:58:53.888
171.0, 13558.747000544907, 27872.1783008788, 12694.583856413825, 43803.115940465446, 187500.0, 187500.0, -18710.019434692793, 22541.93544887727, 0.592, -0.624, 0.55, 192.0, 0.0, 0.0, 0.0, 0.0, 0.0, 0.0, 0.0, 0.0, 0.0, 1.663588733892559E9, 0.0, 2022-09-19 16:58:53.892
172.0, 13527.812186218762, 27864.310486830535, 12672.74620208099, 43784.228716400714, 187500.0, 187500.0, -18729.688969813466, 22536.123995318892, 0.592, -0.624, 0.55, 192.0, 0.0, 0.0, 0.0, 0.0, 0.0, 0.0, 0.0, 0.0, 0.0, 1.6635887338965795E9, 0.0, 2022-09-19 16:58:53.896
173.0, 13513.39531104509, 27844.70800694323, 12664.185483954607, 43751.997500896156, 187500.0, 187500.0, -18728.95136224644, 22524.299922502032, 0.592, -0.624, 0.55, 192.0, 0.0, 0.0, 0.0, 0.0, 0.0, 0.0, 0.0, 0.0, 0.0, 1.663588733900587E9, 0.0, 2022-09-19 16:58:53.900
174.0, 13491.356491012157, 27829.106489313424, 12647.712248291045, 43722.716715659706, 187500.0, 187500.0, -18745.402246165544, 22495.332061687954, 0.592, -0.624, 0.55, 192.0, 0.0, 0.0, 0.0, 0.0, 0.0, 0.0, 0.0, 0.0, 0.0, 1.6635887339046063E9, 0.0, 2022-09-19 16:58:53.904
175.0, 13475.374993726611, 27845.64678021035, 12645.521777334427, 43726.918843617306, 187500.0, 187500.0, -18746.832757810684, 22500.20474197921, 0.592, -0.624, 0.55, 192.0, 0.0, 0.0, 0.0, 0.0, 0.0, 0.0, 0.0, 0.0, 0.0, 1.663588733907627E9, 0.0, 2022-09-19 16:58:53.907
176.0, 13486.215589787435, 27865.159853119836, 12655.691821061591, 43734.96547162122, 187500.0, 187500.0, -18737.51208037282, 22516.387404964855, 0.588, -0.622, 0.552, 192.0, 18.0, 96.0, 236.0, 144.0, 17.0, 64.0, 0.0, 0.0, 0.0, 1.6635887339115925E9, 0.0, 2022-09-19 16:58:53.911
177.0, 13501.48183125041, 27848.50780350063, 12653.590757082791, 43704.79061660655, 187500.0, 187500.0, -18743.547051375754, 22506.932617060258, 0.588, -0.622, 0.552, 192.0, 0.0, 0.0, 0.0, 0.0, 0.0, 0.0, 0.0, 0.0, 0.0, 1.6635887339156196E9, 0.0, 2022-09-19 16:58:53.915
178.0, 13519.653799492575, 27831.140498058856, 12656.518835606437, 43675.733348814654, 187500.0, 187500.0, -18739.680199584986, 22505.233884481655, 0.588, -0.622, 0.552, 192.0, 0.0, 0.0, 0.0, 0.0, 0.0, 0.0, 0.0, 0.0, 0.0, 1.6635887339206178E9, 0.0, 2022-09-19 16:58:53.920
179.0, 13509.260238320856, 27841.98109411968, 12663.000841498477, 43677.09680522642, 187500.0, 187500.0, -18735.679237327487, 22519.583704421962, 0.588, -0.622, 0.552, 192.0, 0.0, 0.0, 0.0, 0.0, 0.0, 0.0, 0.0, 0.0, 0.0, 1.663588733924611E9, 0.0, 2022-09-19 16:58:53.924
180.0, 13481.253502518357, 27861.538870518074, 12662.55380660937, 43685.79163381954, 187500.0, 187500.0, -18740.306048429735, 22521.684768400763, 0.588, -0.622, 0.552, 192.0, 0.0, 0.0, 0.0, 0.0, 0.0, 0.0, 0.0, 0.0, 0.0, 1.6635887339286335E9, 0.0, 2022-09-19 16:58:53.928
181.0, 13481.231150773901, 27863.014085652125, 12645.991163967987, 43673.297008669026, 187500.0, 187500.0, -18751.012534023826, 22500.808239079506, 0.588, -0.622, 0.552, 192.0, 0.0, 0.0, 0.0, 0.0, 0.0, 0.0, 0.0, 0.0, 0.0, 1.6635887339326973E9, 0.0, 2022-09-19 16:58:53.932
182.0, 13488.316653766235, 27839.74591967415, 12640.336172620795, 43638.56239778548, 187500.0, 187500.0, -18752.53245264679, 22498.88598905635, 0.588, -0.622, 0.552, 192.0, 0.0, 0.0, 0.0, 0.0, 0.0, 0.0, 0.0, 0.0, 0.0, 1.6635887339357364E9, 0.0, 2022-09-19 16:58:53.935
