%OpenBCI Raw EEG Data
%Number of channels = 8
%Sample Rate = 250 Hz
%Board = OpenBCI_GUI$BoardCytonSerial
Sample Index, EXG Channel 0, EXG Channel 1, EXG Channel 2, EXG Channel 3, EXG Channel 4, EXG Channel 5, EXG Channel 6, EXG Channel 7, Accel Channel 0, Accel Channel 1, Accel Channel 2, Other, Other, Other, Other, Other, Other, Other, Analog Channel 0, Analog Channel 1, Analog Channel 2, Timestamp, Other, Timestamp (Formatted)
56.0, -4048.4373627230366, 3428.8470064219246, -20973.647650915107, -74140.31167510888, -187500.02235174447, -187500.02235174447, 9875.738307921685, -1547.9477105078354, 0.0, 0.0, 0.0, 192.0, 0.0, 0.0, 0.0, 0.0, 0.0, 0.0, 0.0, 0.0, 0.0, 1.6635904990251188E9, 0.0, 2022-09-19 17:28:19.025
57.0, -3731.8696060025227, 3258.303196227932, -20351.397437023814, -75135.81366965934, -187500.02235174447, -187500.02235174447, 10299.70619674995, -1180.1497554957575, 0.0, 0.0, 0.0, 192.0, 0.0, 0.0, 0.0, 0.0, 0.0, 0.0, 0.0, 0.0, 0.0, 1.663590499025146E9, 0.0, 2022-09-19 17:28:19.025
58.0, -3167.53276199493, 2990.015207530881, -19303.905284870303, -76412.6347199243, -187500.02235174447, -187500.02235174447, 10968.246873408185, -461.20589509080594, 0.0, 0.0, 0.0, 192.0, 0.0, 0.0, 0.0, 0.0, 0.0, 0.0, 0.0, 0.0, 0.0, 1.6635904990251632E9, 0.0, 2022-09-19 17:28:19.025
0.0, 0.0, 0.0, 0.0, 0.0, 0.0, 0.0, 0.0, 0.0, 0.0, 0.0, 0.0, 192.0, 0.0, 0.0, 0.0, 0.0, 0.0, 0.0, 0.0, 0.0, 0.0, 1.6635904991280937E9, 0.0, 2022-09-19 17:28:19.128
1.0, -7351.242882161485, 1797.5049373513386, -26220.339682142698, -35120.06671667894, -187500.02235174447, -187500.02235174447, -7079.177448651487, -14749.245613723471, 0.64, -0.78, 0.116, 192.0, 20.0, 0.0, 231.0, 160.0, 3.0, 160.0, 0.0, 0.0, 0.0, 1.6635904991450605E9, 0.0, 2022-09-19 17:28:19.145
2.0, -7380.121335997741, 1808.434940389984, -26277.96247934848, -35089.91421340874, -187500.02235174447, -187500.02235174447, -7088.967512722911, -14796.094870101795, 0.64, -0.78, 0.116, 192.0, 0.0, 0.0, 0.0, 0.0, 0.0, 0.0, 0.0, 0.0, 0.0, 1.663590499148124E9, 0.0, 2022-09-19 17:28:19.148
3.0, -7399.880278096232, 1815.8333678046904, -26227.33577815721, -35094.228100088614, -187500.02235174447, -187500.02235174447, -7051.39423029354, -14772.290262256893, 0.64, -0.78, 0.116, 192.0, 0.0, 0.0, 0.0, 0.0, 0.0, 0.0, 0.0, 0.0, 0.0, 1.663590499152128E9, 0.0, 2022-09-19 17:28:19.152
4.0, -7370.040699248398, 1824.7070103534475, -26137.280599746777, -35127.353385371374, -187500.02235174447, -187500.02235174447, -6986.261246950776, -14688.38181357167, 0.64, -0.78, 0.116, 192.0, 0.0, 0.0, 0.0, 0.0, 0.0, 0.0, 0.0, 0.0, 0.0, 1.6635904991551468E9, 0.0, 2022-09-19 17:28:19.155
5.0, -7351.4440478615825, 1828.618565633126, -26123.534276906765, -35146.68764432522, -187500.02235174447, -187500.02235174447, -6949.313813366153, -14667.415877272591, 0.64, -0.78, 0.116, 192.0, 0.0, 0.0, 0.0, 0.0, 0.0, 0.0, 0.0, 0.0, 0.0, 1.6635904991591098E9, 0.0, 2022-09-19 17:28:19.159
6.0, -7353.545111840381, 1839.168589016031, -26169.66827746252, -35136.49524885359, -187500.02235174447, -187500.02235174447, -6952.3536506120745, -14702.105784667228, 0.64, -0.78, 0.116, 192.0, 0.0, 0.0, 0.0, 0.0, 0.0, 0.0, 0.0, 0.0, 0.0, 1.6635904991630905E9, 0.0, 2022-09-19 17:28:19.163
7.0, -7380.076632508831, 1849.3162809987405, -26241.32797018623, -35106.65567000576, -187500.02235174447, -187500.02235174447, -6983.5790376161385, -14778.571102448834, 0.64, -0.78, 0.116, 192.0, 0.0, 0.0, 0.0, 0.0, 0.0, 0.0, 0.0, 0.0, 0.0, 1.6635904991671777E9, 0.0, 2022-09-19 17:28:19.167
8.0, -7378.489658652504, 1856.1782665465198, -26205.788696502295, -35111.036611919, -187500.02235174447, -187500.02235174447, -6974.9512642563905, -14765.115352286739, 0.628, -0.782, 0.114, 192.0, 19.0, 160.0, 231.0, 144.0, 3.0, 144.0, 0.0, 0.0, 0.0, 1.6635904991722E9, 0.0, 2022-09-19 17:28:19.172
9.0, -7333.182672641597, 1872.785612676813, -26124.65186412953, -35142.21729543416, -187500.02235174447, -187500.02235174447, -6942.205958629365, -14678.815266944799, 0.628, -0.782, 0.114, 192.0, 0.0, 0.0, 0.0, 0.0, 0.0, 0.0, 0.0, 0.0, 0.0, 1.6635904991751547E9, 0.0, 2022-09-19 17:28:19.175
10.0, -7294.424747756094, 1892.969237919955, -26117.052271014723, -35158.04233050851, -187500.02235174447, -187500.02235174447, -6917.037894372689, -14655.457693989003, 0.628, -0.782, 0.114, 192.0, 0.0, 0.0, 0.0, 0.0, 0.0, 0.0, 0.0, 0.0, 0.0, 1.6635904991791258E9, 0.0, 2022-09-19 17:28:19.179
11.0, -7299.945628636555, 1915.4774445864493, -26154.04440808826, -35149.21339144867, -187500.02235174447, -187500.02235174447, -6898.105966819045, -14684.872589692188, 0.628, -0.782, 0.114, 192.0, 0.0, 0.0, 0.0, 0.0, 0.0, 0.0, 0.0, 0.0, 0.0, 1.6635904991832488E9, 0.0, 2022-09-19 17:28:19.183
12.0, -7353.07572520682, 1937.873892530667, -26221.077289709723, -35122.77127775804, -187500.02235174447, -187500.02235174447, -6913.282801304198, -14764.623613908723, 0.628, -0.782, 0.114, 192.0, 0.0, 0.0, 0.0, 0.0, 0.0, 0.0, 0.0, 0.0, 0.0, 1.6635904991872263E9, 0.0, 2022-09-19 17:28:19.187
13.0, -7386.17865874513, 1957.588131140248, -26188.220225360423, -35128.71684178315, -187500.02235174447, -187500.02235174447, -6905.370283767019, -14766.858788354253, 0.628, -0.782, 0.114, 192.0, 0.0, 0.0, 0.0, 0.0, 0.0, 0.0, 0.0, 0.0, 0.0, 1.6635904991911883E9, 0.0, 2022-09-19 17:28:19.191
14.0, -7361.994071244487, 1977.0565005608203, -26093.64999457002, -35163.74202534462, -187500.02235174447, -187500.02235174447, -6844.797056293137, -14719.227220919995, 0.628, -0.782, 0.114, 192.0, 0.0, 0.0, 0.0, 0.0, 0.0, 0.0, 0.0, 0.0, 0.0, 1.6635904991962051E9, 0.0, 2022-09-19 17:28:19.196
15.0, -7347.823065259822, 2002.358675284228, -26064.34685758911, -35185.06558955498, -187500.02235174447, -187500.02235174447, -6811.649419265917, -14680.33518556776, 0.628, -0.782, 0.114, 192.0, 0.0, 0.0, 0.0, 0.0, 0.0, 0.0, 0.0, 0.0, 0.0, 1.6635904991992369E9, 0.0, 2022-09-19 17:28:19.199
16.0, -7351.399344372671, 2029.0019546749538, -26099.886131273048, -35180.081150541446, -187500.02235174447, -187500.02235174447, -6812.141157643933, -14689.342938583248, 0.628, -0.782, 0.114, 192.0, 0.0, 0.0, 0.0, 0.0, 0.0, 0.0, 0.0, 0.0, 0.0, 1.6635904992022157E9, 0.0, 2022-09-19 17:28:19.202
17.0, -7378.310844696862, 2051.5325130859032, -26165.13087333809, -35153.84020255091, -187500.02235174447, -187500.02235174447, -6829.061428196601, -14764.489503441991, 0.628, -0.782, 0.114, 192.0, 0.0, 0.0, 0.0, 0.0, 0.0, 0.0, 0.0, 0.0, 0.0, 1.6635904992072015E9, 0.0, 2022-09-19 17:28:19.207
18.0, -7382.781193587923, 2061.7919637908894, -26132.586733411164, -35161.50685089909, -187500.02235174447, -187500.02235174447, -6820.076026925568, -14760.130913273206, 0.632, -0.784, 0.11800000000000001, 192.0, 19.0, 192.0, 231.0, 128.0, 3.0, 176.0, 0.0, 0.0, 0.0, 1.6635904992112005E9, 0.0, 2022-09-19 17:28:19.211
19.0, -7342.59275705728, 2070.799716806378, -26039.089386354615, -35198.34252576143, -187500.02235174447, -187500.02235174447, -6775.283131037132, -14679.731688467466, 0.632, -0.784, 0.11800000000000001, 192.0, 0.0, 0.0, 0.0, 0.0, 0.0, 0.0, 0.0, 0.0, 0.0, 1.663590499215248E9, 0.0, 2022-09-19 17:28:19.215
20.0, -7319.235184101485, 2080.545077388892, -26013.60839767556, -35222.59416849544, -187500.02235174447, -187500.02235174447, -6748.483389435219, -14647.768693896378, 0.632, -0.784, 0.11800000000000001, 192.0, 0.0, 0.0, 0.0, 0.0, 0.0, 0.0, 0.0, 0.0, 0.0, 1.6635904992192364E9, 0.0, 2022-09-19 17:28:19.219
21.0, -7318.318762578817, 2096.124243274241, -26050.377017304545, -35221.70009871723, -187500.02235174447, -187500.02235174447, -6752.57375867054, -14672.66853721959, 0.632, -0.784, 0.11800000000000001, 192.0, 0.0, 0.0, 0.0, 0.0, 0.0, 0.0, 0.0, 0.0, 0.0, 1.6635904992232387E9, 0.0, 2022-09-19 17:28:19.223
22.0, -7349.745315282979, 2112.8209963823556, -26123.444869928942, -35194.92270885977, -187500.02235174447, -187500.02235174447, -6780.759308428683, -14729.620782091712, 0.632, -0.784, 0.11800000000000001, 192.0, 0.0, 0.0, 0.0, 0.0, 0.0, 0.0, 0.0, 0.0, 0.0, 1.663590499227266E9, 0.0, 2022-09-19 17:28:19.227
23.0, -7363.357527656261, 2120.644106941713, -26091.16895093548, -35198.387229250344, -187500.02235174447, -187500.02235174447, -6754.630119160428, -14708.833659748276, 0.632, -0.784, 0.11800000000000001, 192.0, 0.0, 0.0, 0.0, 0.0, 0.0, 0.0, 0.0, 0.0, 0.0, 1.6635904992302997E9, 0.0, 2022-09-19 17:28:19.230
24.0, -7327.505329549948, 2122.3875430092266, -25997.24692073428, -35234.4182413123, -187500.02235174447, -187500.02235174447, -6694.436871342286, -14643.499510705413, 0.632, -0.784, 0.11800000000000001, 192.0, 0.0, 0.0, 0.0, 0.0, 0.0, 0.0, 0.0, 0.0, 0.0, 1.6635904992352653E9, 0.0, 2022-09-19 17:28:19.235
25.0, -7297.77750942439, 2129.0707146013638, -25978.873786792017, -35258.49107009066, -187500.02235174447, -187500.02235174447, -6667.346557062454, -14609.882487044631, 0.632, -0.784, 0.11800000000000001, 192.0, 0.0, 0.0, 0.0, 0.0, 0.0, 0.0, 0.0, 0.0, 0.0, 1.663590499239255E9, 0.0, 2022-09-19 17:28:19.239
26.0, -7299.520945491904, 2147.4662002880814, -26008.132220284013, -35257.44053810126, -187500.02235174447, -187500.02235174447, -6653.93551038927, -14639.47619670346, 0.632, -0.784, 0.11800000000000001, 192.0, 0.0, 0.0, 0.0, 0.0, 0.0, 0.0, 0.0, 0.0, 0.0, 1.6635904992433712E9, 0.0, 2022-09-19 17:28:19.243
27.0, -7331.416884829627, 2171.38256685526, -26072.661706526484, -35233.412412811806, -187500.02235174447, -187500.02235174447, -6672.867437942915, -14702.91044746762, 0.632, -0.784, 0.11800000000000001, 192.0, 0.0, 0.0, 0.0, 0.0, 0.0, 0.0, 0.0, 0.0, 0.0, 1.6635904992473495E9, 0.0, 2022-09-19 17:28:19.247
28.0, -7353.656870562658, 2191.3650263983045, -26039.469366010355, -35241.86137221591, -187500.02235174447, -187500.02235174447, -6652.683812699773, -14692.539238040357, 0.636, -0.784, 0.12, 192.0, 19.0, 224.0, 231.0, 128.0, 3.0, 192.0, 0.0, 0.0, 0.0, 1.663590499251267E9, 0.0, 2022-09-19 17:28:19.251
29.0, -7330.746332495968, 2207.190061472662, -25951.76112076773, -35284.329686681, -187500.02235174447, -187500.02235174447, -6605.275762710066, -14615.13514699163, 0.636, -0.784, 0.12, 192.0, 0.0, 0.0, 0.0, 0.0, 0.0, 0.0, 0.0, 0.0, 0.0, 1.6635904992553227E9, 0.0, 2022-09-19 17:28:19.255
30.0, -7298.6715792026025, 2226.5913756598684, -25919.28403607417, -35311.86703584994, -187500.02235174447, -187500.02235174447, -6565.310843623977, -14597.343158405205, 0.636, -0.784, 0.12, 192.0, 0.0, 0.0, 0.0, 0.0, 0.0, 0.0, 0.0, 0.0, 0.0, 1.6635904992583816E9, 0.0, 2022-09-19 17:28:19.258
31.0, -7297.9116198911215, 2247.870236381321, -25962.154681939446, -35312.202312016765, -187500.02235174447, -187500.02235174447, -6568.887122736826, -14630.826071599255, 0.636, -0.784, 0.12, 192.0, 0.0, 0.0, 0.0, 0.0, 0.0, 0.0, 0.0, 0.0, 0.0, 1.6635904992633529E9, 0.0, 2022-09-19 17:28:19.263
32.0, -7325.806596971345, 2272.4571552821585, -26049.550002759697, -35291.81752107353, -187500.02235174447, -187500.02235174447, -6622.30779198501, -14678.301176822326, 0.636, -0.784, 0.12, 192.0, 0.0, 0.0, 0.0, 0.0, 0.0, 0.0, 0.0, 0.0, 0.0, 1.6635904992672873E9, 0.0, 2022-09-19 17:28:19.267
33.0, -7344.425600102616, 2294.8759549708316, -26019.978644845327, -35300.1323700109, -187500.02235174447, -187500.02235174447, -6615.088178525946, -14663.99606037093, 0.636, -0.784, 0.12, 192.0, 0.0, 0.0, 0.0, 0.0, 0.0, 0.0, 0.0, 0.0, 0.0, 1.6635904992713368E9, 0.0, 2022-09-19 17:28:19.271
34.0, -7324.867823704222, 2311.9303359902306, -25922.949722164838, -35338.689129196304, -187500.02235174447, -187500.02235174447, -6545.283680592022, -14585.496733843893, 0.636, -0.784, 0.12, 192.0, 0.0, 0.0, 0.0, 0.0, 0.0, 0.0, 0.0, 0.0, 0.0, 1.6635904992752993E9, 0.0, 2022-09-19 17:28:19.275
35.0, -7302.851355415744, 2334.5503013790017, -25884.035335068147, -35360.72794922924, -187500.02235174447, -187500.02235174447, -6497.294485246478, -14542.603736234158, 0.636, -0.784, 0.12, 192.0, 0.0, 0.0, 0.0, 0.0, 0.0, 0.0, 0.0, 0.0, 0.0, 1.6635904992793484E9, 0.0, 2022-09-19 17:28:19.279
36.0, -7291.273151787896, 2355.1586097667946, -25916.668881972895, -35357.1963736053, -187500.02235174447, -187500.02235174447, -6492.265342744034, -14558.048791652775, 0.636, -0.784, 0.12, 192.0, 0.0, 0.0, 0.0, 0.0, 0.0, 0.0, 0.0, 0.0, 0.0, 1.6635904992823787E9, 0.0, 2022-09-19 17:28:19.282
37.0, -7319.1010736347525, 2369.4860779626465, -25996.12933351151, -35334.33053902752, -187500.02235174447, -187500.02235174447, -6517.031075600515, -14624.813452340777, 0.636, -0.784, 0.12, 192.0, 0.0, 0.0, 0.0, 0.0, 0.0, 0.0, 0.0, 0.0, 0.0, 1.6635904992863955E9, 0.0, 2022-09-19 17:28:19.286
38.0, -7323.236146358985, 2385.959313626208, -25978.985545514293, -35337.03510010661, -187500.02235174447, -187500.02235174447, -6513.275982532023, -14617.482080159436, 0.638, -0.786, 0.12, 192.0, 19.0, 240.0, 231.0, 112.0, 3.0, 192.0, 0.0, 0.0, 0.0, 1.6635904992904005E9, 0.0, 2022-09-19 17:28:19.290
39.0, -7276.141020791652, 2394.6764939637774, -25902.22965505477, -35373.33433310203, -187500.02235174447, -187500.02235174447, -6484.241066484579, -14537.373428031617, 0.638, -0.786, 0.12, 192.0, 0.0, 0.0, 0.0, 0.0, 0.0, 0.0, 0.0, 0.0, 0.0, 1.6635904992953827E9, 0.0, 2022-09-19 17:28:19.295
40.0, -7243.708639587002, 2403.3936743013473, -25871.45130293981, -35398.39063863643, -187500.02235174447, -187500.02235174447, -6442.108028186325, -14516.96628534392, 0.638, -0.786, 0.12, 192.0, 0.0, 0.0, 0.0, 0.0, 0.0, 0.0, 0.0, 0.0, 0.0, 1.6635904992993865E9, 0.0, 2022-09-19 17:28:19.299
41.0, -7252.023488524376, 2416.245927363149, -25895.591186951544, -35397.02718222466, -187500.02235174447, -187500.02235174447, -6411.642600493741, -14531.584326217691, 0.638, -0.786, 0.12, 192.0, 0.0, 0.0, 0.0, 0.0, 0.0, 0.0, 0.0, 0.0, 0.0, 1.6635904993033786E9, 0.0, 2022-09-19 17:28:19.303
42.0, -7288.501535475438, 2429.969898458707, -25971.09537972157, -35371.12151040095, -187500.02235174447, -187500.02235174447, -6440.833978752373, -14598.952484005988, 0.638, -0.786, 0.12, 192.0, 0.0, 0.0, 0.0, 0.0, 0.0, 0.0, 0.0, 0.0, 0.0, 1.6635904993073783E9, 0.0, 2022-09-19 17:28:19.307
43.0, -7294.067119844809, 2446.3090236555367, -25946.866088732015, -35372.50731855718, -187500.02235174447, -187500.02235174447, -6440.074019440892, -14616.900934803598, 0.638, -0.786, 0.12, 192.0, 0.0, 0.0, 0.0, 0.0, 0.0, 0.0, 0.0, 0.0, 0.0, 1.6635904993113842E9, 0.0, 2022-09-19 17:28:19.311
44.0, -7243.5521773758155, 2461.6423203518775, -25854.486328898234, -35407.86777828548, -187500.02235174447, -187500.02235174447, -6388.240324049035, -14554.472512539925, 0.638, -0.786, 0.12, 192.0, 0.0, 0.0, 0.0, 0.0, 0.0, 0.0, 0.0, 0.0, 0.0, 1.6635904993143945E9, 0.0, 2022-09-19 17:28:19.314
45.0, -7216.305400884796, 2468.593712877478, -25822.67979653833, -35434.466354187294, -187500.02235174447, -187500.02235174447, -6354.533893410432, -14523.090663324674, 0.638, -0.786, 0.12, 192.0, 0.0, 0.0, 0.0, 0.0, 0.0, 0.0, 0.0, 0.0, 0.0, 1.6635904993194E9, 0.0, 2022-09-19 17:28:19.319
46.0, -7220.932211987044, 2480.037806038595, -25865.39398019242, -35437.2156187553, -187500.02235174447, -187500.02235174447, -6366.35796622729, -14541.128521100107, 0.638, -0.786, 0.12, 192.0, 0.0, 0.0, 0.0, 0.0, 0.0, 0.0, 0.0, 0.0, 0.0, 1.663590499323396E9, 0.0, 2022-09-19 17:28:19.323
47.0, -7264.562817163804, 2499.103844058972, -25944.027417186193, -35413.90274928841, -187500.02235174447, -187500.02235174447, -6391.16840257268, -14590.302358901783, 0.638, -0.786, 0.12, 192.0, 0.0, 0.0, 0.0, 0.0, 0.0, 0.0, 0.0, 0.0, 0.0, 1.6635904993284905E9, 0.0, 2022-09-19 17:28:19.328
48.0, -7298.783337924879, 2509.676219186332, -25920.043995385648, -35411.35465042051, -187500.02235174447, -187500.02235174447, -6376.326844254357, -14587.441335611504, 0.64, -0.786, 0.11800000000000001, 192.0, 20.0, 0.0, 231.0, 112.0, 3.0, 176.0, 0.0, 0.0, 0.0, 1.6635904993334095E9, 0.0, 2022-09-19 17:28:19.333
49.0, -7274.10701204622, 2519.399228024391, -25828.02186346315, -35442.98236882476, -187500.02235174447, -187500.02235174447, -6323.599079084287, -14514.373482987105, 0.64, -0.786, 0.11800000000000001, 192.0, 0.0, 0.0, 0.0, 0.0, 0.0, 0.0, 0.0, 0.0, 0.0, 1.6635904993374395E9, 0.0, 2022-09-19 17:28:19.337
50.0, -7237.293688928329, 2534.1513793648937, -25811.77214524414, -35463.65773244593, -187500.02235174447, -187500.02235174447, -6304.756558508463, -14498.839020590667, 0.64, -0.786, 0.11800000000000001, 192.0, 0.0, 0.0, 0.0, 0.0, 0.0, 0.0, 0.0, 0.0, 0.0, 1.663590499340406E9, 0.0, 2022-09-19 17:28:19.340
51.0, -7232.979802248455, 2544.3884783254243, -25861.393017934923, -35458.78505215467, -187500.02235174447, -187500.02235174447, -6324.381390140223, -14518.620314433612, 0.64, -0.786, 0.11800000000000001, 192.0, 0.0, 0.0, 0.0, 0.0, 0.0, 0.0, 0.0, 0.0, 0.0, 1.6635904993434768E9, 0.0, 2022-09-19 17:28:19.343
52.0, -7262.193532251541, 2557.1513244094044, -25937.724225249796, -35430.51009541871, -187500.02235174447, -187500.02235174447, -6347.314279951368, -14595.242094426405, 0.64, -0.786, 0.11800000000000001, 192.0, 0.0, 0.0, 0.0, 0.0, 0.0, 0.0, 0.0, 0.0, 0.0, 1.6635904993465486E9, 0.0, 2022-09-19 17:28:19.346
53.0, -7295.877611145689, 2566.2708361471696, -25919.88753317446, -35429.54897040713, -187500.02235174447, -187500.02235174447, -6333.970288511549, -14608.474327143947, 0.64, -0.786, 0.11800000000000001, 192.0, 0.0, 0.0, 0.0, 0.0, 0.0, 0.0, 0.0, 0.0, 0.0, 1.66359049935147E9, 0.0, 2022-09-19 17:28:19.351
54.0, -7273.123535290187, 2577.6255223304656, -25829.11709894146, -35461.75783416723, -187500.02235174447, -187500.02235174447, -6282.404814053156, -14531.629029706603, 0.64, -0.786, 0.11800000000000001, 192.0, 0.0, 0.0, 0.0, 0.0, 0.0, 0.0, 0.0, 0.0, 0.0, 1.663590499355498E9, 0.0, 2022-09-19 17:28:19.355
55.0, -7256.806761837812, 2587.907324779907, -25800.372755571934, -35483.416674544416, -187500.02235174447, -187500.02235174447, -6260.254235297947, -14483.86335180561, 0.64, -0.786, 0.11800000000000001, 192.0, 0.0, 0.0, 0.0, 0.0, 0.0, 0.0, 0.0, 0.0, 0.0, 1.663590499359517E9, 0.0, 2022-09-19 17:28:19.359
56.0, -7275.53752369136, 2600.558412141611, -25837.655465323387, -35478.789863442165, -187500.02235174447, -187500.02235174447, -6261.215360309525, -14518.955590600443, 0.64, -0.786, 0.11800000000000001, 192.0, 0.0, 0.0, 0.0, 0.0, 0.0, 0.0, 0.0, 0.0, 0.0, 1.6635904993624876E9, 0.0, 2022-09-19 17:28:19.362
57.0, -7311.322666564306, 2621.166720529404, -25906.49883824573, -35450.693720661846, -187500.02235174447, -187500.02235174447, -6276.52630526141, -14593.69982405899, 0.64, -0.786, 0.11800000000000001, 192.0, 0.0, 0.0, 0.0, 0.0, 0.0, 0.0, 0.0, 0.0, 0.0, 1.663590499366453E9, 0.0, 2022-09-19 17:28:19.366
58.0, -7322.118559136219, 2640.3668690165127, -25889.08682931505, -35446.357482237516, -187500.02235174447, -187500.02235174447, -6282.091889630782, -14600.472402628948, 0.64, -0.786, 0.122, 192.0, 20.0, 0.0, 231.0, 112.0, 3.0, 208.0, 0.0, 0.0, 0.0, 1.6635904993704908E9, 0.0, 2022-09-19 17:28:19.370
59.0, -7285.886381374166, 2653.66615696742, -25802.63028176192, -35477.64992447495, -187500.02235174447, -187500.02235174447, -6258.019060852416, -14517.279209766295, 0.64, -0.786, 0.122, 192.0, 0.0, 0.0, 0.0, 0.0, 0.0, 0.0, 0.0, 0.0, 0.0, 1.6635904993745182E9, 0.0, 2022-09-19 17:28:19.374
60.0, -7257.320851960284, 2664.8643809395294, -25765.995772599672, -35499.420523574416, -187500.02235174447, -187500.02235174447, -6208.599353861732, -14477.157828469019, 0.64, -0.786, 0.122, 192.0, 0.0, 0.0, 0.0, 0.0, 0.0, 0.0, 0.0, 0.0, 0.0, 1.6635904993785267E9, 0.0, 2022-09-19 17:28:19.378
61.0, -7279.024395826387, 2675.123831644515, -25803.72551724023, -35496.8277212176, -187500.02235174447, -187500.02235174447, -6181.352577370712, -14460.885758505556, 0.64, -0.786, 0.122, 192.0, 0.0, 0.0, 0.0, 0.0, 0.0, 0.0, 0.0, 0.0, 0.0, 1.6635904993834827E9, 0.0, 2022-09-19 17:28:19.383
62.0, -7313.133157865186, 2690.166555662937, -25888.796256637128, -35468.865688904014, -187500.02235174447, -187500.02235174447, -6204.8219090487855, -14516.183974287984, 0.64, -0.786, 0.122, 192.0, 0.0, 0.0, 0.0, 0.0, 0.0, 0.0, 0.0, 0.0, 0.0, 1.6635904993875394E9, 0.0, 2022-09-19 17:28:19.387
63.0, -7324.465492304027, 2706.192756437392, -25878.894433843427, -35460.84141264456, -187500.02235174447, -187500.02235174447, -6206.028903249372, -14517.748596399857, 0.64, -0.786, 0.122, 192.0, 0.0, 0.0, 0.0, 0.0, 0.0, 0.0, 0.0, 0.0, 0.0, 1.663590499390544E9, 0.0, 2022-09-19 17:28:19.390
64.0, -7297.218715813007, 2716.608669353565, -25782.066676863036, -35489.40694205844, -187500.02235174447, -187500.02235174447, -6158.285577092836, -14458.739991037846, 0.64, -0.786, 0.122, 192.0, 0.0, 0.0, 0.0, 0.0, 0.0, 0.0, 0.0, 0.0, 0.0, 1.6635904993945637E9, 0.0, 2022-09-19 17:28:19.394
65.0, -7277.6609394146135, 2733.4618846728667, -25743.241696744168, -35505.6790120219, -187500.02235174447, -187500.02235174447, -6126.5237482218445, -14430.66620000198, 0.64, -0.786, 0.122, 192.0, 0.0, 0.0, 0.0, 0.0, 0.0, 0.0, 0.0, 0.0, 0.0, 1.6635904993985279E9, 0.0, 2022-09-19 17:28:19.398
66.0, -7294.849430900745, 2749.801009869696, -25781.977269885218, -35500.76162824174, -187500.02235174447, -187500.02235174447, -6141.789989684819, -14465.311403907706, 0.64, -0.786, 0.122, 192.0, 0.0, 0.0, 0.0, 0.0, 0.0, 0.0, 0.0, 0.0, 0.0, 1.6635904994025695E9, 0.0, 2022-09-19 17:28:19.402
67.0, -7330.679277262602, 2765.2460652883133, -25880.6602216554, -35472.218450572305, -187500.02235174447, -187500.02235174447, -6180.03382444785, -14552.97494566142, 0.64, -0.786, 0.122, 192.0, 0.0, 0.0, 0.0, 0.0, 0.0, 0.0, 0.0, 0.0, 0.0, 1.663590499406609E9, 0.0, 2022-09-19 17:28:19.406
68.0, -7362.351699155772, 2778.902981150506, -25875.631079152954, -35460.752005666734, -187500.02235174447, -187500.02235174447, -6175.69758602352, -14524.8788028811, 0.64, -0.786, 0.122, 192.0, 0.0, 0.0, 0.0, 0.0, 0.0, 0.0, 0.0, 0.0, 0.0, 1.6635904994115775E9, 0.0, 2022-09-19 17:28:19.411
69.0, -7356.674356064124, 2790.145908611525, -25782.62547047442, -35489.496349036264, -187500.02235174447, -187500.02235174447, -6119.482948718423, -14431.448511057915, 0.63, -0.78, 0.124, 192.0, 19.0, 176.0, 231.0, 160.0, 3.0, 224.0, 0.0, 0.0, 0.0, 1.663590499415628E9, 0.0, 2022-09-19 17:28:19.415
70.0, -7330.791035984878, 2804.674542507475, -25748.51670843562, -35506.99776494477, -187500.02235174447, -187500.02235174447, -6072.119602217627, -14392.645882683502, 0.63, -0.78, 0.124, 192.0, 0.0, 0.0, 0.0, 0.0, 0.0, 0.0, 0.0, 0.0, 0.0, 1.6635904994186292E9, 0.0, 2022-09-19 17:28:19.418
71.0, -7333.227376130507, 2814.777531001274, -25791.3873543009, -35502.52741605371, -187500.02235174447, -187500.02235174447, -6081.842611055686, -14416.47284227286, 0.63, -0.78, 0.124, 192.0, 0.0, 0.0, 0.0, 0.0, 0.0, 0.0, 0.0, 0.0, 0.0, 1.663590499422585E9, 0.0, 2022-09-19 17:28:19.422
72.0, -7377.349719685283, 2826.4004381180334, -25879.341468732535, -35473.760720939725, -187500.02235174447, -187500.02235174447, -6113.7832538823195, -14505.96922707191, 0.63, -0.78, 0.124, 192.0, 0.0, 0.0, 0.0, 0.0, 0.0, 0.0, 0.0, 0.0, 0.0, 1.663590499426602E9, 0.0, 2022-09-19 17:28:19.426
73.0, -7416.509975970981, 2838.090400468159, -25876.055762297605, -35466.18347956937, -187500.02235174447, -187500.02235174447, -6098.718178119443, -14517.212154532928, 0.63, -0.78, 0.124, 192.0, 0.0, 0.0, 0.0, 0.0, 0.0, 0.0, 0.0, 0.0, 0.0, 1.6635904994306128E9, 0.0, 2022-09-19 17:28:19.430
74.0, -7405.781138632434, 2848.3722029176, -25777.395162271878, -35495.79954097266, -187500.02235174447, -187500.02235174447, -6049.209064150938, -14416.115214361575, 0.63, -0.78, 0.124, 192.0, 0.0, 0.0, 0.0, 0.0, 0.0, 0.0, 0.0, 0.0, 0.0, 1.6635904994346254E9, 0.0, 2022-09-19 17:28:19.434
75.0, -7370.733603326512, 2858.452839666944, -25742.19116475477, -35517.97247147232, -187500.02235174447, -187500.02235174447, -6026.723209228899, -14380.352423233084, 0.63, -0.78, 0.124, 192.0, 0.0, 0.0, 0.0, 0.0, 0.0, 0.0, 0.0, 0.0, 0.0, 1.663590499439635E9, 0.0, 2022-09-19 17:28:19.439
76.0, -7353.969794985032, 2875.28370324179, -25776.2328715602, -35514.70911678185, -187500.02235174447, -187500.02235174447, -6037.630860523089, -14424.273601087762, 0.63, -0.78, 0.124, 192.0, 0.0, 0.0, 0.0, 0.0, 0.0, 0.0, 0.0, 0.0, 0.0, 1.663590499443676E9, 0.0, 2022-09-19 17:28:19.443
77.0, -7379.249617963984, 2894.95323836246, -25865.863366825983, -35485.69655247886, -187500.02235174447, -187500.02235174447, -6079.987416265895, -14520.922544112509, 0.63, -0.78, 0.124, 192.0, 0.0, 0.0, 0.0, 0.0, 0.0, 0.0, 0.0, 0.0, 0.0, 1.6635904994466684E9, 0.0, 2022-09-19 17:28:19.446
78.0, -7416.353513759794, 2909.9736106364267, -25858.330828944545, -35474.811252929125, -187500.02235174447, -187500.02235174447, -6065.123506203116, -14514.865221365122, 0.63, -0.78, 0.124, 192.0, 0.0, 0.0, 0.0, 0.0, 0.0, 0.0, 0.0, 0.0, 0.0, 1.663590499450605E9, 0.0, 2022-09-19 17:28:19.450
79.0, -7405.8481938658, 2928.81613121225, -25754.372865482914, -35499.50993055224, -187500.02235174447, -187500.02235174447, -5992.525040212279, -14429.861537201588, 0.64, -0.782, 0.122, 192.0, 20.0, 0.0, 231.0, 144.0, 3.0, 208.0, 0.0, 0.0, 0.0, 1.6635904994547286E9, 0.0, 2022-09-19 17:28:19.454
80.0, -7371.6947283380905, 2947.2563203878785, -25723.99684476815, -35518.97829997281, -187500.02235174447, -187500.02235174447, -5954.460019404891, -14403.777051422245, 0.64, -0.782, 0.122, 192.0, 0.0, 0.0, 0.0, 0.0, 0.0, 0.0, 0.0, 0.0, 0.0, 1.6635904994586692E9, 0.0, 2022-09-19 17:28:19.458
81.0, -7350.5052745944595, 2967.7752217978505, -25757.747978895663, -35513.479770836806, -187500.02235174447, -187500.02235174447, -5955.398792672014, -14421.032598141743, 0.64, -0.782, 0.122, 192.0, 0.0, 0.0, 0.0, 0.0, 0.0, 0.0, 0.0, 0.0, 0.0, 1.6635904994626665E9, 0.0, 2022-09-19 17:28:19.462
82.0, -7366.509123624459, 2981.20862021549, -25840.98587524723, -35481.315610565616, -187500.02235174447, -187500.02235174447, -5994.603752446622, -14478.208360458419, 0.64, -0.782, 0.122, 192.0, 0.0, 0.0, 0.0, 0.0, 0.0, 0.0, 0.0, 0.0, 0.0, 1.6635904994666328E9, 0.0, 2022-09-19 17:28:19.466
83.0, -7382.803545332378, 2990.372835442166, -25854.642791109418, -35469.49153774876, -187500.02235174447, -187500.02235174447, -6013.803900933731, -14492.066442020709, 0.64, -0.782, 0.122, 192.0, 0.0, 0.0, 0.0, 0.0, 0.0, 0.0, 0.0, 0.0, 0.0, 1.6635904994717588E9, 0.0, 2022-09-19 17:28:19.471
84.0, -7357.680184564613, 3004.7673588713837, -25764.162929554335, -35497.2300526178, -187500.02235174447, -187500.02235174447, -5975.7835836152535, -14428.945115678922, 0.64, -0.782, 0.122, 192.0, 0.0, 0.0, 0.0, 0.0, 0.0, 0.0, 0.0, 0.0, 0.0, 1.6635904994747128E9, 0.0, 2022-09-19 17:28:19.474
85.0, -7327.751198738957, 3023.654582936118, -25731.3729204384, -35517.99482321678, -187500.02235174447, -187500.02235174447, -5938.880853519542, -14428.14045287853, 0.64, -0.782, 0.122, 192.0, 0.0, 0.0, 0.0, 0.0, 0.0, 0.0, 0.0, 0.0, 0.0, 1.6635904994787912E9, 0.0, 2022-09-19 17:28:19.478
86.0, -7327.505329549948, 3041.468923266998, -25772.880109891907, -35513.39036385898, -187500.02235174447, -187500.02235174447, -5935.2822226622375, -14458.538825337748, 0.64, -0.782, 0.122, 192.0, 0.0, 0.0, 0.0, 0.0, 0.0, 0.0, 0.0, 0.0, 0.0, 1.6635904994826655E9, 0.0, 2022-09-19 17:28:19.482
87.0, -7355.176789185619, 3058.5903595197633, -25855.31334344308, -35483.416674544416, -187500.02235174447, -187500.02235174447, -5953.029507759751, -14530.936125628486, 0.64, -0.782, 0.122, 192.0, 0.0, 0.0, 0.0, 0.0, 0.0, 0.0, 0.0, 0.0, 0.0, 1.6635904994867976E9, 0.0, 2022-09-19 17:28:19.486
88.0, -7386.17865874513, 3067.0616706683245, -25844.360988659977, -35473.96188663982, -187500.02235174447, -187500.02235174447, -5938.724391308355, -14517.033340577287, 0.64, -0.782, 0.122, 192.0, 0.0, 0.0, 0.0, 0.0, 0.0, 0.0, 0.0, 0.0, 0.0, 1.6635904994907725E9, 0.0, 2022-09-19 17:28:19.490
89.0, -7361.815257288845, 3077.365824862221, -25738.23490598618, -35506.10369516655, -187500.02235174447, -187500.02235174447, -5884.92374240443, -14449.57577581117, 0.636, -0.786, 0.12, 192.0, 19.0, 224.0, 231.0, 112.0, 3.0, 192.0, 0.0, 0.0, 0.0, 1.6635904994968028E9, 0.0, 2022-09-19 17:28:19.496
90.0, -7319.235184101485, 3096.18599369359, -25699.633443311865, -35533.953968757865, -187500.02235174447, -187500.02235174447, -5842.768352361722, -14429.638019757036, 0.636, -0.786, 0.12, 192.0, 0.0, 0.0, 0.0, 0.0, 0.0, 0.0, 0.0, 0.0, 0.0, 1.6635904994997313E9, 0.0, 2022-09-19 17:28:19.499
91.0, -7291.675483188091, 3119.7000288605727, -25742.124109521403, -35537.32908217062, -187500.02235174447, -187500.02235174447, -5846.746962874766, -14461.265738161295, 0.636, -0.786, 0.12, 192.0, 0.0, 0.0, 0.0, 0.0, 0.0, 0.0, 0.0, 0.0, 0.0, 1.6635904995027723E9, 0.0, 2022-09-19 17:28:19.502
92.0, -7306.897021162155, 3140.9341860931145, -25838.773052546152, -35512.898625480964, -187500.02235174447, -187500.02235174447, -5896.524297776735, -14547.029381636308, 0.636, -0.786, 0.12, 192.0, 0.0, 0.0, 0.0, 0.0, 0.0, 0.0, 0.0, 0.0, 0.0, 1.6635904995068088E9, 0.0, 2022-09-19 17:28:19.506
93.0, -7343.844454746778, 3150.657194931173, -25842.01405549217, -35505.41079108844, -187500.02235174447, -187500.02235174447, -5896.613704754556, -14581.965158219953, 0.636, -0.786, 0.12, 192.0, 0.0, 0.0, 0.0, 0.0, 0.0, 0.0, 0.0, 0.0, 0.0, 1.663590499510759E9, 0.0, 2022-09-19 17:28:19.510
94.0, -7326.253631860452, 3161.8554189032816, -25750.5283654366, -35534.713928069345, -187500.02235174447, -187500.02235174447, -5841.650765138957, -14507.355035228138, 0.636, -0.786, 0.12, 192.0, 0.0, 0.0, 0.0, 0.0, 0.0, 0.0, 0.0, 0.0, 0.0, 1.6635904995147686E9, 0.0, 2022-09-19 17:28:19.514
95.0, -7288.836811642267, 3175.333520809832, -25715.61494059741, -35558.920867314446, -187500.02235174447, -187500.02235174447, -5814.269878181205, -14454.627270058068, 0.636, -0.786, 0.12, 192.0, 0.0, 0.0, 0.0, 0.0, 0.0, 0.0, 0.0, 0.0, 0.0, 1.6635904995188248E9, 0.0, 2022-09-19 17:28:19.518
96.0, -7285.282884273874, 3196.4782710645522, -25733.317522206013, -35557.91503881395, -187500.02235174447, -187500.02235174447, -5813.688732825367, -14460.662241061002, 0.636, -0.786, 0.12, 192.0, 0.0, 0.0, 0.0, 0.0, 0.0, 0.0, 0.0, 0.0, 0.0, 1.6635904995227633E9, 0.0, 2022-09-19 17:28:19.522
97.0, -7313.06610263182, 3206.6036113028067, -25817.2930261246, -35532.32229141263, -187500.02235174447, -187500.02235174447, -5839.996736049264, -14523.582401702692, 0.636, -0.786, 0.12, 192.0, 0.0, 0.0, 0.0, 0.0, 0.0, 0.0, 0.0, 0.0, 0.0, 1.663590499526762E9, 0.0, 2022-09-19 17:28:19.526
98.0, -7335.484902320493, 3220.9534312431138, -25829.318264641555, -35518.35245112806, -187500.02235174447, -187500.02235174447, -5861.387355492992, -14538.73688444339, 0.636, -0.786, 0.12, 192.0, 0.0, 0.0, 0.0, 0.0, 0.0, 0.0, 0.0, 0.0, 0.0, 1.6635904995297692E9, 0.0, 2022-09-19 17:28:19.529
99.0, -7314.921297421611, 3229.8941290252365, -25743.465214188724, -35542.60409386207, -187500.02235174447, -187500.02235174447, -5830.877224311498, -14462.048049217232, 0.638, -0.79, 0.124, 192.0, 19.0, 240.0, 231.0, 80.0, 3.0, 224.0, 0.0, 0.0, 0.0, 1.6635904995348096E9, 0.0, 2022-09-19 17:28:19.534
100.0, -7289.999102353943, 3242.9922512760463, -25708.060050971515, -35562.541849916204, -187500.02235174447, -187500.02235174447, -5795.583819816568, -14452.794427012734, 0.638, -0.79, 0.124, 192.0, 0.0, 0.0, 0.0, 0.0, 0.0, 0.0, 0.0, 0.0, 0.0, 1.66359049953878E9, 0.0, 2022-09-19 17:28:19.538
101.0, -7292.480145988482, 3262.88530384127, -25744.403987455844, -35559.36790220355, -187500.02235174447, -187500.02235174447, -5793.929790726876, -14465.847845774633, 0.638, -0.79, 0.124, 192.0, 0.0, 0.0, 0.0, 0.0, 0.0, 0.0, 0.0, 0.0, 0.0, 1.663590499542806E9, 0.0, 2022-09-19 17:28:19.542
102.0, -7320.665695746625, 3290.579115221395, -25822.07629943804, -35524.54388434218, -187500.02235174447, -187500.02235174447, -5819.2319654502835, -14521.34722725716, 0.638, -0.79, 0.124, 192.0, 0.0, 0.0, 0.0, 0.0, 0.0, 0.0, 0.0, 0.0, 0.0, 1.6635904995468092E9, 0.0, 2022-09-19 17:28:19.546
103.0, -7337.898890721666, 3313.713170732638, -25833.63215132143, -35505.83547423309, -187500.02235174447, -187500.02235174447, -5830.25137546675, -14559.41224806455, 0.638, -0.79, 0.124, 192.0, 0.0, 0.0, 0.0, 0.0, 0.0, 0.0, 0.0, 0.0, 0.0, 1.663590499550825E9, 0.0, 2022-09-19 17:28:19.550
104.0, -7313.379027054194, 3330.2758133740203, -25745.99096131217, -35528.500143110774, -187500.02235174447, -187500.02235174447, -5790.264104636205, -14504.315197982216, 0.638, -0.79, 0.124, 192.0, 0.0, 0.0, 0.0, 0.0, 0.0, 0.0, 0.0, 0.0, 0.0, 1.663590499555884E9, 0.0, 2022-09-19 17:28:19.555
105.0, -7273.212942268007, 3350.5935490838947, -25701.287472401556, -35546.470945652836, -187500.02235174447, -187500.02235174447, -5748.421639015871, -14492.222904231896, 0.638, -0.79, 0.124, 192.0, 0.0, 0.0, 0.0, 0.0, 0.0, 0.0, 0.0, 0.0, 0.0, 1.6635904995588357E9, 0.0, 2022-09-19 17:28:19.558
106.0, -7254.392773436639, 3375.582799384928, -25728.444841914756, -35539.3854426605, -187500.02235174447, -187500.02235174447, -5746.409982014893, -14529.796186661266, 0.638, -0.79, 0.124, 192.0, 0.0, 0.0, 0.0, 0.0, 0.0, 0.0, 0.0, 0.0, 0.0, 1.6635904995618327E9, 0.0, 2022-09-19 17:28:19.561
107.0, -7274.263474257407, 3395.744072883615, -25828.312436141066, -35503.15326489845, -187500.02235174447, -187500.02235174447, -5791.091119181052, -14621.550097650303, 0.638, -0.79, 0.124, 192.0, 0.0, 0.0, 0.0, 0.0, 0.0, 0.0, 0.0, 0.0, 0.0, 1.6635904995679204E9, 0.0, 2022-09-19 17:28:19.567
108.0, -7298.693930947057, 3407.612849189383, -25857.21324172178, -35479.9745058983, -187500.02235174447, -187500.02235174447, -5816.281535182183, -14587.575446078235, 0.638, -0.79, 0.124, 192.0, 0.0, 0.0, 0.0, 0.0, 0.0, 0.0, 0.0, 0.0, 0.0, 1.6635904995709703E9, 0.0, 2022-09-19 17:28:19.570
109.0, -7276.208076025018, 3420.0404191065336, -25750.796586370063, -35499.80050323016, -187500.02235174447, -187500.02235174447, -5768.314691581094, -14494.703947866434, 0.646, -0.784, 0.122, 192.0, 20.0, 48.0, 231.0, 128.0, 3.0, 208.0, 0.0, 0.0, 0.0, 1.663590499574862E9, 0.0, 2022-09-19 17:28:19.574
110.0, -7245.7873518213455, 3435.708991969704, -25705.154324192325, -35517.525436583215, -187500.02235174447, -187500.02235174447, -5716.883327589432, -14465.534921352259, 0.646, -0.784, 0.122, 192.0, 0.0, 0.0, 0.0, 0.0, 0.0, 0.0, 0.0, 0.0, 0.0, 1.6635904995788805E9, 0.0, 2022-09-19 17:28:19.578
111.0, -7250.548273390326, 3452.964538689201, -25737.85492633044, -35510.462285335336, -187500.02235174447, -187500.02235174447, -5697.683179102323, -14477.649566847036, 0.646, -0.784, 0.122, 192.0, 0.0, 0.0, 0.0, 0.0, 0.0, 0.0, 0.0, 0.0, 0.0, 1.6635904995829422E9, 0.0, 2022-09-19 17:28:19.582
112.0, -7281.147811549642, 3471.1365069313656, -25825.429061106333, -35473.559555239626, -187500.02235174447, -187500.02235174447, -5717.844452601011, -14538.893346654577, 0.646, -0.784, 0.122, 192.0, 0.0, 0.0, 0.0, 0.0, 0.0, 0.0, 0.0, 0.0, 0.0, 1.663590499585942E9, 0.0, 2022-09-19 17:28:19.585
113.0, -7302.694893204558, 3489.1073094734325, -25820.332863370524, -35451.49838346224, -187500.02235174447, -187500.02235174447, -5726.516929449669, -14552.527910772314, 0.646, -0.784, 0.122, 192.0, 0.0, 0.0, 0.0, 0.0, 0.0, 0.0, 0.0, 0.0, 0.0, 1.6635904995898657E9, 0.0, 2022-09-19 17:28:19.589
114.0, -7285.282884273874, 3508.463920171728, -25731.462327416222, -35475.3253430516, -187500.02235174447, -187500.02235174447, -5694.196306967296, -14482.969282027398, 0.646, -0.784, 0.122, 192.0, 0.0, 0.0, 0.0, 0.0, 0.0, 0.0, 0.0, 0.0, 0.0, 1.6635904995948808E9, 0.0, 2022-09-19 17:28:19.594
115.0, -7247.441380911038, 3528.4687314592284, -25687.89877747283, -35496.02305841721, -187500.02235174447, -187500.02235174447, -5660.959262962254, -14453.24146190184, 0.646, -0.784, 0.122, 192.0, 0.0, 0.0, 0.0, 0.0, 0.0, 0.0, 0.0, 0.0, 0.0, 1.6635904995989337E9, 0.0, 2022-09-19 17:28:19.598
116.0, -7224.8884707556335, 3546.1042578344654, -25732.401100683346, -35491.731523481794, -187500.02235174447, -187500.02235174447, -5674.16914393534, -14497.609674645624, 0.646, -0.784, 0.122, 192.0, 0.0, 0.0, 0.0, 0.0, 0.0, 0.0, 0.0, 0.0, 0.0, 1.6635904996028771E9, 0.0, 2022-09-19 17:28:19.602
117.0, -7236.600784850215, 3569.3277203235293, -25825.4961163397, -35457.823927143094, -187500.02235174447, -187500.02235174447, -5701.84060357101, -14587.21781816695, 0.646, -0.784, 0.122, 192.0, 0.0, 0.0, 0.0, 0.0, 0.0, 0.0, 0.0, 0.0, 0.0, 1.663590499606877E9, 0.0, 2022-09-19 17:28:19.606
118.0, -7266.418011953594, 3588.0137786881664, -25838.996569990704, -35431.87355183048, -187500.02235174447, -187500.02235174447, -5693.235181955717, -14598.058414227775, 0.646, -0.784, 0.122, 192.0, 0.0, 0.0, 0.0, 0.0, 0.0, 0.0, 0.0, 0.0, 0.0, 1.6635904996099043E9, 0.0, 2022-09-19 17:28:19.609
119.0, -7254.8845118146555, 3600.4413486053168, -25746.706217134742, -35451.92306660689, -187500.02235174447, -187500.02235174447, -5644.418972065327, -14529.282096538795, 0.638, -0.784, 0.12, 192.0, 19.0, 240.0, 231.0, 128.0, 3.0, 192.0, 0.0, 0.0, 0.0, 1.6635904996139357E9, 0.0, 2022-09-19 17:28:19.613
120.0, -7236.913709272589, 3614.277078423152, -25700.929844490274, -35469.69270344886, -187500.02235174447, -187500.02235174447, -5602.040064578065, -14473.849770289633, 0.638, -0.784, 0.12, 192.0, 0.0, 0.0, 0.0, 0.0, 0.0, 0.0, 0.0, 0.0, 0.0, 1.663590499618018E9, 0.0, 2022-09-19 17:28:19.618
121.0, -7230.990496991933, 3633.790151332635, -25731.708196605232, -35464.21652605731, -187500.02235174447, -187500.02235174447, -5602.263582022618, -14510.573686429703, 0.638, -0.784, 0.12, 192.0, 0.0, 0.0, 0.0, 0.0, 0.0, 0.0, 0.0, 0.0, 0.0, 1.6635904996229312E9, 0.0, 2022-09-19 17:28:19.622
122.0, -7245.273261698874, 3654.979605076266, -25829.54178208611, -35427.3137959616, -187500.02235174447, -187500.02235174447, -5636.573509761514, -14579.864094241155, 0.638, -0.784, 0.12, 192.0, 0.0, 0.0, 0.0, 0.0, 0.0, 0.0, 0.0, 0.0, 0.0, 1.663590499626932E9, 0.0, 2022-09-19 17:28:19.626
123.0, -7268.474372443482, 3672.8162971516012, -25847.35612241699, -35399.08354271454, -187500.02235174447, -187500.02235174447, -5649.984556434698, -14627.987400053431, 0.638, -0.784, 0.12, 192.0, 0.0, 0.0, 0.0, 0.0, 0.0, 0.0, 0.0, 0.0, 0.0, 1.6635904996309931E9, 0.0, 2022-09-19 17:28:19.630
124.0, -7247.3743256776725, 3687.6802072143805, -25753.724664893707, -35416.13792373394, -187500.02235174447, -187500.02235174447, -5620.703771198246, -14563.569672533236, 0.638, -0.784, 0.12, 192.0, 0.0, 0.0, 0.0, 0.0, 0.0, 0.0, 0.0, 0.0, 0.0, 1.663590499635017E9, 0.0, 2022-09-19 17:28:19.635
125.0, -7218.629982308148, 3705.136919633975, -25716.509010375623, -35434.35459546502, -187500.02235174447, -187500.02235174447, -5581.722328868191, -14537.887518154088, 0.638, -0.784, 0.12, 192.0, 0.0, 0.0, 0.0, 0.0, 0.0, 0.0, 0.0, 0.0, 0.0, 1.6635904996380143E9, 0.0, 2022-09-19 17:28:19.638
126.0, -7222.250964909907, 3727.5780710671033, -25746.125071778904, -35425.70447036081, -187500.02235174447, -187500.02235174447, -5570.859381062911, -14563.390858577593, 0.638, -0.784, 0.12, 192.0, 0.0, 0.0, 0.0, 0.0, 0.0, 0.0, 0.0, 0.0, 0.0, 1.6635904996439843E9, 0.0, 2022-09-19 17:28:19.643
127.0, -7243.686287842547, 3759.0940307490864, -25826.792517518108, -35384.063170440575, -187500.02235174447, -187500.02235174447, -5597.390901731361, -14626.221612241461, 0.638, -0.784, 0.12, 192.0, 0.0, 0.0, 0.0, 0.0, 0.0, 0.0, 0.0, 0.0, 0.0, 1.6635904996469755E9, 0.0, 2022-09-19 17:28:19.646
128.0, -7262.171180507086, 3787.3242839961395, -25844.137471215425, -35352.43545203632, -187500.02235174447, -187500.02235174447, -5614.244117050662, -14670.835694174255, 0.638, -0.784, 0.12, 192.0, 0.0, 0.0, 0.0, 0.0, 0.0, 0.0, 0.0, 0.0, 0.0, 1.663590499651033E9, 0.0, 2022-09-19 17:28:19.651
129.0, -7254.258662969907, 3801.94232486991, -25764.609964443443, -35370.20508887829, -187500.02235174447, -187500.02235174447, -5575.977930543177, -14601.36647240716, 0.632, -0.782, 0.124, 192.0, 19.0, 192.0, 231.0, 144.0, 3.0, 224.0, 0.0, 0.0, 0.0, 1.6635904996550913E9, 0.0, 2022-09-19 17:28:19.655
130.0, -7235.080866227254, 3809.2066418178847, -25729.33891169297, -35393.56266183408, -187500.02235174447, -187500.02235174447, -5544.372563883372, -14554.36075381765, 0.632, -0.782, 0.124, 192.0, 0.0, 0.0, 0.0, 0.0, 0.0, 0.0, 0.0, 0.0, 0.0, 1.6635904996589556E9, 0.0, 2022-09-19 17:28:19.658
131.0, -7223.055627710299, 3822.66239197998, -25742.5264409216, -35385.13605417443, -187500.02235174447, -187500.02235174447, -5551.368659897883, -14536.993448375875, 0.632, -0.782, 0.124, 192.0, 0.0, 0.0, 0.0, 0.0, 0.0, 0.0, 0.0, 0.0, 0.0, 1.663590499665004E9, 0.0, 2022-09-19 17:28:19.665
132.0, -7244.893282043134, 3840.4990840553146, -25826.72546228474, -35347.80864093407, -187500.02235174447, -187500.02235174447, -5577.542552655048, -14592.716347302956, 0.632, -0.782, 0.124, 192.0, 0.0, 0.0, 0.0, 0.0, 0.0, 0.0, 0.0, 0.0, 0.0, 1.663590499668069E9, 0.0, 2022-09-19 17:28:19.668
133.0, -7274.732860890968, 3858.3134243861946, -25846.462052638777, -35325.076916823025, -187500.02235174447, -187500.02235174447, -5581.3870527013605, -14643.410103727592, 0.632, -0.782, 0.124, 192.0, 0.0, 0.0, 0.0, 0.0, 0.0, 0.0, 0.0, 0.0, 0.0, 1.663590499671066E9, 0.0, 2022-09-19 17:28:19.671
134.0, -7248.1342849891535, 3877.6700350844903, -25760.85487137495, -35344.299417054586, -187500.02235174447, -187500.02235174447, -5544.730191794657, -14578.45593434047, 0.632, -0.782, 0.124, 192.0, 0.0, 0.0, 0.0, 0.0, 0.0, 0.0, 0.0, 0.0, 0.0, 1.6635904996750312E9, 0.0, 2022-09-19 17:28:19.675
135.0, -7217.959429974489, 3896.8254800826885, -25711.546923106544, -35365.131242886935, -187500.02235174447, -187500.02235174447, -5508.006275654588, -14532.836023907188, 0.632, -0.782, 0.124, 192.0, 0.0, 0.0, 0.0, 0.0, 0.0, 0.0, 0.0, 0.0, 0.0, 1.663590499679009E9, 0.0, 2022-09-19 17:28:19.679
136.0, -7207.118833913664, 3920.518329205314, -25732.825783827997, -35359.69976898429, -187500.02235174447, -187500.02235174447, -5502.351284307395, -14553.98077416191, 0.632, -0.782, 0.124, 192.0, 0.0, 0.0, 0.0, 0.0, 0.0, 0.0, 0.0, 0.0, 0.0, 1.6635904996831024E9, 0.0, 2022-09-19 17:28:19.683
137.0, -7239.774732562868, 3946.513408006836, -25814.63316853442, -35320.80773363206, -187500.02235174447, -187500.02235174447, -5537.8905579913335, -14615.738644091922, 0.632, -0.782, 0.124, 192.0, 0.0, 0.0, 0.0, 0.0, 0.0, 0.0, 0.0, 0.0, 0.0, 1.6635904996870525E9, 0.0, 2022-09-19 17:28:19.687
138.0, -7269.279035243873, 3968.4181175730373, -25848.60782010649, -35294.61148913044, -187500.02235174447, -187500.02235174447, -5559.817619301989, -14657.983441112452, 0.632, -0.782, 0.124, 192.0, 0.0, 0.0, 0.0, 0.0, 0.0, 0.0, 0.0, 0.0, 0.0, 1.6635904996900554E9, 0.0, 2022-09-19 17:28:19.690
139.0, -7251.040011768343, 3982.0973851796853, -25762.41949348682, -35312.47053295023, -187500.02235174447, -187500.02235174447, -5514.845909457911, -14605.903876531587, 0.63, -0.784, 0.122, 192.0, 19.0, 176.0, 231.0, 128.0, 3.0, 208.0, 0.0, 0.0, 0.0, 1.663590499694054E9, 0.0, 2022-09-19 17:28:19.694
140.0, -7209.935153715033, 4000.0458359772965, -25718.386556909867, -35330.41898374784, -187500.02235174447, -187500.02235174447, -5477.362034006362, -14568.151780146574, 0.63, -0.784, 0.122, 192.0, 0.0, 0.0, 0.0, 0.0, 0.0, 0.0, 0.0, 0.0, 0.0, 1.6635904996980755E9, 0.0, 2022-09-19 17:28:19.698
141.0, -7174.150010842087, 4021.391751932115, -25742.749958366152, -35322.99820458868, -187500.02235174447, -187500.02235174447, -5469.9412548472, -14592.649292069591, 0.63, -0.784, 0.122, 192.0, 0.0, 0.0, 0.0, 0.0, 0.0, 0.0, 0.0, 0.0, 0.0, 1.663590499702098E9, 0.0, 2022-09-19 17:28:19.702
142.0, -7190.891467439112, 4039.2731474963607, -25834.41446237737, -35285.715494837226, -187500.02235174447, -187500.02235174447, -5488.448499256194, -14659.860987646698, 0.63, -0.784, 0.122, 192.0, 0.0, 0.0, 0.0, 0.0, 0.0, 0.0, 0.0, 0.0, 0.0, 1.6635904997060883E9, 0.0, 2022-09-19 17:28:19.706
143.0, -7224.8884707556335, 4051.5666069467793, -25852.362913174977, -35258.245200901656, -187500.02235174447, -187500.02235174447, -5504.742920964113, -14688.739441482956, 0.63, -0.784, 0.122, 192.0, 0.0, 0.0, 0.0, 0.0, 0.0, 0.0, 0.0, 0.0, 0.0, 1.6635904997110937E9, 0.0, 2022-09-19 17:28:19.711
144.0, -7201.910877455578, 4061.8484093962206, -25758.99967658516, -35274.450215631754, -187500.02235174447, -187500.02235174447, -5474.74687990509, -14592.515181602857, 0.63, -0.784, 0.122, 192.0, 0.0, 0.0, 0.0, 0.0, 0.0, 0.0, 0.0, 0.0, 0.0, 1.6635904997151752E9, 0.0, 2022-09-19 17:28:19.715
145.0, -7170.4172695180505, 4074.9241799025754, -25710.004652739128, -35291.97398328471, -187500.02235174447, -187500.02235174447, -5435.072533496921, -14533.439521007482, 0.63, -0.784, 0.122, 192.0, 0.0, 0.0, 0.0, 0.0, 0.0, 0.0, 0.0, 0.0, 0.0, 1.6635904997181673E9, 0.0, 2022-09-19 17:28:19.718
146.0, -7163.84585664819, 4095.4654330570024, -25726.120260491403, -35285.156701225846, -187500.02235174447, -187500.02235174447, -5419.828643778401, -14551.969117160932, 0.63, -0.784, 0.122, 192.0, 0.0, 0.0, 0.0, 0.0, 0.0, 0.0, 0.0, 0.0, 0.0, 1.6635904997221017E9, 0.0, 2022-09-19 17:28:19.722
147.0, -7185.907028425579, 4116.8560525007315, -25806.407726574867, -35248.63395078587, -187500.02235174447, -187500.02235174447, -5446.69544061368, -14616.31978944776, 0.63, -0.784, 0.122, 192.0, 0.0, 0.0, 0.0, 0.0, 0.0, 0.0, 0.0, 0.0, 0.0, 1.6635904997261033E9, 0.0, 2022-09-19 17:28:19.726
148.0, -7215.6124968066815, 4129.685953818078, -25843.82454679305, -35220.42604928328, -187500.02235174447, -187500.02235174447, -5473.919865360244, -14648.014563085386, 0.63, -0.784, 0.122, 192.0, 0.0, 0.0, 0.0, 0.0, 0.0, 0.0, 0.0, 0.0, 0.0, 1.6635904997301319E9, 0.0, 2022-09-19 17:28:19.730
149.0, -7194.579505274237, 4146.539169137379, -25763.984115598694, -35236.36284307991, -187500.02235174447, -187500.02235174447, -5445.175521990719, -14583.6415390541, 0.632, -0.78, 0.124, 192.0, 19.0, 192.0, 231.0, 160.0, 3.0, 224.0, 0.0, 0.0, 0.0, 1.6635904997341824E9, 0.0, 2022-09-19 17:28:19.734
150.0, -7163.51058048136, 4164.219399001527, -25721.13582147787, -35255.227715400186, -187500.02235174447, -187500.02235174447, -5418.64400132227, -14542.313163556239, 0.632, -0.78, 0.124, 192.0, 0.0, 0.0, 0.0, 0.0, 0.0, 0.0, 0.0, 0.0, 0.0, 1.663590499740132E9, 0.0, 2022-09-19 17:28:19.740
151.0, -7166.79628691629, 4183.77717539992, -25746.43799620128, -35250.10916591992, -187500.02235174447, -187500.02235174447, -5408.272791895008, -14574.767896505344, 0.632, -0.78, 0.124, 192.0, 0.0, 0.0, 0.0, 0.0, 0.0, 0.0, 0.0, 0.0, 0.0, 1.663590499743157E9, 0.0, 2022-09-19 17:28:19.743
152.0, -7196.904086697589, 4197.612905217756, -25815.460183079267, -35210.8595026564, -187500.02235174447, -187500.02235174447, -5422.086169968387, -14627.987400053431, 0.632, -0.78, 0.124, 192.0, 0.0, 0.0, 0.0, 0.0, 0.0, 0.0, 0.0, 0.0, 0.0, 1.6635904997472453E9, 0.0, 2022-09-19 17:28:19.747
153.0, -7224.039104466332, 4216.678943238133, -25839.957695002282, -35175.588449905925, -187500.02235174447, -187500.02235174447, -5435.519568386027, -14653.781313154856, 0.632, -0.78, 0.124, 192.0, 0.0, 0.0, 0.0, 0.0, 0.0, 0.0, 0.0, 0.0, 0.0, 1.6635904997501264E9, 0.0, 2022-09-19 17:28:19.750
154.0, -7210.762168259879, 4224.345591586303, -25769.348534267967, -35191.72640940266, -187500.02235174447, -187500.02235174447, -5400.740254013569, -14611.469460900958, 0.632, -0.78, 0.124, 192.0, 0.0, 0.0, 0.0, 0.0, 0.0, 0.0, 0.0, 0.0, 0.0, 1.663590499754165E9, 0.0, 2022-09-19 17:28:19.754
155.0, -7173.926493397534, 4234.850911480297, -25704.304957903023, -35208.333755532956, -187500.02235174447, -187500.02235174447, -5353.555721468416, -14595.867943271154, 0.632, -0.78, 0.124, 192.0, 0.0, 0.0, 0.0, 0.0, 0.0, 0.0, 0.0, 0.0, 0.0, 1.66359049975818E9, 0.0, 2022-09-19 17:28:19.758
156.0, -7154.167551299042, 4250.988870977029, -25724.75680407963, -35196.084999571445, -187500.02235174447, -187500.02235174447, -5355.075640091377, -14579.327652374228, 0.632, -0.78, 0.124, 192.0, 0.0, 0.0, 0.0, 0.0, 0.0, 0.0, 0.0, 0.0, 0.0, 1.6635904997622344E9, 0.0, 2022-09-19 17:28:19.762
157.0, -7173.814734675257, 4269.876095041764, -25813.58263654502, -35156.99179851911, -187500.02235174447, -187500.02235174447, -5378.410861302717, -14641.152577537607, 0.632, -0.78, 0.124, 192.0, 0.0, 0.0, 0.0, 0.0, 0.0, 0.0, 0.0, 0.0, 0.0, 1.6635904997671573E9, 0.0, 2022-09-19 17:28:19.767
158.0, -7207.118833913664, 4288.830374339864, -25844.606857848987, -35122.63716729131, -187500.02235174447, -187500.02235174447, -5396.940457456167, -14682.793877457843, 0.632, -0.78, 0.124, 192.0, 0.0, 0.0, 0.0, 0.0, 0.0, 0.0, 0.0, 0.0, 0.0, 1.663590499771244E9, 0.0, 2022-09-19 17:28:19.771
159.0, -7193.774842473847, 4299.983894823062, -25757.72562715121, -35134.90827499727, -187500.02235174447, -187500.02235174447, -5362.921102395189, -14618.376149937649, 0.634, -0.782, 0.122, 192.0, 19.0, 208.0, 231.0, 144.0, 3.0, 208.0, 0.0, 0.0, 0.0, 1.6635904997742436E9, 0.0, 2022-09-19 17:28:19.774
160.0, -7151.932376853511, 4310.355104250325, -25712.932731262772, -35156.61181886337, -187500.02235174447, -187500.02235174447, -5338.244776516531, -14564.240224866895, 0.634, -0.782, 0.122, 192.0, 0.0, 0.0, 0.0, 0.0, 0.0, 0.0, 0.0, 0.0, 0.0, 1.6635904997782276E9, 0.0, 2022-09-19 17:28:19.778
161.0, -7148.892539607589, 4323.386171267769, -25740.2242112427, -35153.080243239434, -187500.02235174447, -187500.02235174447, -5321.749189108514, -14584.446201854493, 0.634, -0.782, 0.122, 192.0, 0.0, 0.0, 0.0, 0.0, 0.0, 0.0, 0.0, 0.0, 0.0, 1.6635904997822082E9, 0.0, 2022-09-19 17:28:19.782
162.0, -7173.837086419712, 4342.072229632406, -25800.126886382925, -35117.630376533314, -187500.02235174447, -187500.02235174447, -5327.337125222341, -14659.011621357397, 0.634, -0.782, 0.122, 192.0, 0.0, 0.0, 0.0, 0.0, 0.0, 0.0, 0.0, 0.0, 0.0, 1.6635904997862167E9, 0.0, 2022-09-19 17:28:19.786
163.0, -7204.503679812394, 4363.57460779841, -25824.91497098386, -35085.80149242896, -187500.02235174447, -187500.02235174447, -5342.089276562843, -14671.372136041182, 0.634, -0.782, 0.122, 192.0, 0.0, 0.0, 0.0, 0.0, 0.0, 0.0, 0.0, 0.0, 0.0, 1.663590499790229E9, 0.0, 2022-09-19 17:28:19.790
164.0, -7195.697092497003, 4380.539581839988, -25744.269876989114, -35102.1853211147, -187500.02235174447, -187500.02235174447, -5318.932869307145, -14609.927190533543, 0.634, -0.782, 0.122, 192.0, 0.0, 0.0, 0.0, 0.0, 0.0, 0.0, 0.0, 0.0, 0.0, 1.6635904997952247E9, 0.0, 2022-09-19 17:28:19.795
165.0, -7161.3201095247405, 4393.414186646246, -25691.475056585678, -35127.353385371374, -187500.02235174447, -187500.02235174447, -5283.259485156475, -14534.579459974702, 0.634, -0.782, 0.122, 192.0, 0.0, 0.0, 0.0, 0.0, 0.0, 0.0, 0.0, 0.0, 0.0, 1.66359049979926E9, 0.0, 2022-09-19 17:28:19.799
166.0, -7146.992641328889, 4415.765931101552, -25708.462382371712, -35127.62160630484, -187500.02235174447, -187500.02235174447, -5267.456801826573, -14551.49973052737, 0.634, -0.782, 0.122, 192.0, 0.0, 0.0, 0.0, 0.0, 0.0, 0.0, 0.0, 0.0, 0.0, 1.6635904998022628E9, 0.0, 2022-09-19 17:28:19.802
167.0, -7168.383260772617, 4443.482094226133, -25784.19009258629, -35097.7373239681, -187500.02235174447, -187500.02235174447, -5290.076767215343, -14614.621056869157, 0.634, -0.782, 0.122, 192.0, 0.0, 0.0, 0.0, 0.0, 0.0, 0.0, 0.0, 0.0, 0.0, 1.6635904998062453E9, 0.0, 2022-09-19 17:28:19.806
168.0, -7206.917668213567, 4466.973777648661, -25819.97523545924, -35074.33504752339, -187500.02235174447, -187500.02235174447, -5301.587915609827, -14657.42464750107, 0.634, -0.782, 0.122, 192.0, 0.0, 0.0, 0.0, 0.0, 0.0, 0.0, 0.0, 0.0, 0.0, 1.663590499810217E9, 0.0, 2022-09-19 17:28:19.810
169.0, -7201.732063499936, 4480.809507466496, -25734.055129773038, -35095.032762889, -187500.02235174447, -187500.02235174447, -5274.832877496824, -14589.40828912357, 0.634, -0.782, 0.122, 192.0, 0.0, 0.0, 0.0, 0.0, 0.0, 0.0, 0.0, 0.0, 0.0, 1.6635904998142984E9, 0.0, 2022-09-19 17:28:19.814
170.0, -7162.482400236417, 4496.813356496496, -25671.067913897983, -35121.31841436844, -187500.02235174447, -187500.02235174447, -5237.326650300819, -14525.012913347831, 0.642, -0.782, 0.13, 192.0, 20.0, 16.0, 231.0, 144.0, 4.0, 16.0, 0.0, 0.0, 0.0, 1.6635904998183024E9, 0.0, 2022-09-19 17:28:19.818
171.0, -7133.134559766599, 4519.343914907446, -25676.92407094527, -35124.40295510327, -187500.02235174447, -187500.02235174447, -5215.824272134813, -14524.074140080707, 0.642, -0.782, 0.13, 192.0, 0.0, 0.0, 0.0, 0.0, 0.0, 0.0, 0.0, 0.0, 0.0, 1.6635904998222828E9, 0.0, 2022-09-19 17:28:19.822
172.0, -7159.46491473495, 4539.058153517027, -25749.544888680564, -35094.96570765563, -187500.02235174447, -187500.02235174447, -5233.191577576587, -14576.533684317314, 0.642, -0.782, 0.13, 192.0, 0.0, 0.0, 0.0, 0.0, 0.0, 0.0, 0.0, 0.0, 0.0, 1.663590499827302E9, 0.0, 2022-09-19 17:28:19.827
173.0, -7197.909915198078, 4554.212636257725, -25792.25907233466, -35069.90940212124, -187500.02235174447, -187500.02235174447, -5248.614281250749, -14626.08750177473, 0.642, -0.782, 0.13, 192.0, 0.0, 0.0, 0.0, 0.0, 0.0, 0.0, 0.0, 0.0, 0.0, 1.6635904998303654E9, 0.0, 2022-09-19 17:28:19.830
174.0, -7177.614531232659, 4569.612988187431, -25704.03673696956, -35092.395257043274, -187500.02235174447, -187500.02235174447, -5213.343228500275, -14584.110925687663, 0.642, -0.782, 0.13, 192.0, 0.0, 0.0, 0.0, 0.0, 0.0, 0.0, 0.0, 0.0, 0.0, 1.6635904998343887E9, 0.0, 2022-09-19 17:28:19.834
175.0, -7140.443580203483, 4584.767470928129, -25629.605427933388, -35118.1891701447, -187500.02235174447, -187500.02235174447, -5163.655300576127, -14532.031361106798, 0.642, -0.782, 0.13, 192.0, 0.0, 0.0, 0.0, 0.0, 0.0, 0.0, 0.0, 0.0, 0.0, 1.6635904998383424E9, 0.0, 2022-09-19 17:28:19.838
176.0, -7133.894519078079, 4596.971523400727, -25652.247745066616, -35123.46418183615, -187500.02235174447, -187500.02235174447, -5150.311309136308, -14538.40160827656, 0.642, -0.782, 0.13, 192.0, 0.0, 0.0, 0.0, 0.0, 0.0, 0.0, 0.0, 0.0, 0.0, 1.6635904998423307E9, 0.0, 2022-09-19 17:28:19.842
177.0, -7154.167551299042, 4614.696456753785, -25723.706272090232, -35098.09495187938, -187500.02235174447, -187500.02235174447, -5171.500762879939, -14600.159478206573, 0.642, -0.782, 0.13, 192.0, 0.0, 0.0, 0.0, 0.0, 0.0, 0.0, 0.0, 0.0, 0.0, 1.6635904998464549E9, 0.0, 2022-09-19 17:28:19.846
178.0, -7183.940074913511, 4632.913128484861, -25754.99871432766, -35073.262163789535, -187500.02235174447, -187500.02235174447, -5176.462850149018, -14646.89697586262, 0.642, -0.782, 0.13, 192.0, 0.0, 0.0, 0.0, 0.0, 0.0, 0.0, 0.0, 0.0, 0.0, 1.6635904998503044E9, 0.0, 2022-09-19 17:28:19.850
179.0, -7153.899330365579, 4648.849922281494, -25673.861881954897, -35096.99971640107, -187500.02235174447, -187500.02235174447, -5145.662146289605, -14578.45593434047, 0.642, -0.782, 0.13, 192.0, 0.0, 0.0, 0.0, 0.0, 0.0, 0.0, 0.0, 0.0, 0.0, 1.663590499854354E9, 0.0, 2022-09-19 17:28:19.854
180.0, -7105.9771902534, 4661.21043696528, -25616.93198882723, -35128.560379571965, -187500.02235174447, -187500.02235174447, -5113.319172062776, -14547.387009547594, 0.644, -0.78, 0.13, 192.0, 20.0, 32.0, 231.0, 160.0, 4.0, 16.0, 0.0, 0.0, 0.0, 1.6635904998573523E9, 0.0, 2022-09-19 17:28:19.857
181.0, -7095.091890703666, 4672.363957448478, -25628.554895943988, -35137.09874595389, -187500.02235174447, -187500.02235174447, -5091.503869474396, -14570.722230758935, 0.644, -0.78, 0.13, 192.0, 0.0, 0.0, 0.0, 0.0, 0.0, 0.0, 0.0, 0.0, 0.0, 1.6635904998623953E9, 0.0, 2022-09-19 17:28:19.862
182.0, -7115.364922924629, 4685.506783188198, -25701.913321246306, -35115.28344336551, -187500.02235174447, -187500.02235174447, -5103.707921946993, -14627.60742039769, 0.644, -0.78, 0.13, 192.0, 0.0, 0.0, 0.0, 0.0, 0.0, 0.0, 0.0, 0.0, 0.0, 1.6635904998663473E9, 0.0, 2022-09-19 17:28:19.866
183.0, -7139.4824551919055, 4697.844946127528, -25741.408853698835, -35091.12120760932, -187500.02235174447, -187500.02235174447, -5124.115064634689, -14654.09423757723, 0.644, -0.78, 0.13, 192.0, 0.0, 0.0, 0.0, 0.0, 0.0, 0.0, 0.0, 0.0, 0.0, 1.663590499870382E9, 0.0, 2022-09-19 17:28:19.870
184.0, -7123.74682709537, 4705.958629364804, -25653.588849733933, -35112.86945496433, -187500.02235174447, -187500.02235174447, -5085.401843238097, -14589.587103079213, 0.644, -0.78, 0.13, 192.0, 0.0, 0.0, 0.0, 0.0, 0.0, 0.0, 0.0, 0.0, 0.0, 1.6635904998743439E9, 0.0, 2022-09-19 17:28:19.874
185.0, -7087.268780144308, 4719.369676037989, -25588.031183246516, -35143.67015882375, -187500.02235174447, -187500.02235174447, -5037.502054870374, -14538.73688444339, 0.644, -0.78, 0.13, 192.0, 0.0, 0.0, 0.0, 0.0, 0.0, 0.0, 0.0, 0.0, 0.0, 1.6635904998784833E9, 0.0, 2022-09-19 17:28:19.878
186.0, -7064.49235254435, 4740.425019314887, -25596.480142650624, -35151.29210368301, -187500.02235174447, -187500.02235174447, -5026.527348342818, -14556.372410818627, 0.644, -0.78, 0.13, 192.0, 0.0, 0.0, 0.0, 0.0, 0.0, 0.0, 0.0, 0.0, 0.0, 1.663590499882412E9, 0.0, 2022-09-19 17:28:19.882
187.0, -7076.942274205956, 4762.575598070097, -25671.112617386894, -35127.845123749394, -187500.02235174447, -187500.02235174447, -5048.163836975556, -14623.56175465128, 0.644, -0.78, 0.13, 192.0, 0.0, 0.0, 0.0, 0.0, 0.0, 0.0, 0.0, 0.0, 0.0, 1.6635904998854187E9, 0.0, 2022-09-19 17:28:19.885
188.0, -7111.3639606671295, 4781.842801790572, -25722.56633312301, -35101.24654784758, -187500.02235174447, -187500.02235174447, -5077.511677445374, -14656.351763767216, 0.644, -0.78, 0.13, 192.0, 0.0, 0.0, 0.0, 0.0, 0.0, 0.0, 0.0, 0.0, 0.0, 1.6635904998914163E9, 0.0, 2022-09-19 17:28:19.891
189.0, -7116.258992702841, 4793.756281585251, -25642.41297750628, -35128.02393770504, -187500.02235174447, -187500.02235174447, -5037.993793248391, -14616.789176081322, 0.644, -0.78, 0.13, 192.0, 0.0, 0.0, 0.0, 0.0, 0.0, 0.0, 0.0, 0.0, 0.0, 1.6635904998944335E9, 0.0, 2022-09-19 17:28:19.894
190.0, -7084.698329531948, 4817.113854541047, -25582.286784921504, -35162.22210672165, -187500.02235174447, -187500.02235174447, -4992.686807237484, -14563.972003933432, 0.642, -0.782, 0.126, 192.0, 20.0, 16.0, 231.0, 144.0, 3.0, 240.0, 0.0, 0.0, 0.0, 1.6635904998984313E9, 0.0, 2022-09-19 17:28:19.898
191.0, -7059.597320508638, 4845.031183365725, -25582.622061088332, -35172.90624057129, -187500.02235174447, -187500.02235174447, -4987.657664735039, -14548.705762470456, 0.642, -0.782, 0.126, 192.0, 0.0, 0.0, 0.0, 0.0, 0.0, 0.0, 0.0, 0.0, 0.0, 1.6635904999024365E9, 0.0, 2022-09-19 17:28:19.902
192.0, -7073.701271259937, 4864.2983870862, -25656.807500935498, -35153.504926384085, -187500.02235174447, -187500.02235174447, -5000.733435241394, -14597.164344449562, 0.642, -0.782, 0.126, 192.0, 0.0, 0.0, 0.0, 0.0, 0.0, 0.0, 0.0, 0.0, 0.0, 1.6635904999064364E9, 0.0, 2022-09-19 17:28:19.906
193.0, -7108.145309465565, 4883.923218717959, -25701.890969501852, -35126.41461210425, -187500.02235174447, -187500.02235174447, -5018.771293016826, -14649.199205541518, 0.642, -0.782, 0.126, 192.0, 0.0, 0.0, 0.0, 0.0, 0.0, 0.0, 0.0, 0.0, 0.0, 1.6635904999094656E9, 0.0, 2022-09-19 17:28:19.909
194.0, -7096.835326771179, 4899.010646225292, -25623.346939485902, -35150.82271704945, -187500.02235174447, -187500.02235174447, -4983.209667588433, -14623.628809884645, 0.642, -0.782, 0.126, 192.0, 0.0, 0.0, 0.0, 0.0, 0.0, 0.0, 0.0, 0.0, 0.0, 1.6635904999134583E9, 0.0, 2022-09-19 17:28:19.913
195.0, -7047.192102335943, 4913.986315010347, -25545.898144948264, -35186.719618644674, -187500.02235174447, -187500.02235174447, -4915.595640611129, -14553.466684039437, 0.642, -0.782, 0.126, 192.0, 0.0, 0.0, 0.0, 0.0, 0.0, 0.0, 0.0, 0.0, 0.0, 1.6635904999174132E9, 0.0, 2022-09-19 17:28:19.917
196.0, -7033.3563725181075, 4925.408056427009, -25561.656124789253, -35201.96350836319, -187500.02235174447, -187500.02235174447, -4901.089358459635, -14558.317012586238, 0.642, -0.782, 0.126, 192.0, 0.0, 0.0, 0.0, 0.0, 0.0, 0.0, 0.0, 0.0, 0.0, 1.6635904999223964E9, 0.0, 2022-09-19 17:28:19.922
197.0, -7059.999651908834, 4931.934765807959, -25627.817288376962, -35186.63021166685, -187500.02235174447, -187500.02235174447, -4924.178710481967, -14603.333425919227, 0.642, -0.782, 0.126, 192.0, 0.0, 0.0, 0.0, 0.0, 0.0, 0.0, 0.0, 0.0, 0.0, 1.6635904999265504E9, 0.0, 2022-09-19 17:28:19.926
198.0, -7080.898532974546, 4950.866693361604, -25670.486768542145, -35163.31734219997, -187500.02235174447, -187500.02235174447, -4943.781190369272, -14664.465447004492, 0.642, -0.782, 0.126, 192.0, 0.0, 0.0, 0.0, 0.0, 0.0, 0.0, 0.0, 0.0, 0.0, 1.6635904999305186E9, 0.0, 2022-09-19 17:28:19.930
199.0, -7067.1075066456215, 4974.514838995318, -25600.01171827456, -35185.75849363309, -187500.02235174447, -187500.02235174447, -4916.914393533993, -14597.879600272132, 0.642, -0.782, 0.126, 192.0, 0.0, 0.0, 0.0, 0.0, 0.0, 0.0, 0.0, 0.0, 0.0, 1.663590499934542E9, 0.0, 2022-09-19 17:28:19.934
200.0, -7026.852014881613, 5003.929734698503, -25520.260694058026, -35220.85073242793, -187500.02235174447, -187500.02235174447, -4867.293520843211, -14527.44925349346, 0.64, -0.784, 0.11800000000000001, 192.0, 20.0, 0.0, 231.0, 128.0, 3.0, 176.0, 0.0, 0.0, 0.0, 1.6635904999384353E9, 0.0, 2022-09-19 17:28:19.938
201.0, -7003.449738436907, 5030.461255366952, -25532.308284319435, -35232.74186047815, -187500.02235174447, -187500.02235174447, -4859.850389939594, -14525.728169170401, 0.64, -0.784, 0.11800000000000001, 192.0, 0.0, 0.0, 0.0, 0.0, 0.0, 0.0, 0.0, 0.0, 0.0, 1.6635904999415464E9, 0.0, 2022-09-19 17:28:19.941
202.0, -7003.740311114826, 5058.311528958265, -25601.86691306435, -35213.72052594668, -187500.02235174447, -187500.02235174447, -4890.002893209803, -14588.245998411894, 0.64, -0.784, 0.11800000000000001, 192.0, 0.0, 0.0, 0.0, 0.0, 0.0, 0.0, 0.0, 0.0, 0.0, 1.6635904999455192E9, 0.0, 2022-09-19 17:28:19.945
203.0, -7024.661543924993, 5078.293988501309, -25655.086416612437, -35193.067514069975, -187500.02235174447, -187500.02235174447, -4926.056257016213, -14670.925101152076, 0.64, -0.784, 0.11800000000000001, 192.0, 0.0, 0.0, 0.0, 0.0, 0.0, 0.0, 0.0, 0.0, 0.0, 1.6635904999495552E9, 0.0, 2022-09-19 17:28:19.949
204.0, -7012.725712385859, 5092.375587508152, -25581.035087232005, -35215.28514805855, -187500.02235174447, -187500.02235174447, -4908.264268429789, -14620.074882516252, 0.64, -0.784, 0.11800000000000001, 192.0, 0.0, 0.0, 0.0, 0.0, 0.0, 0.0, 0.0, 0.0, 0.0, 1.6635904999545472E9, 0.0, 2022-09-19 17:28:19.954
205.0, -6972.827848533136, 5105.741930692427, -25508.973063108097, -35249.282151375075, -187500.02235174447, -187500.02235174447, -4841.633718208518, -14563.189692877495, 0.64, -0.784, 0.11800000000000001, 192.0, 0.0, 0.0, 0.0, 0.0, 0.0, 0.0, 0.0, 0.0, 0.0, 1.663590499958578E9, 0.0, 2022-09-19 17:28:19.958
206.0, -6955.304080880175, 5120.248212843921, -25508.39191775226, -35261.35209338094, -187500.02235174447, -187500.02235174447, -4794.493889152275, -14568.710573757957, 0.64, -0.784, 0.11800000000000001, 192.0, 0.0, 0.0, 0.0, 0.0, 0.0, 0.0, 0.0, 0.0, 0.0, 1.6635904999625716E9, 0.0, 2022-09-19 17:28:19.962
207.0, -6962.121362939044, 5140.9682799539905, -25581.660936076754, -35242.26370361611, -187500.02235174447, -187500.02235174447, -4814.521052184231, -14611.111832989674, 0.64, -0.784, 0.11800000000000001, 192.0, 0.0, 0.0, 0.0, 0.0, 0.0, 0.0, 0.0, 0.0, 0.0, 1.6635904999655664E9, 0.0, 2022-09-19 17:28:19.965
208.0, -6993.346749943108, 5156.122762694688, -25639.149622815803, -35216.38038353687, -187500.02235174447, -187500.02235174447, -4824.601688933574, -14657.514054478892, 0.64, -0.784, 0.11800000000000001, 192.0, 0.0, 0.0, 0.0, 0.0, 0.0, 0.0, 0.0, 0.0, 0.0, 1.6635904999695268E9, 0.0, 2022-09-19 17:28:19.969
209.0, -6989.502249896795, 5167.566855855805, -25553.900069463263, -35238.06157565851, -187500.02235174447, -187500.02235174447, -4785.486136136787, -14591.487001357915, 0.64, -0.784, 0.11800000000000001, 192.0, 0.0, 0.0, 0.0, 0.0, 0.0, 0.0, 0.0, 0.0, 0.0, 1.6635904999735582E9, 0.0, 2022-09-19 17:28:19.973
210.0, -6948.017412187745, 5182.40841417413, -25473.590251635345, -35272.93029700879, -187500.02235174447, -187500.02235174447, -4747.5105223072205, -14525.929334870498, 0.638, -0.786, 0.11800000000000001, 192.0, 19.0, 240.0, 231.0, 112.0, 3.0, 176.0, 0.0, 0.0, 0.0, 1.6635904999785488E9, 0.0, 2022-09-19 17:28:19.978
211.0, -6927.945545666879, 5196.378254458697, -25487.67185064219, -35289.15766348334, -187500.02235174447, -187500.02235174447, -4740.067391403602, -14518.463852222427, 0.638, -0.786, 0.11800000000000001, 192.0, 0.0, 0.0, 0.0, 0.0, 0.0, 0.0, 0.0, 0.0, 0.0, 1.663590499982524E9, 0.0, 2022-09-19 17:28:19.982
212.0, -6941.0883714066, 5211.063350565833, -25560.918517222228, -35274.27140167611, -187500.02235174447, -187500.02235174447, -4757.412345100921, -14576.019594194842, 0.638, -0.786, 0.11800000000000001, 192.0, 0.0, 0.0, 0.0, 0.0, 0.0, 0.0, 0.0, 0.0, 0.0, 1.6635904999865952E9, 0.0, 2022-09-19 17:28:19.986
213.0, -6979.689834080915, 5230.46466475304, -25605.800820088487, -35251.092642675954, -187500.02235174447, -187500.02235174447, -4776.813659288127, -14626.020446541364, 0.638, -0.786, 0.11800000000000001, 192.0, 0.0, 0.0, 0.0, 0.0, 0.0, 0.0, 0.0, 0.0, 0.0, 1.663590499991594E9, 0.0, 2022-09-19 17:28:19.991
214.0, -6967.597540330594, 5247.0943626277885, -25522.987606881572, -35273.064407475526, -187500.02235174447, -187500.02235174447, -4739.620356514497, -14572.845646482188, 0.638, -0.786, 0.11800000000000001, 192.0, 0.0, 0.0, 0.0, 0.0, 0.0, 0.0, 0.0, 0.0, 0.0, 1.6635904999955895E9, 0.0, 2022-09-19 17:28:19.995
215.0, -6925.442150287885, 5262.718232002048, -25463.59902186382, -35308.51427418164, -187500.02235174447, -187500.02235174447, -4707.255030543212, -14516.765119643822, 0.638, -0.786, 0.11800000000000001, 192.0, 0.0, 0.0, 0.0, 0.0, 0.0, 0.0, 0.0, 0.0, 0.0, 1.663590499998548E9, 0.0, 2022-09-19 17:28:19.998
216.0, -6904.207993055344, 5281.560752577871, -25473.299678957424, -35322.059431321555, -187500.02235174447, -187500.02235174447, -4699.78954789514, -14508.584381173181, 0.638, -0.786, 0.11800000000000001, 192.0, 0.0, 0.0, 0.0, 0.0, 0.0, 0.0, 0.0, 0.0, 0.0, 1.6635905000016785E9, 0.0, 2022-09-19 17:28:20.001
217.0, -6925.84448168808, 5294.591819595315, -25540.06433964543, -35306.16734101383, -187500.02235174447, -187500.02235174447, -4708.439672999343, -14549.912756671043, 0.638, -0.786, 0.11800000000000001, 192.0, 0.0, 0.0, 0.0, 0.0, 0.0, 0.0, 0.0, 0.0, 0.0, 1.6635905000056248E9, 0.0, 2022-09-19 17:28:20.005
218.0, -6963.149543183988, 5306.326485434352, -25578.643450575288, -35280.462834890226, -187500.02235174447, -187500.02235174447, -4700.3259897620665, -14577.78538200681, 0.638, -0.786, 0.11800000000000001, 192.0, 0.0, 0.0, 0.0, 0.0, 0.0, 0.0, 0.0, 0.0, 0.0, 1.663590500010615E9, 0.0, 2022-09-19 17:28:20.010
219.0, -6957.248682647787, 5314.484872160539, -25497.260749013516, -35299.99825954417, -187500.02235174447, -187500.02235174447, -4659.131724730936, -14536.278192553305, 0.638, -0.786, 0.11800000000000001, 192.0, 0.0, 0.0, 0.0, 0.0, 0.0, 0.0, 0.0, 0.0, 0.0, 1.6635905000145893E9, 0.0, 2022-09-19 17:28:20.014
220.0, -6923.072865375622, 5322.576203653361, -25421.667149265668, -35337.25861755117, -187500.02235174447, -187500.02235174447, -4615.791692232096, -14466.227825430373, 0.64, -0.782, 0.124, 192.0, 20.0, 0.0, 231.0, 144.0, 3.0, 224.0, 0.0, 0.0, 0.0, 1.6635905000186725E9, 0.0, 2022-09-19 17:28:20.018
221.0, -6898.4635947303295, 5334.601442170316, -25434.094719182816, -35354.223591592745, -187500.02235174447, -187500.02235174447, -4604.459357793255, -14445.57481355367, 0.64, -0.782, 0.124, 192.0, 0.0, 0.0, 0.0, 0.0, 0.0, 0.0, 0.0, 0.0, 0.0, 1.6635905000216491E9, 0.0, 2022-09-19 17:28:20.021
222.0, -6905.280876789198, 5350.717049922592, -25510.157705564226, -35342.555980987076, -187500.02235174447, -187500.02235174447, -4624.620631291942, -14484.086869250164, 0.64, -0.782, 0.124, 192.0, 0.0, 0.0, 0.0, 0.0, 0.0, 0.0, 0.0, 0.0, 0.0, 1.6635905000256376E9, 0.0, 2022-09-19 17:28:20.025
223.0, -6942.250662118276, 5371.995910644044, -25552.82718572941, -35321.65709992136, -187500.02235174447, -187500.02235174447, -4664.719660844763, -14531.629029706603, 0.64, -0.782, 0.124, 192.0, 0.0, 0.0, 0.0, 0.0, 0.0, 0.0, 0.0, 0.0, 0.0, 1.6635905000296724E9, 0.0, 2022-09-19 17:28:20.029
224.0, -6936.461560304351, 5390.391396330762, -25486.397801208237, -35343.27123680964, -187500.02235174447, -187500.02235174447, -4656.673032840852, -14486.992596029353, 0.64, -0.782, 0.124, 192.0, 0.0, 0.0, 0.0, 0.0, 0.0, 0.0, 0.0, 0.0, 0.0, 1.6635905000337677E9, 0.0, 2022-09-19 17:28:20.033
225.0, -6912.478138503807, 5398.840355734868, -25411.11712588276, -35381.04568493911, -187500.02235174447, -187500.02235174447, -4587.829659918507, -14461.131627694564, 0.64, -0.782, 0.124, 192.0, 0.0, 0.0, 0.0, 0.0, 0.0, 0.0, 0.0, 0.0, 0.0, 1.6635905000386052E9, 0.0, 2022-09-19 17:28:20.038
226.0, -6895.535516206684, 5413.950134986656, -25388.653622705177, -35397.09423745802, -187500.02235174447, -187500.02235174447, -4540.242795973158, -14445.686572275947, 0.64, -0.782, 0.124, 192.0, 0.0, 0.0, 0.0, 0.0, 0.0, 0.0, 0.0, 0.0, 0.0, 1.663590500042812E9, 0.0, 2022-09-19 17:28:20.042
227.0, -6919.183661840399, 5435.6983823416695, -25445.605867577302, -35384.75607451869, -187500.02235174447, -187500.02235174447, -4544.154351252836, -14497.363805456616, 0.64, -0.782, 0.124, 192.0, 0.0, 0.0, 0.0, 0.0, 0.0, 0.0, 0.0, 0.0, 0.0, 1.6635905000457115E9, 0.0, 2022-09-19 17:28:20.045
228.0, -6961.696679794393, 5452.663356383247, -25512.52699047649, -35362.33727483002, -187500.02235174447, -187500.02235174447, -4580.81121215954, -14536.904041398055, 0.64, -0.782, 0.124, 192.0, 0.0, 0.0, 0.0, 0.0, 0.0, 0.0, 0.0, 0.0, 0.0, 1.6635905000497167E9, 0.0, 2022-09-19 17:28:20.049
229.0, -6945.357554597564, 5463.883932099811, -25446.6563995667, -35383.504376829194, -187500.02235174447, -187500.02235174447, -4554.637319402375, -14501.163602014018, 0.64, -0.782, 0.124, 192.0, 0.0, 0.0, 0.0, 0.0, 0.0, 0.0, 0.0, 0.0, 0.0, 1.6635905000537343E9, 0.0, 2022-09-19 17:28:20.053
230.0, -6904.252696544254, 5469.807144380467, -25372.87329111973, -35420.29534820263, -187500.02235174447, -187500.02235174447, -4509.576202580476, -14450.201624655918, 0.642, -0.782, 0.122, 192.0, 20.0, 16.0, 231.0, 144.0, 3.0, 208.0, 0.0, 0.0, 0.0, 1.6635905000577583E9, 0.0, 2022-09-19 17:28:20.057
231.0, -6885.879562601992, 5482.346473019895, -25383.289204035904, -35433.39347045344, -187500.02235174447, -187500.02235174447, -4494.801699495519, -14459.09761894913, 0.642, -0.782, 0.122, 192.0, 0.0, 0.0, 0.0, 0.0, 0.0, 0.0, 0.0, 0.0, 0.0, 1.6635905000616963E9, 0.0, 2022-09-19 17:28:20.061
232.0, -6894.149708050455, 5501.390159295816, -25444.08594895434, -35416.652013856416, -187500.02235174447, -187500.02235174447, -4499.4508623422225, -14519.067349322719, 0.642, -0.782, 0.122, 192.0, 0.0, 0.0, 0.0, 0.0, 0.0, 0.0, 0.0, 0.0, 0.0, 1.6635905000666955E9, 0.0, 2022-09-19 17:28:20.066
233.0, -6922.312906064142, 5515.359999580383, -25514.09161258836, -35390.83574901053, -187500.02235174447, -187500.02235174447, -4523.367228909401, -14574.812599994255, 0.642, -0.782, 0.122, 192.0, 0.0, 0.0, 0.0, 0.0, 0.0, 0.0, 0.0, 0.0, 0.0, 1.6635905000707006E9, 0.0, 2022-09-19 17:28:20.070
234.0, -6916.993190883779, 5523.384275839839, -25441.716664042076, -35408.24775794122, -187500.02235174447, -187500.02235174447, -4508.302153146524, -14546.336477558194, 0.642, -0.782, 0.122, 192.0, 0.0, 0.0, 0.0, 0.0, 0.0, 0.0, 0.0, 0.0, 0.0, 1.663590500073723E9, 0.0, 2022-09-19 17:28:20.073
235.0, -6884.247885256754, 5536.080066690453, -25375.086113820806, -35440.74719437923, -187500.02235174447, -187500.02235174447, -4470.527705017055, -14478.09660173614, 0.642, -0.782, 0.122, 192.0, 0.0, 0.0, 0.0, 0.0, 0.0, 0.0, 0.0, 0.0, 0.0, 1.6635905000777063E9, 0.0, 2022-09-19 17:28:20.077
236.0, -6869.674547871894, 5552.57565409847, -25363.664372404146, -35451.028996828674, -187500.02235174447, -187500.02235174447, -4450.589948962921, -14458.538825337748, 0.642, -0.782, 0.122, 192.0, 0.0, 0.0, 0.0, 0.0, 0.0, 0.0, 0.0, 0.0, 0.0, 1.663590500081696E9, 0.0, 2022-09-19 17:28:20.081
237.0, -6892.227458027299, 5564.667947848791, -25425.265780122973, -35434.600464654024, -187500.02235174447, -187500.02235174447, -4461.721117701664, -14530.891422139577, 0.642, -0.782, 0.122, 192.0, 0.0, 0.0, 0.0, 0.0, 0.0, 0.0, 0.0, 0.0, 0.0, 1.6635905000857296E9, 0.0, 2022-09-19 17:28:20.085
238.0, -6937.109760893555, 5572.714575852701, -25491.80692336642, -35408.29246143013, -187500.02235174447, -187500.02235174447, -4489.437280826245, -14602.03702474082, 0.642, -0.782, 0.122, 192.0, 0.0, 0.0, 0.0, 0.0, 0.0, 0.0, 0.0, 0.0, 0.0, 1.6635905000896997E9, 0.0, 2022-09-19 17:28:20.089
239.0, -6948.531502310218, 5576.894352065844, -25425.578704545343, -35423.40224068192, -187500.02235174447, -187500.02235174447, -4467.64432998232, -14522.509517968836, 0.642, -0.782, 0.122, 192.0, 0.0, 0.0, 0.0, 0.0, 0.0, 0.0, 0.0, 0.0, 0.0, 1.6635905000937035E9, 0.0, 2022-09-19 17:28:20.093
240.0, -6909.080673346601, 5585.499773681137, -25345.96179079554, -35454.471165474795, -187500.02235174447, -187500.02235174447, -4419.319858469947, -14451.76624676779, 0.648, -0.788, 0.12, 192.0, 20.0, 64.0, 231.0, 96.0, 3.0, 192.0, 0.0, 0.0, 0.0, 1.6635905000988646E9, 0.0, 2022-09-19 17:28:20.098
241.0, -6881.275103244198, 5599.983704088176, -25347.906392563153, -35463.85889814603, -187500.02235174447, -187500.02235174447, -4396.498727381078, -14436.56706053818, 0.648, -0.788, 0.12, 192.0, 0.0, 0.0, 0.0, 0.0, 0.0, 0.0, 0.0, 0.0, 0.0, 1.6635905001018407E9, 0.0, 2022-09-19 17:28:20.101
242.0, -6888.450013214352, 5616.054608351542, -25402.77992520093, -35442.088299046554, -187500.02235174447, -187500.02235174447, -4414.983620045617, -14482.63400586057, 0.648, -0.788, 0.12, 192.0, 0.0, 0.0, 0.0, 0.0, 0.0, 0.0, 0.0, 0.0, 0.0, 1.6635905001057243E9, 0.0, 2022-09-19 17:28:20.105
243.0, -6919.317772307131, 5635.366515560927, -25463.97900151956, -35412.62869985446, -187500.02235174447, -187500.02235174447, -4444.68908842672, -14568.174131891028, 0.648, -0.788, 0.12, 192.0, 0.0, 0.0, 0.0, 0.0, 0.0, 0.0, 0.0, 0.0, 0.0, 1.6635905001097786E9, 0.0, 2022-09-19 17:28:20.109
244.0, -6919.183661840399, 5648.8893209563885, -25409.708965982078, -35427.04557502813, -187500.02235174447, -187500.02235174447, -4424.818387605952, -14514.30642775374, 0.648, -0.788, 0.12, 192.0, 0.0, 0.0, 0.0, 0.0, 0.0, 0.0, 0.0, 0.0, 0.0, 1.6635905001137767E9, 0.0, 2022-09-19 17:28:20.113
245.0, -6884.270237001209, 5663.999100208175, -25337.132851735696, -35459.18738355486, -187500.02235174447, -187500.02235174447, -4380.606637073354, -14439.495139061826, 0.648, -0.788, 0.12, 192.0, 0.0, 0.0, 0.0, 0.0, 0.0, 0.0, 0.0, 0.0, 0.0, 1.6635905001178184E9, 0.0, 2022-09-19 17:28:20.117
246.0, -6857.537550632662, 5684.652112084879, -25354.343694966283, -35470.0726831046, -187500.02235174447, -187500.02235174447, -4374.392852114779, -14437.841109972134, 0.648, -0.788, 0.12, 192.0, 0.0, 0.0, 0.0, 0.0, 0.0, 0.0, 0.0, 0.0, 0.0, 1.6635905001218367E9, 0.0, 2022-09-19 17:28:20.121
247.0, -6861.02442276769, 5707.607353640479, -25428.439727835623, -35447.765642138205, -187500.02235174447, -187500.02235174447, -4396.342265169891, -14486.523209395793, 0.648, -0.788, 0.12, 192.0, 0.0, 0.0, 0.0, 0.0, 0.0, 0.0, 0.0, 0.0, 0.0, 1.6635905001267917E9, 0.0, 2022-09-19 17:28:20.126
248.0, -6887.131260291489, 5736.195234798817, -25484.81082735191, -35410.81820855358, -187500.02235174447, -187500.02235174447, -4422.605564904877, -14538.982753632397, 0.648, -0.788, 0.12, 192.0, 0.0, 0.0, 0.0, 0.0, 0.0, 0.0, 0.0, 0.0, 0.0, 1.663590500129813E9, 0.0, 2022-09-19 17:28:20.129
249.0, -6889.612303926027, 5754.858941418999, -25415.341605584814, -35418.21663596829, -187500.02235174447, -187500.02235174447, -4394.710587824654, -14503.130555526086, 0.648, -0.788, 0.12, 192.0, 0.0, 0.0, 0.0, 0.0, 0.0, 0.0, 0.0, 0.0, 0.0, 1.663590500133773E9, 0.0, 2022-09-19 17:28:20.133
250.0, -6859.2586349557205, 5773.701461994822, -25339.59154362578, -35448.43619447186, -187500.02235174447, -187500.02235174447, -4348.286014590981, -14435.583583782147, 0.64, -0.784, 0.116, 192.0, 20.0, 0.0, 231.0, 128.0, 3.0, 160.0, 0.0, 0.0, 0.0, 1.6635905001378405E9, 0.0, 2022-09-19 17:28:20.137
251.0, -6848.887425528458, 5783.647988277435, -25352.15322400966, -35463.21069755682, -187500.02235174447, -187500.02235174447, -4337.288956318969, -14425.793519710724, 0.64, -0.784, 0.116, 192.0, 0.0, 0.0, 0.0, 0.0, 0.0, 0.0, 0.0, 0.0, 0.0, 1.663590500141823E9, 0.0, 2022-09-19 17:28:20.141
252.0, -6862.611396624017, 5801.663494308412, -25409.08311713733, -35446.46924095979, -187500.02235174447, -187500.02235174447, -4359.014851929528, -14481.047032004242, 0.64, -0.784, 0.116, 192.0, 0.0, 0.0, 0.0, 0.0, 0.0, 0.0, 0.0, 0.0, 0.0, 1.663590500145806E9, 0.0, 2022-09-19 17:28:20.145
253.0, -6896.563696451628, 5819.924869528398, -25457.005257249508, -35412.807513810105, -187500.02235174447, -187500.02235174447, -4375.711605037643, -14554.226643350918, 0.64, -0.784, 0.116, 192.0, 0.0, 0.0, 0.0, 0.0, 0.0, 0.0, 0.0, 0.0, 0.0, 1.6635905001497943E9, 0.0, 2022-09-19 17:28:20.149
254.0, -6889.522896948207, 5832.2630324677275, -25395.381497786224, -35421.70350810332, -187500.02235174447, -187500.02235174447, -4343.234520344081, -14507.19857301695, 0.64, -0.784, 0.116, 192.0, 0.0, 0.0, 0.0, 0.0, 0.0, 0.0, 0.0, 0.0, 0.0, 1.6635905001548524E9, 0.0, 2022-09-19 17:28:20.154
255.0, -6851.301413929631, 5845.5846721630905, -25322.87243877321, -35455.029959086176, -187500.02235174447, -187500.02235174447, -4300.140357034249, -14428.006342411798, 0.64, -0.784, 0.116, 192.0, 0.0, 0.0, 0.0, 0.0, 0.0, 0.0, 0.0, 0.0, 0.0, 1.6635905001578557E9, 0.0, 2022-09-19 17:28:20.157
0.0, -6833.375314876475, 5862.460239226847, -25320.927837005598, -35467.72574993679, -187500.02235174447, -187500.02235174447, -4291.445528441135, -14419.065644629676, 0.64, -0.784, 0.116, 192.0, 0.0, 0.0, 0.0, 0.0, 0.0, 0.0, 0.0, 0.0, 0.0, 1.6635905001618724E9, 0.0, 2022-09-19 17:28:20.161
1.0, -6838.896195756936, 5880.989835380296, -25371.174558541126, -35450.44785147284, -187500.02235174447, -187500.02235174447, -4307.874060615785, -14457.823569515178, 0.64, -0.784, 0.116, 192.0, 0.0, 0.0, 0.0, 0.0, 0.0, 0.0, 0.0, 0.0, 0.0, 1.6635905001659207E9, 0.0, 2022-09-19 17:28:20.165
2.0, -6879.889295087969, 5901.26286760126, -25424.528172555947, -35416.94258653434, -187500.02235174447, -187500.02235174447, -4327.744761436554, -14525.124672070107, 0.64, -0.784, 0.116, 192.0, 0.0, 0.0, 0.0, 0.0, 0.0, 0.0, 0.0, 0.0, 0.0, 1.6635905001698852E9, 0.0, 2022-09-19 17:28:20.169
3.0, -6882.102117789044, 5913.6233822850445, -25366.704209650066, -35425.592711638536, -187500.02235174447, -187500.02235174447, -4309.5057379610225, -14503.778756115289, 0.64, -0.784, 0.116, 192.0, 0.0, 0.0, 0.0, 0.0, 0.0, 0.0, 0.0, 0.0, 0.0, 1.6635905001738791E9, 0.0, 2022-09-19 17:28:20.173
4.0, -6836.772780033682, 5925.469806846358, -25302.86762748571, -35456.01343584221, -187500.02235174447, -187500.02235174447, -4280.627284124766, -14438.131682650053, 0.636, -0.782, 0.122, 192.0, 19.0, 224.0, 231.0, 144.0, 3.0, 208.0, 0.0, 0.0, 0.0, 1.663590500177951E9, 0.0, 2022-09-19 17:28:20.177
5.0, -6802.351093572509, 5945.474618133858, -25293.81517098131, -35465.20000281334, -187500.02235174447, -187500.02235174447, -4251.3912023772245, -14425.681760988446, 0.636, -0.782, 0.122, 192.0, 0.0, 0.0, 0.0, 0.0, 0.0, 0.0, 0.0, 0.0, 0.0, 1.6635905001829393E9, 0.0, 2022-09-19 17:28:20.182
6.0, -6803.111052883989, 5961.791391586232, -25347.146433251673, -35444.681101403374, -187500.02235174447, -187500.02235174447, -4259.37077514777, -14457.465941603894, 0.636, -0.782, 0.122, 192.0, 0.0, 0.0, 0.0, 0.0, 0.0, 0.0, 0.0, 0.0, 0.0, 1.6635905001859002E9, 0.0, 2022-09-19 17:28:20.185
7.0, -6836.661021311405, 5982.109127296106, -25395.090925108307, -35406.9066532739, -187500.02235174447, -187500.02235174447, -4278.36975793478, -14509.59020967367, 0.636, -0.782, 0.122, 192.0, 0.0, 0.0, 0.0, 0.0, 0.0, 0.0, 0.0, 0.0, 0.0, 1.6635905001888845E9, 0.0, 2022-09-19 17:28:20.188
8.0, -6840.013782979701, 5996.637761192055, -25338.362197680737, -35415.48972314474, -187500.02235174447, -187500.02235174447, -4252.598196577811, -14479.415354659004, 0.636, -0.782, 0.122, 192.0, 0.0, 0.0, 0.0, 0.0, 0.0, 0.0, 0.0, 0.0, 0.0, 1.6635905001939032E9, 0.0, 2022-09-19 17:28:20.193
9.0, -6805.972076174268, 6012.082816610672, -25260.980458376464, -35445.19519152584, -187500.02235174447, -187500.02235174447, -4205.145443099194, -14403.307664788685, 0.636, -0.782, 0.122, 192.0, 0.0, 0.0, 0.0, 0.0, 0.0, 0.0, 0.0, 0.0, 0.0, 1.6635905001979117E9, 0.0, 2022-09-19 17:28:20.197
10.0, -6781.429860762341, 6022.968116160407, -25265.29434505634, -35458.181555054376, -187500.02235174447, -187500.02235174447, -4188.314579524348, -14394.03169083973, 0.636, -0.782, 0.122, 192.0, 0.0, 0.0, 0.0, 0.0, 0.0, 0.0, 0.0, 0.0, 0.0, 1.6635905002019968E9, 0.0, 2022-09-19 17:28:20.201
11.0, -6783.86620090797, 6042.972927447907, -25317.26215091493, -35440.65778740142, -187500.02235174447, -187500.02235174447, -4196.607076717267, -14442.602031541113, 0.636, -0.782, 0.122, 192.0, 0.0, 0.0, 0.0, 0.0, 0.0, 0.0, 0.0, 0.0, 0.0, 1.6635905002059655E9, 0.0, 2022-09-19 17:28:20.205
12.0, -6820.1654339033885, 6067.135163204094, -25386.440800004104, -35410.37117366448, -187500.02235174447, -187500.02235174447, -4223.652687508188, -14515.379311487593, 0.636, -0.782, 0.122, 192.0, 0.0, 0.0, 0.0, 0.0, 0.0, 0.0, 0.0, 0.0, 0.0, 1.6635905002099693E9, 0.0, 2022-09-19 17:28:20.209
13.0, -6831.4307131088635, 6083.183715723004, -25322.58186609529, -35419.73655459125, -187500.02235174447, -187500.02235174447, -4201.502108752979, -14495.709776366923, 0.636, -0.782, 0.122, 192.0, 0.0, 0.0, 0.0, 0.0, 0.0, 0.0, 0.0, 0.0, 0.0, 1.6635905002129848E9, 0.0, 2022-09-19 17:28:20.212
14.0, -6810.084797154045, 6097.600590896677, -25252.24092629444, -35452.48186021827, -187500.02235174447, -187500.02235174447, -4149.422544172114, -14408.180345079942, 0.636, -0.782, 0.122, 192.0, 0.0, 0.0, 0.0, 0.0, 0.0, 0.0, 0.0, 0.0, 0.0, 1.6635905002169535E9, 0.0, 2022-09-19 17:28:20.216
15.0, -6801.099395883012, 6111.391617225602, -25233.04077780733, -35464.06006384612, -187500.02235174447, -187500.02235174447, -4124.142721193161, -14372.931644073922, 0.634, -0.784, 0.134, 192.0, 19.0, 208.0, 231.0, 128.0, 4.0, 48.0, 0.0, 0.0, 0.0, 1.6635905002220001E9, 0.0, 2022-09-19 17:28:20.222
16.0, -6817.371465846475, 6134.749190181397, -25278.638336496155, -35447.81034562711, -187500.02235174447, -187500.02235174447, -4136.704401577044, -14400.446641498405, 0.634, -0.784, 0.134, 192.0, 0.0, 0.0, 0.0, 0.0, 0.0, 0.0, 0.0, 0.0, 0.0, 1.6635905002259707E9, 0.0, 2022-09-19 17:28:20.225
17.0, -6851.8602075410145, 6159.939606182529, -25346.92291580712, -35415.7579440782, -187500.02235174447, -187500.02235174447, -4167.6839193921, -14464.8643690186, 0.634, -0.784, 0.134, 192.0, 0.0, 0.0, 0.0, 0.0, 0.0, 0.0, 0.0, 0.0, 0.0, 1.663590500229972E9, 0.0, 2022-09-19 17:28:20.229
18.0, -6849.066239484101, 6177.195152902026, -25302.979386207986, -35425.70447036081, -187500.02235174447, -187500.02235174447, -4160.531361166401, -14447.988801954843, 0.634, -0.784, 0.134, 192.0, 0.0, 0.0, 0.0, 0.0, 0.0, 0.0, 0.0, 0.0, 0.0, 1.6635905002340424E9, 0.0, 2022-09-19 17:28:20.234
19.0, -6808.408416319897, 6191.902600753618, -25224.927094570055, -35460.84141264456, -187500.02235174447, -187500.02235174447, -4120.521738591402, -14395.909237373977, 0.634, -0.784, 0.134, 192.0, 0.0, 0.0, 0.0, 0.0, 0.0, 0.0, 0.0, 0.0, 0.0, 1.6635905002381043E9, 0.0, 2022-09-19 17:28:20.238
20.0, -6772.735032169227, 6209.739292828953, -25212.99126303092, -35472.06198836112, -187500.02235174447, -187500.02235174447, -4088.1117091312067, -14378.765449376757, 0.634, -0.784, 0.134, 192.0, 0.0, 0.0, 0.0, 0.0, 0.0, 0.0, 0.0, 0.0, 0.0, 1.663590500241083E9, 0.0, 2022-09-19 17:28:20.241
21.0, -6772.287997280121, 6228.179482004582, -25269.38471429166, -35454.761738152716, -187500.02235174447, -187500.02235174447, -4088.067005642296, -14439.85276697311, 0.634, -0.784, 0.134, 192.0, 0.0, 0.0, 0.0, 0.0, 0.0, 0.0, 0.0, 0.0, 0.0, 1.6635905002450447E9, 0.0, 2022-09-19 17:28:20.245
22.0, -6809.72716924276, 6241.657583911131, -25342.74313959398, -35423.46929591528, -187500.02235174447, -187500.02235174447, -4106.931877962575, -14522.218945290917, 0.634, -0.784, 0.134, 192.0, 0.0, 0.0, 0.0, 0.0, 0.0, 0.0, 0.0, 0.0, 0.0, 1.6635905002499845E9, 0.0, 2022-09-19 17:28:20.249
23.0, -6814.130462900456, 6250.8441508822625, -25297.972595449995, -35431.51592391919, -187500.02235174447, -187500.02235174447, -4088.5363922758575, -14500.515401424815, 0.634, -0.784, 0.134, 192.0, 0.0, 0.0, 0.0, 0.0, 0.0, 0.0, 0.0, 0.0, 0.0, 1.6635905002540796E9, 0.0, 2022-09-19 17:28:20.254
24.0, -6779.574665972551, 6260.701270187053, -25208.31974843976, -35463.434215001376, -187500.02235174447, -187500.02235174447, -4042.4694469534693, -14431.984952924842, 0.634, -0.784, 0.134, 192.0, 0.0, 0.0, 0.0, 0.0, 0.0, 0.0, 0.0, 0.0, 0.0, 1.663590500258007E9, 0.0, 2022-09-19 17:28:20.258
25.0, -6760.642738418906, 6277.532133761899, -25201.234245447427, -35475.3253430516, -187500.02235174447, -187500.02235174447, -4017.9495832859975, -14411.510755003781, 0.634, -0.782, 0.13, 192.0, 19.0, 208.0, 231.0, 144.0, 4.0, 16.0, 0.0, 0.0, 0.0, 1.6635905002620208E9, 0.0, 2022-09-19 17:28:20.262
26.0, -6772.533866469129, 6296.128785148715, -25242.696731412023, -35455.18642129737, -187500.02235174447, -187500.02235174447, -4034.8475020942096, -14438.154034394507, 0.634, -0.782, 0.13, 192.0, 0.0, 0.0, 0.0, 0.0, 0.0, 0.0, 0.0, 0.0, 0.0, 1.6635905002649891E9, 0.0, 2022-09-19 17:28:20.264
27.0, -6794.05859637959, 6314.434863857611, -25318.715014304522, -35418.5072086462, -187500.02235174447, -187500.02235174447, -4073.5383717463465, -14507.8244218617, 0.634, -0.782, 0.13, 192.0, 0.0, 0.0, 0.0, 0.0, 0.0, 0.0, 0.0, 0.0, 0.0, 1.6635905002690685E9, 0.0, 2022-09-19 17:28:20.269
28.0, -6796.316122569576, 6327.465930875055, -25274.27974632737, -35422.19524648133, -187500.02235174447, -187500.02235174447, -4057.154543060606, -14485.517380895304, 0.634, -0.782, 0.13, 192.0, 0.0, 0.0, 0.0, 0.0, 0.0, 0.0, 0.0, 0.0, 0.0, 1.6635905002730632E9, 0.0, 2022-09-19 17:28:20.273
29.0, -6780.602846217495, 6339.580576369832, -25189.767800541857, -35452.928895107376, -187500.02235174447, -187500.02235174447, -4009.4335686485256, -14418.752720207302, 0.634, -0.782, 0.13, 192.0, 0.0, 0.0, 0.0, 0.0, 0.0, 0.0, 0.0, 0.0, 0.0, 1.663590500278169E9, 0.0, 2022-09-19 17:28:20.278
30.0, -6744.772999855638, 6353.282195720934, -25174.568614312248, -35462.89777313444, -187500.02235174447, -187500.02235174447, -3982.544420068791, -14404.626417711546, 0.634, -0.782, 0.13, 192.0, 0.0, 0.0, 0.0, 0.0, 0.0, 0.0, 0.0, 0.0, 0.0, 1.663590500282072E9, 0.0, 2022-09-19 17:28:20.282
31.0, -6751.724392381238, 6363.049908047904, -25228.682187638544, -35445.57517118158, -187500.02235174447, -187500.02235174447, -3990.12166143914, -14444.09959841962, 0.634, -0.782, 0.13, 192.0, 0.0, 0.0, 0.0, 0.0, 0.0, 0.0, 0.0, 0.0, 0.0, 1.6635905002860885E9, 0.0, 2022-09-19 17:28:20.286
32.0, -6790.147041099911, 6375.231608776046, -25301.99590945195, -35407.7560195632, -187500.02235174447, -187500.02235174447, -4010.8864320381203, -14501.454174691937, 0.634, -0.782, 0.13, 192.0, 0.0, 0.0, 0.0, 0.0, 0.0, 0.0, 0.0, 0.0, 0.0, 1.6635905002900813E9, 0.0, 2022-09-19 17:28:20.290
33.0, -6798.1489656149115, 6387.6144752042865, -25240.640370922134, -35410.12530447546, -187500.02235174447, -187500.02235174447, -3992.736815540411, -14477.761325569312, 0.634, -0.782, 0.13, 192.0, 0.0, 0.0, 0.0, 0.0, 0.0, 0.0, 0.0, 0.0, 0.0, 1.663590500293085E9, 0.0, 2022-09-19 17:28:20.293
34.0, -6756.619424416951, 6403.595972489831, -25154.07206464673, -35441.0154153127, -187500.02235174447, -187500.02235174447, -3945.909910906543, -14412.874211415556, 0.634, -0.782, 0.13, 192.0, 0.0, 0.0, 0.0, 0.0, 0.0, 0.0, 0.0, 0.0, 0.0, 1.6635905002971225E9, 0.0, 2022-09-19 17:28:20.297
35.0, -6728.7691508256385, 6417.69992324113, -25149.042922144286, -35454.11353756351, -187500.02235174447, -187500.02235174447, -3926.173320552507, -14395.551609462693, 0.636, -0.788, 0.13, 192.0, 19.0, 224.0, 231.0, 96.0, 4.0, 16.0, 0.0, 0.0, 0.0, 1.6635905003010824E9, 0.0, 2022-09-19 17:28:20.301
36.0, -6728.232708958711, 6433.033219937471, -25208.453858906494, -35439.94253157885, -187500.02235174447, -187500.02235174447, -3941.6407277155795, -14433.23665061434, 0.636, -0.788, 0.13, 192.0, 0.0, 0.0, 0.0, 0.0, 0.0, 0.0, 0.0, 0.0, 0.0, 1.6635905003051765E9, 0.0, 2022-09-19 17:28:20.305
37.0, -6765.448363476797, 6448.880606756283, -25290.70827850202, -35408.85125504151, -187500.02235174447, -187500.02235174447, -3975.5706757987355, -14519.000294089354, 0.636, -0.788, 0.13, 192.0, 0.0, 0.0, 0.0, 0.0, 0.0, 0.0, 0.0, 0.0, 0.0, 1.6635905003101375E9, 0.0, 2022-09-19 17:28:20.310
38.0, -6773.807915903082, 6459.408278394732, -25245.110719813198, -35412.58399636555, -187500.02235174447, -187500.02235174447, -3957.912797679043, -14499.174296757496, 0.636, -0.788, 0.13, 192.0, 0.0, 0.0, 0.0, 0.0, 0.0, 0.0, 0.0, 0.0, 0.0, 1.6635905003141437E9, 0.0, 2022-09-19 17:28:20.314
39.0, -6738.358049196965, 6469.891246544272, -25156.30723909226, -35441.171877523884, -187500.02235174447, -187500.02235174447, -3898.0548260277305, -14397.116231574564, 0.636, -0.788, 0.13, 192.0, 0.0, 0.0, 0.0, 0.0, 0.0, 0.0, 0.0, 0.0, 0.0, 1.6635905003181858E9, 0.0, 2022-09-19 17:28:20.318
40.0, -6721.884813533404, 6479.7707175935175, -25136.92827664951, -35453.2194677853, -187500.02235174447, -187500.02235174447, -3864.1248779445746, -14372.03757429571, 0.636, -0.788, 0.13, 192.0, 0.0, 0.0, 0.0, 0.0, 0.0, 0.0, 0.0, 0.0, 0.0, 1.66359050032118E9, 0.0, 2022-09-19 17:28:20.321
41.0, -6734.826473573026, 6495.886325345794, -25183.375201627638, -35435.09220303204, -187500.02235174447, -187500.02235174447, -3869.891628014044, -14436.276487860261, 0.636, -0.788, 0.13, 192.0, 0.0, 0.0, 0.0, 0.0, 0.0, 0.0, 0.0, 0.0, 0.0, 1.663590500325166E9, 0.0, 2022-09-19 17:28:20.325
42.0, -6761.1121250524675, 6517.701627934173, -25257.918269386086, -35400.26818517067, -187500.02235174447, -187500.02235174447, -3906.973172065398, -14529.729131427901, 0.636, -0.788, 0.13, 192.0, 0.0, 0.0, 0.0, 0.0, 0.0, 0.0, 0.0, 0.0, 0.0, 1.6635905003291328E9, 0.0, 2022-09-19 17:28:20.329
43.0, -6772.176238557844, 6529.257479817567, -25215.51701015437, -35402.68217357185, -187500.02235174447, -187500.02235174447, -3897.7866050942666, -14510.081948051686, 0.636, -0.788, 0.13, 192.0, 0.0, 0.0, 0.0, 0.0, 0.0, 0.0, 0.0, 0.0, 0.0, 1.66359050033315E9, 0.0, 2022-09-19 17:28:20.333
44.0, -6736.86048231846, 6541.43918054571, -25130.06629110173, -35433.48287743126, -187500.02235174447, -187500.02235174447, -3858.1569621750073, -14426.084092388643, 0.636, -0.788, 0.13, 192.0, 0.0, 0.0, 0.0, 0.0, 0.0, 0.0, 0.0, 0.0, 0.0, 1.66359050033814E9, 0.0, 2022-09-19 17:28:20.338
45.0, -6696.716749276728, 6558.605320287385, -25132.234410313897, -35449.73259565027, -187500.02235174447, -187500.02235174447, -3847.5398835587366, -14413.969446893865, 0.636, -0.788, 0.122, 192.0, 19.0, 224.0, 231.0, 96.0, 3.0, 208.0, 0.0, 0.0, 0.0, 1.6635905003422217E9, 0.0, 2022-09-19 17:28:20.342
46.0, -6696.381473109898, 6571.479925093642, -25178.815445758755, -35435.047499543136, -187500.02235174447, -187500.02235174447, -3839.0909241546306, -14458.7623427823, 0.636, -0.788, 0.122, 192.0, 0.0, 0.0, 0.0, 0.0, 0.0, 0.0, 0.0, 0.0, 0.0, 1.6635905003461845E9, 0.0, 2022-09-19 17:28:20.346
47.0, -6737.978069541225, 6584.175715944257, -25251.503318727413, -35401.117551459974, -187500.02235174447, -187500.02235174447, -3867.276473912773, -14525.862279637133, 0.636, -0.788, 0.122, 192.0, 0.0, 0.0, 0.0, 0.0, 0.0, 0.0, 0.0, 0.0, 0.0, 1.6635905003491604E9, 0.0, 2022-09-19 17:28:20.349
48.0, -6752.327889481532, 6602.951181286715, -25214.488829909424, -35404.44796138382, -187500.02235174447, -187500.02235174447, -3852.010232449798, -14507.243276505862, 0.636, -0.788, 0.122, 192.0, 0.0, 0.0, 0.0, 0.0, 0.0, 0.0, 0.0, 0.0, 0.0, 1.6635905003531792E9, 0.0, 2022-09-19 17:28:20.353
49.0, -6728.657392103361, 6619.893803583837, -25134.11195684814, -35434.64516814294, -187500.02235174447, -187500.02235174447, -3801.6294004475358, -14411.957789892887, 0.636, -0.788, 0.122, 192.0, 0.0, 0.0, 0.0, 0.0, 0.0, 0.0, 0.0, 0.0, 0.0, 1.6635905003572812E9, 0.0, 2022-09-19 17:28:20.357
50.0, -6695.1968306537665, 6638.669268926295, -25108.742726891367, -35449.576133439085, -187500.02235174447, -187500.02235174447, -3790.118252053053, -14390.701280915891, 0.636, -0.788, 0.122, 192.0, 0.0, 0.0, 0.0, 0.0, 0.0, 0.0, 0.0, 0.0, 0.0, 1.6635905003611763E9, 0.0, 2022-09-19 17:28:20.361
51.0, -6682.523391547607, 6657.3329755464765, -25155.971962925432, -35435.1145547765, -187500.02235174447, -187500.02235174447, -3797.0919963231086, -14439.47278731737, 0.636, -0.788, 0.122, 192.0, 0.0, 0.0, 0.0, 0.0, 0.0, 0.0, 0.0, 0.0, 0.0, 1.6635905003661969E9, 0.0, 2022-09-19 17:28:20.366
52.0, -6719.940211765792, 6672.50981003163, -25232.57139117377, -35399.642336325924, -187500.02235174447, -187500.02235174447, -3824.4952350253147, -14503.39877645955, 0.636, -0.788, 0.122, 192.0, 0.0, 0.0, 0.0, 0.0, 0.0, 0.0, 0.0, 0.0, 0.0, 1.6635905003703067E9, 0.0, 2022-09-19 17:28:20.370
53.0, -6737.978069541225, 6686.434946827287, -25199.624919846647, -35399.82115028157, -187500.02235174447, -187500.02235174447, -3821.5224530127593, -14472.687479577957, 0.636, -0.788, 0.122, 192.0, 0.0, 0.0, 0.0, 0.0, 0.0, 0.0, 0.0, 0.0, 0.0, 1.6635905003732395E9, 0.0, 2022-09-19 17:28:20.373
54.0, -6710.172499438822, 6700.807118512049, -25116.521133961814, -35430.62185414098, -187500.02235174447, -187500.02235174447, -3765.6430918744913, -14413.56711549367, 0.636, -0.788, 0.122, 192.0, 0.0, 0.0, 0.0, 0.0, 0.0, 0.0, 0.0, 0.0, 0.0, 1.6635905003772907E9, 0.0, 2022-09-19 17:28:20.377
55.0, -6689.698301517761, 6716.051008230568, -25097.74566861936, -35447.22920027128, -187500.02235174447, -187500.02235174447, -3725.991097210777, -14399.686682186924, 0.632, -0.784, 0.122, 192.0, 19.0, 192.0, 231.0, 128.0, 3.0, 208.0, 0.0, 0.0, 0.0, 1.663590500383242E9, 0.0, 2022-09-19 17:28:20.383
56.0, -6670.520504775108, 6730.981973526714, -25143.231468585906, -35435.7627553657, -187500.02235174447, -187500.02235174447, -3735.110608948542, -14441.730313507356, 0.632, -0.784, 0.122, 192.0, 0.0, 0.0, 0.0, 0.0, 0.0, 0.0, 0.0, 0.0, 0.0, 1.66359050038726E9, 0.0, 2022-09-19 17:28:20.387
57.0, -6690.033577684591, 6752.417296459353, -25216.254617721395, -35398.92708050336, -187500.02235174447, -187500.02235174447, -3772.46037393336, -14509.746671884855, 0.632, -0.784, 0.122, 192.0, 0.0, 0.0, 0.0, 0.0, 0.0, 0.0, 0.0, 0.0, 0.0, 1.6635905003902316E9, 0.0, 2022-09-19 17:28:20.390
58.0, -6705.433929614298, 6763.257892520177, -25179.955384725978, -35398.99413573672, -187500.02235174447, -187500.02235174447, -3765.2407604742957, -14486.478505906882, 0.632, -0.784, 0.122, 192.0, 0.0, 0.0, 0.0, 0.0, 0.0, 0.0, 0.0, 0.0, 0.0, 1.663590500393292E9, 0.0, 2022-09-19 17:28:20.393
59.0, -6680.8693624579155, 6767.325910011043, -25102.908921588532, -35431.337109963555, -187500.02235174447, -187500.02235174447, -3723.375943109506, -14409.18617358043, 0.632, -0.784, 0.122, 192.0, 0.0, 0.0, 0.0, 0.0, 0.0, 0.0, 0.0, 0.0, 0.0, 1.6635905003972528E9, 0.0, 2022-09-19 17:28:20.397
60.0, -6660.596330236952, 6778.3676717719645, -25089.408467937526, -35449.77729913918, -187500.02235174447, -187500.02235174447, -3706.053341156643, -14382.22996976733, 0.632, -0.784, 0.122, 192.0, 0.0, 0.0, 0.0, 0.0, 0.0, 0.0, 0.0, 0.0, 0.0, 1.6635905004013636E9, 0.0, 2022-09-19 17:28:20.401
61.0, -6657.847065668949, 6796.182012102844, -25123.8301543987, -35437.70735713332, -187500.02235174447, -187500.02235174447, -3706.768596979213, -14420.697321974912, 0.632, -0.784, 0.122, 192.0, 0.0, 0.0, 0.0, 0.0, 0.0, 0.0, 0.0, 0.0, 0.0, 1.6635905004053118E9, 0.0, 2022-09-19 17:28:20.405
62.0, -6690.525316062608, 6815.5833262900505, -25196.540379111815, -35402.41395263839, -187500.02235174447, -187500.02235174447, -3726.371076866517, -14492.49112516536, 0.632, -0.784, 0.122, 192.0, 0.0, 0.0, 0.0, 0.0, 0.0, 0.0, 0.0, 0.0, 0.0, 1.6635905004103332E9, 0.0, 2022-09-19 17:28:20.410
63.0, -6707.847918015471, 6823.697009527327, -25167.6395735311, -35404.760885806194, -187500.02235174447, -187500.02235174447, -3718.1009314180533, -14488.15488674103, 0.632, -0.784, 0.122, 192.0, 0.0, 0.0, 0.0, 0.0, 0.0, 0.0, 0.0, 0.0, 0.0, 1.6635905004143093E9, 0.0, 2022-09-19 17:28:20.414
64.0, -6673.023900154102, 6832.905928242913, -25078.947851532444, -35434.7122233763, -187500.02235174447, -187500.02235174447, -3669.016500594199, -14412.583638737637, 0.632, -0.784, 0.122, 192.0, 0.0, 0.0, 0.0, 0.0, 0.0, 0.0, 0.0, 0.0, 0.0, 1.6635905004172728E9, 0.0, 2022-09-19 17:28:20.417
65.0, -6645.531254474075, 6846.004050493723, -25066.49792987084, -35449.218505527795, -187500.02235174447, -187500.02235174447, -3637.0311542786544, -14381.827638367135, 0.63, -0.784, 0.12, 192.0, 19.0, 176.0, 231.0, 128.0, 3.0, 192.0, 0.0, 0.0, 0.0, 1.6635905004213383E9, 0.0, 2022-09-19 17:28:20.421
66.0, -6652.013260366114, 6855.861169798514, -25116.25291302835, -35438.48966818925, -187500.02235174447, -187500.02235174447, -3642.306165970107, -14427.33579007814, 0.63, -0.784, 0.12, 192.0, 0.0, 0.0, 0.0, 0.0, 0.0, 0.0, 0.0, 0.0, 0.0, 1.6635905004252996E9, 0.0, 2022-09-19 17:28:20.425
67.0, -6693.207525397244, 6864.980681536279, -25199.356698913183, -35404.135036961445, -187500.02235174447, -187500.02235174447, -3679.275951299185, -14513.68057890899, 0.63, -0.784, 0.12, 192.0, 0.0, 0.0, 0.0, 0.0, 0.0, 0.0, 0.0, 0.0, 0.0, 1.6635905004293756E9, 0.0, 2022-09-19 17:28:20.429
68.0, -6719.180252454312, 6872.624978139995, -25179.73186728142, -35403.7550573057, -187500.02235174447, -187500.02235174447, -3679.745337932746, -14497.319101967705, 0.63, -0.784, 0.12, 192.0, 0.0, 0.0, 0.0, 0.0, 0.0, 0.0, 0.0, 0.0, 0.0, 1.6635905004333456E9, 0.0, 2022-09-19 17:28:20.433
69.0, -6691.3746823519095, 6879.643425898961, -25079.551348632736, -35434.82398209858, -187500.02235174447, -187500.02235174447, -3629.7221338417694, -14431.649676758014, 0.63, -0.784, 0.12, 192.0, 0.0, 0.0, 0.0, 0.0, 0.0, 0.0, 0.0, 0.0, 0.0, 1.6635905004384096E9, 0.0, 2022-09-19 17:28:20.438
70.0, -6657.087106357469, 6894.999074339757, -25052.70690354191, -35448.391490982955, -187500.02235174447, -187500.02235174447, -3595.635723547426, -14409.812022425178, 0.63, -0.784, 0.12, 192.0, 0.0, 0.0, 0.0, 0.0, 0.0, 0.0, 0.0, 0.0, 0.0, 1.6635905004423032E9, 0.0, 2022-09-19 17:28:20.442
71.0, -6664.038498883069, 6915.786196683192, -25101.321947732205, -35435.650996643424, -187500.02235174447, -187500.02235174447, -3605.9622294857777, -14446.223014142874, 0.63, -0.784, 0.12, 192.0, 0.0, 0.0, 0.0, 0.0, 0.0, 0.0, 0.0, 0.0, 0.0, 1.6635905004455392E9, 0.0, 2022-09-19 17:28:20.445
72.0, -6694.839202742482, 6942.630641774016, -25179.55305332578, -35397.273051413664, -187500.02235174447, -187500.02235174447, -3633.0748955100653, -14519.044997578265, 0.63, -0.784, 0.12, 192.0, 0.0, 0.0, 0.0, 0.0, 0.0, 0.0, 0.0, 0.0, 0.0, 1.66359050044948E9, 0.0, 2022-09-19 17:28:20.449
73.0, -6708.741987793683, 6963.149543183988, -25153.423864057528, -35393.026219967156, -187500.02235174447, -187500.02235174447, -3624.0000872612104, -14501.834154347678, 0.63, -0.784, 0.12, 192.0, 0.0, 0.0, 0.0, 0.0, 0.0, 0.0, 0.0, 0.0, 0.0, 1.6635905004533744E9, 0.0, 2022-09-19 17:28:20.453
74.0, -6669.514676274619, 6973.47604912234, -25064.19570019194, -35428.453734928815, -187500.02235174447, -187500.02235174447, -3590.114842666965, -14432.990781425331, 0.63, -0.784, 0.12, 192.0, 0.0, 0.0, 0.0, 0.0, 0.0, 0.0, 0.0, 0.0, 0.0, 1.6635905004573505E9, 0.0, 2022-09-19 17:28:20.457
75.0, -6620.899632084326, 6982.707319582381, -25052.997476219833, -35444.52463919218, -187500.02235174447, -187500.02235174447, -3574.0662901480546, -14393.495248972804, 0.64, -0.79, 0.122, 192.0, 20.0, 0.0, 231.0, 80.0, 3.0, 208.0, 0.0, 0.0, 0.0, 1.663590500461412E9, 0.0, 2022-09-19 17:28:20.461
76.0, -6621.279611740067, 6989.926933041446, -25099.690270386967, -35435.025147798675, -187500.02235174447, -187500.02235174447, -3572.1440401248983, -14421.27846733075, 0.64, -0.79, 0.122, 192.0, 0.0, 0.0, 0.0, 0.0, 0.0, 0.0, 0.0, 0.0, 0.0, 1.66359050046636E9, 0.0, 2022-09-19 17:28:20.466
77.0, -6666.117211117413, 6999.694645368415, -25171.17114915504, -35402.883339271946, -187500.02235174447, -187500.02235174447, -3596.5297933256384, -14498.503744423837, 0.64, -0.79, 0.122, 192.0, 0.0, 0.0, 0.0, 0.0, 0.0, 0.0, 0.0, 0.0, 0.0, 1.6635905004694817E9, 0.0, 2022-09-19 17:28:20.469
78.0, -6680.13175489089, 7010.512889684784, -25140.281038317808, -35400.29053691513, -187500.02235174447, -187500.02235174447, -3584.9068862088784, -14484.288034950261, 0.64, -0.79, 0.122, 192.0, 0.0, 0.0, 0.0, 0.0, 0.0, 0.0, 0.0, 0.0, 0.0, 1.6635905004734366E9, 0.0, 2022-09-19 17:28:20.473
79.0, -6643.430190495275, 7024.236860780342, -25031.271580609275, -35429.41485994039, -187500.02235174447, -187500.02235174447, -3536.1353798073987, -14411.935438148432, 0.64, -0.79, 0.122, 192.0, 0.0, 0.0, 0.0, 0.0, 0.0, 0.0, 0.0, 0.0, 0.0, 1.6635905004774115E9, 0.0, 2022-09-19 17:28:20.477
80.0, -6621.793701862539, 7038.921956887479, -25008.89748440951, -35448.458546216316, -187500.02235174447, -187500.02235174447, -3514.0071527966447, -14394.389318751017, 0.64, -0.79, 0.122, 192.0, 0.0, 0.0, 0.0, 0.0, 0.0, 0.0, 0.0, 0.0, 0.0, 1.663590500481479E9, 0.0, 2022-09-19 17:28:20.481
81.0, -6622.732475129661, 7052.10948611611, -25050.538784329747, -35438.802592611624, -187500.02235174447, -187500.02235174447, -3514.40948419684, -14434.354237837106, 0.64, -0.79, 0.122, 192.0, 0.0, 0.0, 0.0, 0.0, 0.0, 0.0, 0.0, 0.0, 0.0, 1.6635905004854655E9, 0.0, 2022-09-19 17:28:20.485
82.0, -6650.940376632259, 7070.415564825006, -25125.50653523285, -35402.01162123819, -187500.02235174447, -187500.02235174447, -3545.1431328228873, -14498.146116512551, 0.64, -0.79, 0.122, 192.0, 0.0, 0.0, 0.0, 0.0, 0.0, 0.0, 0.0, 0.0, 0.0, 1.6635905004894395E9, 0.0, 2022-09-19 17:28:20.489
83.0, -6666.050155884047, 7082.776079508792, -25103.400659966548, -35400.17877819285, -187500.02235174447, -187500.02235174447, -3546.3501270234738, -14495.463907177915, 0.64, -0.79, 0.122, 192.0, 0.0, 0.0, 0.0, 0.0, 0.0, 0.0, 0.0, 0.0, 0.0, 1.663590500493431E9, 0.0, 2022-09-19 17:28:20.493
84.0, -6634.355382246421, 7096.522402348805, -25011.37852804405, -35432.18647625286, -187500.02235174447, -187500.02235174447, -3500.998437523656, -14414.237667827329, 0.64, -0.79, 0.122, 192.0, 0.0, 0.0, 0.0, 0.0, 0.0, 0.0, 0.0, 0.0, 0.0, 1.6635905004974737E9, 0.0, 2022-09-19 17:28:20.497
85.0, -6602.079463252958, 7110.715760077926, -24987.61862368806, -35450.44785147284, -187500.02235174447, -187500.02235174447, -3466.6661580403043, -14384.219275023852, 0.646, -0.78, 0.126, 192.0, 20.0, 48.0, 231.0, 160.0, 3.0, 240.0, 0.0, 0.0, 0.0, 1.6635905005005188E9, 0.0, 2022-09-19 17:28:20.500
86.0, -6592.624675348363, 7125.5126149073385, -25029.19286837493, -35440.03193855667, -187500.02235174447, -187500.02235174447, -3467.2249516516868, -14417.702188217901, 0.646, -0.78, 0.126, 192.0, 0.0, 0.0, 0.0, 0.0, 0.0, 0.0, 0.0, 0.0, 0.0, 1.663590500505483E9, 0.0, 2022-09-19 17:28:20.505
87.0, -6627.627507165374, 7137.694315635481, -25115.045918827764, -35406.169045706876, -187500.02235174447, -187500.02235174447, -3500.0373125120777, -14498.660206635024, 0.646, -0.78, 0.126, 192.0, 0.0, 0.0, 0.0, 0.0, 0.0, 0.0, 0.0, 0.0, 0.0, 1.6635905005094774E9, 0.0, 2022-09-19 17:28:20.509
88.0, -6643.944280617748, 7145.830350617212, -25092.11302901662, -35402.928042760854, -187500.02235174447, -187500.02235174447, -3498.0256555111, -14489.563046641713, 0.646, -0.78, 0.126, 192.0, 0.0, 0.0, 0.0, 0.0, 0.0, 0.0, 0.0, 0.0, 0.0, 1.6635905005134795E9, 0.0, 2022-09-19 17:28:20.513
89.0, -6608.136786000346, 7156.89446412259, -25006.550551241704, -35434.265188487196, -187500.02235174447, -187500.02235174447, -3452.2492828666313, -14424.832394699144, 0.646, -0.78, 0.126, 192.0, 0.0, 0.0, 0.0, 0.0, 0.0, 0.0, 0.0, 0.0, 0.0, 1.6635905005174649E9, 0.0, 2022-09-19 17:28:20.517
90.0, -6573.379823372344, 7165.969272371444, -24996.648728448003, -35453.93472360787, -187500.02235174447, -187500.02235174447, -3431.909195412302, -14394.32226351765, 0.646, -0.78, 0.126, 192.0, 0.0, 0.0, 0.0, 0.0, 0.0, 0.0, 0.0, 0.0, 0.0, 1.6635905005215073E9, 0.0, 2022-09-19 17:28:20.521
91.0, -6575.905570495793, 7171.3560427851735, -25022.91202818299, -35443.3176449916, -187500.02235174447, -187500.02235174447, -3438.055925137511, -14412.605990482092, 0.646, -0.78, 0.126, 192.0, 0.0, 0.0, 0.0, 0.0, 0.0, 0.0, 0.0, 0.0, 0.0, 1.6635905005255044E9, 0.0, 2022-09-19 17:28:20.525
92.0, -6625.213518764201, 7180.855534178679, -25100.96431982092, -35409.030068997155, -187500.02235174447, -187500.02235174447, -3454.149181145332, -14473.425087144982, 0.646, -0.78, 0.126, 192.0, 0.0, 0.0, 0.0, 0.0, 0.0, 0.0, 0.0, 0.0, 0.0, 1.66359050052854E9, 0.0, 2022-09-19 17:28:20.528
93.0, -6655.768353434605, 7193.350159329196, -25075.662145097514, -35403.3080224166, -187500.02235174447, -187500.02235174447, -3451.7575444886143, -14462.271566661784, 0.646, -0.78, 0.126, 192.0, 0.0, 0.0, 0.0, 0.0, 0.0, 0.0, 0.0, 0.0, 0.0, 1.663590500534594E9, 0.0, 2022-09-19 17:28:20.534
94.0, -6632.187263034256, 7205.353046101695, -24983.975289341844, -35432.231179741764, -187500.02235174447, -187500.02235174447, -3414.988924859634, -14380.821809866646, 0.646, -0.78, 0.126, 192.0, 0.0, 0.0, 0.0, 0.0, 0.0, 0.0, 0.0, 0.0, 0.0, 1.663590500537626E9, 0.0, 2022-09-19 17:28:20.537
95.0, -6599.3078469405, 7220.1946044200195, -24955.23094597232, -35447.16214503791, -187500.02235174447, -187500.02235174447, -3379.2708372200536, -14361.12992300152, 0.646, -0.776, 0.128, 192.0, 20.0, 48.0, 231.0, 192.0, 4.0, 0.0, 0.0, 0.0, 0.0, 1.6635905005415697E9, 0.0, 2022-09-19 17:28:20.541
96.0, -6599.240791707134, 7238.008944750899, -24997.22987380384, -35434.93574082086, -187500.02235174447, -187500.02235174447, -3380.4331279317294, -14400.826621154145, 0.646, -0.776, 0.128, 192.0, 0.0, 0.0, 0.0, 0.0, 0.0, 0.0, 0.0, 0.0, 0.0, 1.6635905005455556E9, 0.0, 2022-09-19 17:28:20.545
97.0, -6627.716914143195, 7256.337375204251, -25083.664069612514, -35397.407161880394, -187500.02235174447, -187500.02235174447, -3409.356285256897, -14474.967357512398, 0.646, -0.776, 0.128, 192.0, 0.0, 0.0, 0.0, 0.0, 0.0, 0.0, 0.0, 0.0, 0.0, 1.6635905005515091E9, 0.0, 2022-09-19 17:28:20.551
98.0, -6639.652745682329, 7274.621102168692, -25073.158749718517, -35392.28861240013, -187500.02235174447, -187500.02235174447, -3411.546756213517, -14480.622348859592, 0.646, -0.776, 0.128, 192.0, 0.0, 0.0, 0.0, 0.0, 0.0, 0.0, 0.0, 0.0, 0.0, 1.6635905005545762E9, 0.0, 2022-09-19 17:28:20.554
99.0, -6608.874393567371, 7285.148773807142, -24987.260995776775, -35423.290481959644, -187500.02235174447, -187500.02235174447, -3368.720813837149, -14424.161842365485, 0.646, -0.776, 0.128, 192.0, 0.0, 0.0, 0.0, 0.0, 0.0, 0.0, 0.0, 0.0, 0.0, 1.6635905005575705E9, 0.0, 2022-09-19 17:28:20.557
100.0, -6577.9172274967705, 7297.084605346276, -24955.208594227865, -35440.45662170132, -187500.02235174447, -187500.02235174447, -3338.3447931223864, -14399.507868231281, 0.646, -0.776, 0.128, 192.0, 0.0, 0.0, 0.0, 0.0, 0.0, 0.0, 0.0, 0.0, 0.0, 1.6635905005615485E9, 0.0, 2022-09-19 17:28:20.561
101.0, -6575.883218751338, 7305.131233350186, -25012.42906003345, -35433.75109836472, -187500.02235174447, -187500.02235174447, -3355.2650636750536, -14425.301781332706, 0.646, -0.776, 0.128, 192.0, 0.0, 0.0, 0.0, 0.0, 0.0, 0.0, 0.0, 0.0, 0.0, 1.6635905005655303E9, 0.0, 2022-09-19 17:28:20.565
102.0, -6604.873431309871, 7317.648210245158, -25111.044956570266, -35398.14476944742, -187500.02235174447, -187500.02235174447, -3402.226078775654, -14487.529037896282, 0.646, -0.776, 0.128, 192.0, 0.0, 0.0, 0.0, 0.0, 0.0, 0.0, 0.0, 0.0, 0.0, 1.6635905005695384E9, 0.0, 2022-09-19 17:28:20.569
103.0, -6611.668361624284, 7329.695800506569, -25104.339433233672, -35388.93585073183, -187500.02235174447, -187500.02235174447, -3415.4359597487405, -14466.250177174828, 0.646, -0.776, 0.128, 192.0, 0.0, 0.0, 0.0, 0.0, 0.0, 0.0, 0.0, 0.0, 0.0, 1.663590500573624E9, 0.0, 2022-09-19 17:28:20.573
104.0, -6590.367149158376, 7333.987335441988, -24989.496170222304, -35417.79195282364, -187500.02235174447, -187500.02235174447, -3348.0230984715345, -14399.418461253461, 0.646, -0.776, 0.128, 192.0, 0.0, 0.0, 0.0, 0.0, 0.0, 0.0, 0.0, 0.0, 0.0, 1.663590500577593E9, 0.0, 2022-09-19 17:28:20.577
105.0, -6570.764669271072, 7342.905681479655, -24940.344684165084, -35432.365290208494, -187500.02235174447, -187500.02235174447, -3292.9484001336577, -14380.575940677636, 0.646, -0.776, 0.128, 192.0, 0.0, 0.0, 0.0, 0.0, 0.0, 0.0, 0.0, 0.0, 0.0, 1.66359050058159E9, 0.0, 2022-09-19 17:28:20.581
106.0, -6580.040643220025, 7356.763763041946, -24978.0967805501, -35419.021298768675, -187500.02235174447, -187500.02235174447, -3295.6976647016604, -14412.382473037538, 0.64, -0.784, 0.126, 192.0, 20.0, 0.0, 231.0, 128.0, 3.0, 240.0, 0.0, 0.0, 0.0, 1.6635905005845735E9, 0.0, 2022-09-19 17:28:20.584
107.0, -6614.529384914564, 7374.578103372825, -25064.173348447486, -35380.24102213872, -187500.02235174447, -187500.02235174447, -3331.7286767636156, -14489.20541873043, 0.64, -0.784, 0.126, 192.0, 0.0, 0.0, 0.0, 0.0, 0.0, 0.0, 0.0, 0.0, 0.0, 1.6635905005896444E9, 0.0, 2022-09-19 17:28:20.589
108.0, -6628.722742643684, 7386.960969801065, -25050.963467474397, -35367.38876907692, -187500.02235174447, -187500.02235174447, -3326.1407406497888, -14498.324930468194, 0.64, -0.784, 0.126, 192.0, 0.0, 0.0, 0.0, 0.0, 0.0, 0.0, 0.0, 0.0, 0.0, 1.663590500593609E9, 0.0, 2022-09-19 17:28:20.593
109.0, -6596.938562028237, 7392.303036725883, -24956.214422728353, -35391.23808041073, -187500.02235174447, -187500.02235174447, -3273.45767896863, -14421.926667919955, 0.64, -0.784, 0.126, 192.0, 0.0, 0.0, 0.0, 0.0, 0.0, 0.0, 0.0, 0.0, 0.0, 1.6635905005976205E9, 0.0, 2022-09-19 17:28:20.597
110.0, -6573.513933839075, 7399.187374018118, -24931.381634638507, -35407.264281185184, -187500.02235174447, -187500.02235174447, -3249.5413124014513, -14378.296062743195, 0.64, -0.784, 0.126, 192.0, 0.0, 0.0, 0.0, 0.0, 0.0, 0.0, 0.0, 0.0, 0.0, 1.6635905006016724E9, 0.0, 2022-09-19 17:28:20.601
111.0, -6572.3963466163095, 7414.252449780995, -24973.022934558743, -35395.77548453516, -187500.02235174447, -187500.02235174447, -3265.0534230534345, -14402.324188032651, 0.64, -0.784, 0.126, 192.0, 0.0, 0.0, 0.0, 0.0, 0.0, 0.0, 0.0, 0.0, 0.0, 1.663590500605634E9, 0.0, 2022-09-19 17:28:20.605
112.0, -6601.811242319494, 7436.045400624919, -25053.645676809036, -35354.33535031502, -187500.02235174447, -187500.02235174447, -3296.6364379687834, -14479.594168614647, 0.64, -0.784, 0.126, 192.0, 0.0, 0.0, 0.0, 0.0, 0.0, 0.0, 0.0, 0.0, 0.0, 1.6635905006086264E9, 0.0, 2022-09-19 17:28:20.608
113.0, -6623.045399552036, 7450.931662432154, -25040.547554558227, -35338.15268732938, -187500.02235174447, -187500.02235174447, -3289.930914632191, -14489.272473963794, 0.64, -0.784, 0.126, 192.0, 0.0, 0.0, 0.0, 0.0, 0.0, 0.0, 0.0, 0.0, 0.0, 1.6635905006126645E9, 0.0, 2022-09-19 17:28:20.612
114.0, -6599.35255042941, 7467.024918439975, -24954.068655260642, -35364.214821364265, -187500.02235174447, -187500.02235174447, -3254.9951380485463, -14413.47770851585, 0.64, -0.784, 0.126, 192.0, 0.0, 0.0, 0.0, 0.0, 0.0, 0.0, 0.0, 0.0, 0.0, 1.6635905006166773E9, 0.0, 2022-09-19 17:28:20.616
115.0, -6563.723869767651, 7481.799421524933, -24917.300035631662, -35383.90670822939, -187500.02235174447, -187500.02235174447, -3227.726009813072, -14383.414612223462, 0.64, -0.784, 0.126, 192.0, 0.0, 0.0, 0.0, 0.0, 0.0, 0.0, 0.0, 0.0, 0.0, 1.6635905006207104E9, 0.0, 2022-09-19 17:28:20.620
116.0, -6561.555750555486, 7496.6633315877125, -24946.26789644574, -35374.988362191725, -187500.02235174447, -187500.02235174447, -3214.449073606619, -14391.37183324955, 0.638, -0.794, 0.124, 192.0, 19.0, 240.0, 231.0, 48.0, 3.0, 224.0, 0.0, 0.0, 0.0, 1.663590500625698E9, 0.0, 2022-09-19 17:28:20.625
117.0, -6593.250524193111, 7513.896526562754, -25024.364891572583, -35339.538495485605, -187500.02235174447, -187500.02235174447, -3242.366402431298, -14466.63015683057, 0.638, -0.794, 0.124, 192.0, 0.0, 0.0, 0.0, 0.0, 0.0, 0.0, 0.0, 0.0, 0.0, 1.663590500629726E9, 0.0, 2022-09-19 17:28:20.629
118.0, -6618.083312282957, 7529.699209892656, -25019.358100814596, -35327.22268429073, -187500.02235174447, -187500.02235174447, -3247.552007144929, -14474.117991223096, 0.638, -0.794, 0.124, 192.0, 0.0, 0.0, 0.0, 0.0, 0.0, 0.0, 0.0, 0.0, 0.0, 1.663590500632949E9, 0.0, 2022-09-19 17:28:20.632
119.0, -6598.9278672847595, 7542.5067594655475, -24921.613922311535, -35354.4471090373, -187500.02235174447, -187500.02235174447, -3197.6405617762284, -14393.539952461715, 0.638, -0.794, 0.124, 192.0, 0.0, 0.0, 0.0, 0.0, 0.0, 0.0, 0.0, 0.0, 0.0, 1.6635905006367412E9, 0.0, 2022-09-19 17:28:20.636
120.0, -6578.54307634152, 7556.253082305561, -24884.510026515727, -35374.22840288024, -187500.02235174447, -187500.02235174447, -3165.0293666159355, -14367.164894004452, 0.638, -0.794, 0.124, 192.0, 0.0, 0.0, 0.0, 0.0, 0.0, 0.0, 0.0, 0.0, 0.0, 1.663590500640724E9, 0.0, 2022-09-19 17:28:20.640
121.0, -6573.1563059277905, 7574.693271481189, -24925.190201424386, -35365.42181556485, -187500.02235174447, -187500.02235174447, -3181.793174957416, -14384.845123868601, 0.638, -0.794, 0.124, 192.0, 0.0, 0.0, 0.0, 0.0, 0.0, 0.0, 0.0, 0.0, 0.0, 1.6635905006446996E9, 0.0, 2022-09-19 17:28:20.644
122.0, -6583.885143266338, 7594.876896724331, -25004.494190751815, -35327.62501569093, -187500.02235174447, -187500.02235174447, -3215.164329429189, -14438.936345450444, 0.638, -0.794, 0.124, 192.0, 0.0, 0.0, 0.0, 0.0, 0.0, 0.0, 0.0, 0.0, 0.0, 1.6635905006486995E9, 0.0, 2022-09-19 17:28:20.648
123.0, -6597.609114361896, 7604.354036373382, -24992.156027812485, -35315.7338876407, -187500.02235174447, -187500.02235174447, -3205.7095415245944, -14440.165691395485, 0.638, -0.794, 0.124, 192.0, 0.0, 0.0, 0.0, 0.0, 0.0, 0.0, 0.0, 0.0, 0.0, 1.6635905006537037E9, 0.0, 2022-09-19 17:28:20.653
124.0, -6563.478000578642, 7612.087739954918, -24901.8773319575, -35346.19931533329, -187500.02235174447, -187500.02235174447, -3159.173209568645, -14361.264033468251, 0.638, -0.794, 0.124, 192.0, 0.0, 0.0, 0.0, 0.0, 0.0, 0.0, 0.0, 0.0, 0.0, 1.663590500657738E9, 0.0, 2022-09-19 17:28:20.657
125.0, -6525.86001466036, 7621.654286581789, -24873.11063684352, -35367.43347256583, -187500.02235174447, -187500.02235174447, -3137.3802587247205, -14331.335047642595, 0.638, -0.794, 0.124, 192.0, 0.0, 0.0, 0.0, 0.0, 0.0, 0.0, 0.0, 0.0, 0.0, 1.6635905006607397E9, 0.0, 2022-09-19 17:28:20.660
126.0, -6518.2157180566455, 7632.651344853801, -24904.246616869765, -35361.689074240814, -187500.02235174447, -187500.02235174447, -3145.8739216177373, -14365.533216659214, 0.638, -0.79, 0.122, 192.0, 19.0, 240.0, 231.0, 80.0, 3.0, 208.0, 0.0, 0.0, 0.0, 1.6635905006647048E9, 0.0, 2022-09-19 17:28:20.664
127.0, -6535.068933375947, 7646.889406071831, -24983.37179224155, -35330.26252153665, -187500.02235174447, -187500.02235174447, -3183.491907536019, -14441.596203040624, 0.638, -0.79, 0.122, 192.0, 0.0, 0.0, 0.0, 0.0, 0.0, 0.0, 0.0, 0.0, 0.0, 1.6635905006688635E9, 0.0, 2022-09-19 17:28:20.668
128.0, -6551.363355083866, 7661.574502178968, -24978.588518928114, -35318.6843179088, -187500.02235174447, -187500.02235174447, -3190.286837850432, -14440.925650706966, 0.638, -0.79, 0.122, 192.0, 0.0, 0.0, 0.0, 0.0, 0.0, 0.0, 0.0, 0.0, 0.0, 1.6635905006728415E9, 0.0, 2022-09-19 17:28:20.672
129.0, -6520.562651224453, 7680.305264032515, -24887.9745469063, -35345.86403916646, -187500.02235174447, -187500.02235174447, -3134.5192354344413, -14361.956937546365, 0.638, -0.79, 0.122, 192.0, 0.0, 0.0, 0.0, 0.0, 0.0, 0.0, 0.0, 0.0, 0.0, 1.6635905006767328E9, 0.0, 2022-09-19 17:28:20.676
130.0, -6488.778470609006, 7691.391729282347, -24852.234107522265, -35366.76292023217, -187500.02235174447, -187500.02235174447, -3087.7370342894837, -14319.22040214782, 0.638, -0.79, 0.122, 192.0, 0.0, 0.0, 0.0, 0.0, 0.0, 0.0, 0.0, 0.0, 0.0, 1.663590500681786E9, 0.0, 2022-09-19 17:28:20.681
131.0, -6487.191496752679, 7703.819299199498, -24884.040639882165, -35359.9456381733, -187500.02235174447, -187500.02235174447, -3084.5854383212854, -14327.177623173908, 0.638, -0.79, 0.122, 192.0, 0.0, 0.0, 0.0, 0.0, 0.0, 0.0, 0.0, 0.0, 0.0, 1.6635905006857786E9, 0.0, 2022-09-19 17:28:20.685
132.0, -6508.470357474132, 7720.828976729987, -24968.59728915659, -35325.94863485678, -187500.02235174447, -187500.02235174447, -3109.7758543224163, -14395.216333295863, 0.638, -0.79, 0.122, 192.0, 0.0, 0.0, 0.0, 0.0, 0.0, 0.0, 0.0, 0.0, 0.0, 1.663590500688782E9, 0.0, 2022-09-19 17:28:20.688
133.0, -6534.756008953573, 7732.563642569023, -24970.787760113213, -35316.65030916337, -187500.02235174447, -187500.02235174447, -3118.4483311710756, -14406.548667734703, 0.638, -0.79, 0.122, 192.0, 0.0, 0.0, 0.0, 0.0, 0.0, 0.0, 0.0, 0.0, 0.0, 1.6635905006927545E9, 0.0, 2022-09-19 17:28:20.692
134.0, -6513.588906954397, 7741.616099073422, -24880.01732588021, -35349.32855955703, -187500.02235174447, -187500.02235174447, -3080.4503655970534, -14336.744169800779, 0.638, -0.79, 0.122, 192.0, 0.0, 0.0, 0.0, 0.0, 0.0, 0.0, 0.0, 0.0, 0.0, 1.6635905006968868E9, 0.0, 2022-09-19 17:28:20.696
135.0, -6488.800822353462, 7746.3099654090365, -24840.67825563887, -35374.40721683588, -187500.02235174447, -187500.02235174447, -3038.920824399093, -14296.891009436968, 0.638, -0.79, 0.122, 192.0, 0.0, 0.0, 0.0, 0.0, 0.0, 0.0, 0.0, 0.0, 0.0, 1.6635905007007887E9, 0.0, 2022-09-19 17:28:20.700
136.0, -6487.839697341883, 7759.698660337765, -24868.997915863743, -35371.5014900567, -187500.02235174447, -187500.02235174447, -3037.691478454051, -14315.554716057148, 0.636, -0.784, 0.124, 192.0, 19.0, 224.0, 231.0, 128.0, 3.0, 224.0, 0.0, 0.0, 0.0, 1.6635905007047892E9, 0.0, 2022-09-19 17:28:20.704
137.0, -6514.214755799146, 7777.602407646466, -24947.251373201772, -35336.76687917315, -187500.02235174447, -187500.02235174447, -3064.7594409894277, -14368.260129482762, 0.636, -0.784, 0.124, 192.0, 0.0, 0.0, 0.0, 0.0, 0.0, 0.0, 0.0, 0.0, 0.0, 1.6635905007097766E9, 0.0, 2022-09-19 17:28:20.709
138.0, -6538.779322955528, 7788.443003707291, -24945.12795747852, -35323.80286738907, -187500.02235174447, -187500.02235174447, -3072.18022014859, -14378.519580187749, 0.636, -0.784, 0.124, 192.0, 0.0, 0.0, 0.0, 0.0, 0.0, 0.0, 0.0, 0.0, 0.0, 1.6635905007138095E9, 0.0, 2022-09-19 17:28:20.713
139.0, -6509.207965041157, 7795.483803210713, -24851.608258677516, -35351.65314098038, -187500.02235174447, -187500.02235174447, -3035.568062730797, -14307.150460141953, 0.636, -0.784, 0.124, 192.0, 0.0, 0.0, 0.0, 0.0, 0.0, 0.0, 0.0, 0.0, 0.0, 1.6635905007168195E9, 0.0, 2022-09-19 17:28:20.716
140.0, -6473.08754600138, 7804.111576570461, -24818.304159439107, -35373.155519146385, -187500.02235174447, -187500.02235174447, -3009.4835769514534, -14262.290509020151, 0.636, -0.784, 0.124, 192.0, 0.0, 0.0, 0.0, 0.0, 0.0, 0.0, 0.0, 0.0, 0.0, 1.66359050072084E9, 0.0, 2022-09-19 17:28:20.720
141.0, -6458.715374316618, 7817.634381965921, -24858.53729945866, -35371.76971099016, -187500.02235174447, -187500.02235174447, -3011.3164199967887, -14296.511029781226, 0.636, -0.784, 0.124, 192.0, 0.0, 0.0, 0.0, 0.0, 0.0, 0.0, 0.0, 0.0, 0.0, 1.663590500724938E9, 0.0, 2022-09-19 17:28:20.724
142.0, -6473.109897745836, 7838.376800820447, -24937.707178319357, -35340.790193175104, -187500.02235174447, -187500.02235174447, -3043.011193634414, -14385.895655858, 0.636, -0.784, 0.124, 192.0, 0.0, 0.0, 0.0, 0.0, 0.0, 0.0, 0.0, 0.0, 0.0, 1.6635905007288651E9, 0.0, 2022-09-19 17:28:20.728
143.0, -6488.130270019802, 7857.576949307555, -24933.63916082849, -35327.13327731291, -187500.02235174447, -187500.02235174447, -3049.627309993185, -14398.680853686436, 0.636, -0.784, 0.124, 192.0, 0.0, 0.0, 0.0, 0.0, 0.0, 0.0, 0.0, 0.0, 0.0, 1.6635905007328372E9, 0.0, 2022-09-19 17:28:20.732
144.0, -6455.831999281883, 7867.434068612346, -24836.900810825922, -35356.458766038275, -187500.02235174447, -187500.02235174447, -2995.7149023669845, -14324.115434183532, 0.636, -0.784, 0.124, 192.0, 0.0, 0.0, 0.0, 0.0, 0.0, 0.0, 0.0, 0.0, 0.0, 1.6635905007378712E9, 0.0, 2022-09-19 17:28:20.737
145.0, -6430.485121069565, 7877.872333272974, -24798.567569085073, -35378.16230990438, -187500.02235174447, -187500.02235174447, -2960.041518216314, -14266.067953833099, 0.636, -0.784, 0.124, 192.0, 0.0, 0.0, 0.0, 0.0, 0.0, 0.0, 0.0, 0.0, 0.0, 1.6635905007418473E9, 0.0, 2022-09-19 17:28:20.741
