%OpenBCI Raw EEG Data
%Number of channels = 8
%Sample Rate = 250 Hz
%Board = OpenBCI_GUI$BoardCytonSerial
Sample Index, EXG Channel 0, EXG Channel 1, EXG Channel 2, EXG Channel 3, EXG Channel 4, EXG Channel 5, EXG Channel 6, EXG Channel 7, Accel Channel 0, Accel Channel 1, Accel Channel 2, Other, Other, Other, Other, Other, Other, Other, Analog Channel 0, Analog Channel 1, Analog Channel 2, Timestamp, Other, Timestamp (Formatted)
69.0, 18749.157339234036, 38899.27731743781, -40154.93126570359, -32140.51212555315, -187500.02235174447, -187500.02235174447, -3215.8572335073036, -46524.619641854726, 0.0, 0.0, 0.0, 192.0, 0.0, 0.0, 0.0, 0.0, 0.0, 0.0, 0.0, 0.0, 0.0, 1.663590983343736E9, 0.0, 2022-09-19 17:36:23.343
70.0, 18744.70934208743, 38870.06358743472, -40135.82052419431, -32034.09547020143, -187500.02235174447, -187500.02235174447, -3630.504444897705, -46237.53383607076, 0.672, -0.6980000000000001, 0.316, 192.0, 21.0, 0.0, 234.0, 48.0, 9.0, 224.0, 0.0, 0.0, 0.0, 1.6635909833437684E9, 0.0, 2022-09-19 17:36:23.343
71.0, 18454.69545777982, 39033.09721149173, -40049.90041850811, -31923.52139038103, -187500.02235174447, -187500.02235174447, -4679.292998229623, -45971.972760197255, 0.672, -0.6980000000000001, 0.316, 192.0, 0.0, 0.0, 0.0, 0.0, 0.0, 0.0, 0.0, 0.0, 0.0, 1.663590983343792E9, 0.0, 2022-09-19 17:36:23.343
72.0, 18268.818350889487, 39055.58306641377, -40050.5039156084, -31963.70982691167, -187500.02235174447, -187500.02235174447, -4611.991895674693, -46094.952058190356, 0.672, -0.6980000000000001, 0.316, 192.0, 0.0, 0.0, 0.0, 0.0, 0.0, 0.0, 0.0, 0.0, 0.0, 1.6635909833438122E9, 0.0, 2022-09-19 17:36:23.343
0.0, 0.0, 0.0, 0.0, 0.0, 0.0, 0.0, 0.0, 0.0, 0.648, -0.6900000000000001, 0.34, 192.0, 20.0, 64.0, 234.0, 112.0, 10.0, 160.0, 0.0, 0.0, 0.0, 1.6635909834461129E9, 0.0, 2022-09-19 17:36:23.446
2.0, 32361.526174727223, 47561.33825318077, -39699.76034161572, -22728.684273801362, -187500.02235174447, -187500.02235174447, -1036.2715764369461, -41196.053170687344, 0.648, -0.6900000000000001, 0.34, 192.0, 0.0, 0.0, 0.0, 0.0, 0.0, 0.0, 0.0, 0.0, 0.0, 1.6635909834601696E9, 0.0, 2022-09-19 17:36:23.460
3.0, 32032.57555157847, 47499.22275533948, -39700.18502476037, -22674.637755708427, -187500.02235174447, -187500.02235174447, -1314.5060914166083, -41177.523574533894, 0.648, -0.6900000000000001, 0.34, 192.0, 0.0, 0.0, 0.0, 0.0, 0.0, 0.0, 0.0, 0.0, 0.0, 1.6635909834641716E9, 0.0, 2022-09-19 17:36:23.464
4.0, 32181.46052139527, 47600.923192611124, -39779.31020013216, -22707.539523546642, -187500.02235174447, -187500.02235174447, -834.5247309833445, -41240.01905203093, 0.648, -0.6900000000000001, 0.34, 192.0, 0.0, 0.0, 0.0, 0.0, 0.0, 0.0, 0.0, 0.0, 0.0, 1.663590983468146E9, 0.0, 2022-09-19 17:36:23.468
5.0, 32744.165688057627, 47818.785645817, -39904.971707459896, -22787.35760299654, -187500.02235174447, -187500.02235174447, 57.265169294496694, -41355.868143542786, 0.648, -0.6900000000000001, 0.34, 192.0, 0.0, 0.0, 0.0, 0.0, 0.0, 0.0, 0.0, 0.0, 0.0, 1.66359098347123E9, 0.0, 2022-09-19 17:36:23.471
6.0, 33091.93648003775, 47875.737890689124, -39901.0154486913, -22826.361397071054, -187500.02235174447, -187500.02235174447, 205.0996071218976, -41369.05567277142, 0.648, -0.6900000000000001, 0.34, 192.0, 0.0, 0.0, 0.0, 0.0, 0.0, 0.0, 0.0, 0.0, 0.0, 1.6635909834751637E9, 0.0, 2022-09-19 17:36:23.475
7.0, 32506.790161942266, 47619.51984399794, -39715.495969712254, -22715.854372484016, -187500.02235174447, -187500.02235174447, -1027.241471677002, -41191.6722287741, 0.648, -0.6900000000000001, 0.34, 192.0, 0.0, 0.0, 0.0, 0.0, 0.0, 0.0, 0.0, 0.0, 0.0, 1.6635909834801612E9, 0.0, 2022-09-19 17:36:23.480
8.0, 32132.06316614904, 47538.561825580815, -39713.39490573346, -22679.845712166516, -187500.02235174447, -187500.02235174447, -1354.0686791025018, -41171.95799016452, 0.654, -0.71, 0.354, 192.0, 20.0, 112.0, 233.0, 208.0, 11.0, 16.0, 0.0, 0.0, 0.0, 1.6635909834841523E9, 0.0, 2022-09-19 17:36:23.484
9.0, 32266.799481725633, 47657.49545782751, -39787.13331069152, -22725.2644568997, -187500.02235174447, -187500.02235174447, -877.3283216152576, -41235.59340662878, 0.654, -0.71, 0.354, 192.0, 0.0, 0.0, 0.0, 0.0, 0.0, 0.0, 0.0, 0.0, 0.0, 1.6635909834882772E9, 0.0, 2022-09-19 17:36:23.488
10.0, 32812.00323247948, 47875.98375987813, -39895.315753855204, -22807.1836003284, -187500.02235174447, -187500.02235174447, 27.805570102401987, -41330.74478277502, 0.654, -0.71, 0.354, 192.0, 0.0, 0.0, 0.0, 0.0, 0.0, 0.0, 0.0, 0.0, 0.0, 1.6635909834921868E9, 0.0, 2022-09-19 17:36:23.492
11.0, 33183.71274277124, 47934.053591973025, -39888.1631956295, -22861.967725988357, -187500.02235174447, -187500.02235174447, 252.1947326892296, -41333.784620020946, 0.654, -0.71, 0.354, 192.0, 0.0, 0.0, 0.0, 0.0, 0.0, 0.0, 0.0, 0.0, 0.0, 1.663590983495181E9, 0.0, 2022-09-19 17:36:23.495
12.0, 32601.762724132866, 47681.16595520567, -39717.61938543551, -22756.2216229703, -187500.02235174447, -187500.02235174447, -990.2046311145582, -41176.04835939984, 0.654, -0.71, 0.354, 192.0, 0.0, 0.0, 0.0, 0.0, 0.0, 0.0, 0.0, 0.0, 0.0, 1.6635909834991822E9, 0.0, 2022-09-19 17:36:23.499
13.0, 32192.167006989363, 47597.52572745392, -39714.177216789394, -22700.92340718787, -187500.02235174447, -187500.02235174447, -1374.9899119126692, -41153.406042266615, 0.654, -0.71, 0.354, 192.0, 0.0, 0.0, 0.0, 0.0, 0.0, 0.0, 0.0, 0.0, 0.0, 1.663590983505206E9, 0.0, 2022-09-19 17:36:23.505
14.0, 32295.566176839613, 47698.39915018072, -39798.420941641445, -22736.149756449435, -187500.02235174447, -187500.02235174447, -921.4283134255784, -41218.71783956502, 0.654, -0.71, 0.354, 192.0, 0.0, 0.0, 0.0, 0.0, 0.0, 0.0, 0.0, 0.0, 0.0, 1.663590983508208E9, 0.0, 2022-09-19 17:36:23.508
15.0, 32818.23936918251, 47902.98466718014, -39908.61504180611, -22808.636463717994, -187500.02235174447, -187500.02235174447, -37.41682021818402, -41327.95081471811, 0.654, -0.71, 0.354, 192.0, 0.0, 0.0, 0.0, 0.0, 0.0, 0.0, 0.0, 0.0, 0.0, 1.6635909835123124E9, 0.0, 2022-09-19 17:36:23.512
16.0, 33246.47644120174, 48015.19042434578, -39911.69958254094, -22845.874469980536, -187500.02235174447, -187500.02235174447, 258.76614555908986, -41348.53677136145, 0.654, -0.71, 0.354, 192.0, 0.0, 0.0, 0.0, 0.0, 0.0, 0.0, 0.0, 0.0, 0.0, 1.6635909835162182E9, 0.0, 2022-09-19 17:36:23.516
17.0, 32691.259108931914, 47775.3785580848, -39728.59409196307, -22738.20611693932, -187500.02235174447, -187500.02235174447, -963.3378342792791, -41183.469138559005, 0.654, -0.71, 0.354, 192.0, 0.0, 0.0, 0.0, 0.0, 0.0, 0.0, 0.0, 0.0, 0.0, 1.6635909835202785E9, 0.0, 2022-09-19 17:36:23.520
18.0, 32273.370894595493, 47687.1562227197, -39701.459074194325, -22676.895281898414, -187500.02235174447, -187500.02235174447, -1383.0588916610352, -41140.822010138276, 0.634, -0.708, 0.358, 192.0, 19.0, 208.0, 233.0, 224.0, 11.0, 48.0, 0.0, 0.0, 0.0, 1.6635909835232346E9, 0.0, 2022-09-19 17:36:23.523
19.0, 32379.5416807582, 47782.28524712149, -39781.61242981105, -22718.022491696178, -187500.02235174447, -187500.02235174447, -937.5439211778547, -41206.26791790342, 0.634, -0.708, 0.358, 192.0, 0.0, 0.0, 0.0, 0.0, 0.0, 0.0, 0.0, 0.0, 0.0, 1.6635909835272276E9, 0.0, 2022-09-19 17:36:23.527
20.0, 32896.73869570955, 47981.573400685, -39902.20009114744, -22801.17098106992, -187500.02235174447, -187500.02235174447, -64.66359670920333, -41311.187006376626, 0.634, -0.708, 0.358, 192.0, 0.0, 0.0, 0.0, 0.0, 0.0, 0.0, 0.0, 0.0, 0.0, 1.6635909835312626E9, 0.0, 2022-09-19 17:36:23.531
21.0, 33356.37996868849, 48088.615904881466, -39909.28559413977, -22846.165042658457, -187500.02235174447, -187500.02235174447, 287.0858057839639, -41330.11893393027, 0.634, -0.708, 0.358, 192.0, 0.0, 0.0, 0.0, 0.0, 0.0, 0.0, 0.0, 0.0, 0.0, 1.663590983536267E9, 0.0, 2022-09-19 17:36:23.536
22.0, 32816.63004358173, 47825.22294822013, -39726.11304832853, -22743.995218753247, -187500.02235174447, -187500.02235174447, -924.8704820716956, -41178.998789667945, 0.634, -0.708, 0.358, 192.0, 0.0, 0.0, 0.0, 0.0, 0.0, 0.0, 0.0, 0.0, 0.0, 1.663590983540388E9, 0.0, 2022-09-19 17:36:23.540
23.0, 32372.187956832408, 47712.81602535439, -39693.5689084016, -22672.87196789646, -187500.02235174447, -187500.02235174447, -1398.3698366129204, -41139.212684537495, 0.634, -0.708, 0.358, 192.0, 0.0, 0.0, 0.0, 0.0, 0.0, 0.0, 0.0, 0.0, 0.0, 1.6635909835442452E9, 0.0, 2022-09-19 17:36:23.544
24.0, 32473.933097592962, 47813.71179982565, -39772.44821458438, -22709.819401481083, -187500.02235174447, -187500.02235174447, -964.8801046466953, -41206.58084232579, 0.634, -0.708, 0.358, 192.0, 0.0, 0.0, 0.0, 0.0, 0.0, 0.0, 0.0, 0.0, 0.0, 1.663590983548272E9, 0.0, 2022-09-19 17:36:23.548
25.0, 32982.52469092902, 48011.860014421945, -39903.60825104812, -22799.60635895805, -187500.02235174447, -187500.02235174447, -121.8617107703341, -41324.84392223882, 0.634, -0.708, 0.358, 192.0, 0.0, 0.0, 0.0, 0.0, 0.0, 0.0, 0.0, 0.0, 0.0, 1.6635909835512857E9, 0.0, 2022-09-19 17:36:23.551
26.0, 33467.222269442354, 48127.30677453361, -39917.24281516586, -22859.844310265104, -187500.02235174447, -187500.02235174447, 276.8487068234333, -41362.10428024582, 0.634, -0.708, 0.358, 192.0, 0.0, 0.0, 0.0, 0.0, 0.0, 0.0, 0.0, 0.0, 0.0, 1.6635909835552983E9, 0.0, 2022-09-19 17:36:23.555
27.0, 32963.86098430884, 47878.8000796795, -39736.46190601133, -22753.382951424475, -187500.02235174447, -187500.02235174447, -904.0833597282601, -41193.23685088597, 0.634, -0.708, 0.358, 192.0, 0.0, 0.0, 0.0, 0.0, 0.0, 0.0, 0.0, 0.0, 0.0, 1.6635909835593507E9, 0.0, 2022-09-19 17:36:23.559
28.0, 32501.358688039625, 47759.128839865785, -39707.58345217508, -22689.16638960438, -187500.02235174447, -187500.02235174447, -1421.2133194462442, -41154.07659460027, 0.624, -0.7020000000000001, 0.366, 192.0, 19.0, 128.0, 234.0, 16.0, 11.0, 112.0, 0.0, 0.0, 0.0, 1.6635909835633051E9, 0.0, 2022-09-19 17:36:23.563
29.0, 32586.004744291873, 47859.33171025893, -39784.987543223804, -22720.59294230854, -187500.02235174447, -187500.02235174447, -993.6020962717648, -41214.96274649653, 0.624, -0.7020000000000001, 0.366, 192.0, 0.0, 0.0, 0.0, 0.0, 0.0, 0.0, 0.0, 0.0, 0.0, 1.6635909835683148E9, 0.0, 2022-09-19 17:36:23.568
30.0, 33081.36410491039, 48073.88610528542, -39906.156349916026, -22792.207931543344, -187500.02235174447, -187500.02235174447, -156.48456293160476, -41313.1986633776, 0.624, -0.7020000000000001, 0.366, 192.0, 0.0, 0.0, 0.0, 0.0, 0.0, 0.0, 0.0, 0.0, 0.0, 1.6635909835723891E9, 0.0, 2022-09-19 17:36:23.572
31.0, 33599.8798727846, 48215.015019776234, -39919.56739658921, -22841.04649317819, -187500.02235174447, -187500.02235174447, 310.8680618844106, -41347.21801843858, 0.624, -0.7020000000000001, 0.366, 192.0, 0.0, 0.0, 0.0, 0.0, 0.0, 0.0, 0.0, 0.0, 0.0, 1.6635909835763917E9, 0.0, 2022-09-19 17:36:23.576
32.0, 33113.12593378138, 47978.60061867245, -39739.30057755716, -22750.03018975618, -187500.02235174447, -187500.02235174447, -839.4644665079674, -41203.76452252442, 0.624, -0.7020000000000001, 0.366, 192.0, 0.0, 0.0, 0.0, 0.0, 0.0, 0.0, 0.0, 0.0, 0.0, 1.663590983579526E9, 0.0, 2022-09-19 17:36:23.579
33.0, 32615.50904697288, 47838.00814604857, -39703.31426898411, -22684.718392457773, -187500.02235174447, -187500.02235174447, -1419.4698833787304, -41155.48475450096, 0.624, -0.7020000000000001, 0.366, 192.0, 0.0, 0.0, 0.0, 0.0, 0.0, 0.0, 0.0, 0.0, 0.0, 1.663590983583387E9, 0.0, 2022-09-19 17:36:23.583
34.0, 32695.46123688951, 47939.44036238675, -39771.06240642815, -22711.74165150424, -187500.02235174447, -187500.02235174447, -1003.9733056990274, -41200.657630045134, 0.624, -0.7020000000000001, 0.366, 192.0, 0.0, 0.0, 0.0, 0.0, 0.0, 0.0, 0.0, 0.0, 0.0, 1.663590983587452E9, 0.0, 2022-09-19 17:36:23.587
35.0, 33188.786588762596, 48153.92770217988, -39891.15832938651, -22783.51310295023, -187500.02235174447, -187500.02235174447, -158.36210946585055, -41301.93338417213, 0.624, -0.7020000000000001, 0.366, 192.0, 0.0, 0.0, 0.0, 0.0, 0.0, 0.0, 0.0, 0.0, 0.0, 1.6635909835914795E9, 0.0, 2022-09-19 17:36:23.591
36.0, 33711.86211250569, 48289.58043927913, -39937.58290262019, -22846.209746147364, -187500.02235174447, -187500.02235174447, 340.88645468788803, -41357.09748948783, 0.624, -0.7020000000000001, 0.366, 192.0, 0.0, 0.0, 0.0, 0.0, 0.0, 0.0, 0.0, 0.0, 0.0, 1.6635909835953925E9, 0.0, 2022-09-19 17:36:23.595
37.0, 33226.06929851405, 48042.72777351472, -39770.593019794585, -22765.83287308608, -187500.02235174447, -187500.02235174447, -813.3352772397134, -41226.473894891016, 0.624, -0.7020000000000001, 0.366, 192.0, 0.0, 0.0, 0.0, 0.0, 0.0, 0.0, 0.0, 0.0, 0.0, 1.6635909836003892E9, 0.0, 2022-09-19 17:36:23.600
38.0, 32705.09483874975, 47899.497795045114, -39707.270527752706, -22667.97693586075, -187500.02235174447, -187500.02235174447, -1436.7924853315933, -41151.14851607663, 0.636, -0.708, 0.372, 192.0, 19.0, 224.0, 233.0, 224.0, 11.0, 160.0, 0.0, 0.0, 0.0, 1.663590983604394E9, 0.0, 2022-09-19 17:36:23.604
39.0, 32768.79731044737, 47997.44313924827, -39771.33062736161, -22672.648450451907, -187500.02235174447, -187500.02235174447, -1030.9071577676723, -41191.985153196474, 0.636, -0.708, 0.372, 192.0, 0.0, 0.0, 0.0, 0.0, 0.0, 0.0, 0.0, 0.0, 0.0, 1.6635909836073844E9, 0.0, 2022-09-19 17:36:23.607
40.0, 33233.46772592876, 48189.66814156391, -39883.40227406052, -22737.133233205466, -187500.02235174447, -187500.02235174447, -210.59813625790315, -41289.394055532706, 0.636, -0.708, 0.372, 192.0, 0.0, 0.0, 0.0, 0.0, 0.0, 0.0, 0.0, 0.0, 0.0, 1.663590983611404E9, 0.0, 2022-09-19 17:36:23.611
41.0, 33781.93483137308, 48334.216872956385, -39926.80936179273, -22801.595664214572, -187500.02235174447, -187500.02235174447, 347.4578675577483, -41339.506666601505, 0.636, -0.708, 0.372, 192.0, 0.0, 0.0, 0.0, 0.0, 0.0, 0.0, 0.0, 0.0, 0.0, 1.6635909836154191E9, 0.0, 2022-09-19 17:36:23.615
42.0, 33344.198267960346, 48092.63921888342, -39743.23448458129, -22712.367500348988, -187500.02235174447, -187500.02235174447, -751.8903317320743, -41176.98713266697, 0.636, -0.708, 0.372, 192.0, 0.0, 0.0, 0.0, 0.0, 0.0, 0.0, 0.0, 0.0, 0.0, 1.6635909836194017E9, 0.0, 2022-09-19 17:36:23.619
43.0, 32791.886662469704, 47914.898146974825, -39691.95958280082, -22637.265638979155, -187500.02235174447, -187500.02235174447, -1441.3298894560207, -41104.388666676125, 0.636, -0.708, 0.372, 192.0, 0.0, 0.0, 0.0, 0.0, 0.0, 0.0, 0.0, 0.0, 0.0, 1.663590983623498E9, 0.0, 2022-09-19 17:36:23.623
44.0, 32821.815648295364, 47983.49565070816, -39767.0837959151, -22672.87196789646, -187500.02235174447, -187500.02235174447, -1066.6028936627977, -41169.275780829885, 0.636, -0.708, 0.372, 192.0, 0.0, 0.0, 0.0, 0.0, 0.0, 0.0, 0.0, 0.0, 0.0, 1.6635909836284215E9, 0.0, 2022-09-19 17:36:23.628
45.0, 33266.83888040053, 48168.67985352038, -39878.17196585798, -22748.800843811136, -187500.02235174447, -187500.02235174447, -262.4318316497602, -41268.22695353353, 0.636, -0.708, 0.372, 192.0, 0.0, 0.0, 0.0, 0.0, 0.0, 0.0, 0.0, 0.0, 0.0, 1.663590983631416E9, 0.0, 2022-09-19 17:36:23.631
46.0, 33840.988140224, 48327.42194264197, -39936.93470203099, -22823.3886150585, -187500.02235174447, -187500.02235174447, 347.41316406883766, -41332.443515353625, 0.636, -0.708, 0.372, 192.0, 0.0, 0.0, 0.0, 0.0, 0.0, 0.0, 0.0, 0.0, 0.0, 1.6635909836354473E9, 0.0, 2022-09-19 17:36:23.635
47.0, 33429.336062590606, 48095.99198055172, -39760.802955723164, -22739.591925095552, -187500.02235174447, -187500.02235174447, -712.99829637984, -41181.1222053912, 0.636, -0.708, 0.372, 192.0, 0.0, 0.0, 0.0, 0.0, 0.0, 0.0, 0.0, 0.0, 0.0, 1.6635909836394453E9, 0.0, 2022-09-19 17:36:23.639
48.0, 32860.21594526958, 47924.397638368326, -39686.773978087185, -22645.021694305146, -187500.02235174447, -187500.02235174447, -1430.9810317732135, -41093.99510550441, 0.634, -0.704, 0.372, 192.0, 19.0, 208.0, 234.0, 0.0, 11.0, 160.0, 0.0, 0.0, 0.0, 1.6635909836434257E9, 0.0, 2022-09-19 17:36:23.643
49.0, 32887.37331478278, 47995.78911015858, -39758.992464422285, -22671.68732544033, -187500.02235174447, -187500.02235174447, -1063.49600118351, -41153.65191145562, 0.634, -0.704, 0.372, 192.0, 0.0, 0.0, 0.0, 0.0, 0.0, 0.0, 0.0, 0.0, 0.0, 1.6635909836474695E9, 0.0, 2022-09-19 17:36:23.647
50.0, 33319.83486650406, 48178.805193758635, -39871.98053264386, -22748.756140322228, -187500.02235174447, -187500.02235174447, -274.18884923325174, -41255.53116268291, 0.634, -0.704, 0.372, 192.0, 0.0, 0.0, 0.0, 0.0, 0.0, 0.0, 0.0, 0.0, 0.0, 1.6635909836525269E9, 0.0, 2022-09-19 17:36:23.652
51.0, 33924.650719720215, 48360.56957966919, -39936.73353633089, -22829.55769652816, -187500.02235174447, -187500.02235174447, 384.96409475375356, -41329.4036781077, 0.634, -0.704, 0.372, 192.0, 0.0, 0.0, 0.0, 0.0, 0.0, 0.0, 0.0, 0.0, 0.0, 1.663590983656454E9, 0.0, 2022-09-19 17:36:23.656
52.0, 33553.29883733974, 48148.54093176615, -39766.99438893728, -22749.56080312262, -187500.02235174447, -187500.02235174447, -646.9265397699523, -41182.57506878079, 0.634, -0.704, 0.372, 192.0, 0.0, 0.0, 0.0, 0.0, 0.0, 0.0, 0.0, 0.0, 0.0, 1.663590983660466E9, 0.0, 2022-09-19 17:36:23.660
53.0, 32964.1292052423, 47960.65216787484, -39689.165614743906, -22650.699037396793, -187500.02235174447, -187500.02235174447, -1429.4834648947078, -41098.599564862205, 0.634, -0.704, 0.372, 192.0, 0.0, 0.0, 0.0, 0.0, 0.0, 0.0, 0.0, 0.0, 0.0, 1.6635909836644976E9, 0.0, 2022-09-19 17:36:23.664
54.0, 32980.46833043913, 48039.464418824246, -39756.08673764309, -22669.094523083513, -187500.02235174447, -187500.02235174447, -1080.7738996474625, -41149.00274860892, 0.634, -0.704, 0.372, 192.0, 0.0, 0.0, 0.0, 0.0, 0.0, 0.0, 0.0, 0.0, 0.0, 1.663590983668685E9, 0.0, 2022-09-19 17:36:23.668
55.0, 33411.40996353745, 48237.67968865391, -39861.43050926096, -22734.36161689301, -187500.02235174447, -187500.02235174447, -298.23932626716214, -41233.76056358344, 0.634, -0.704, 0.372, 192.0, 0.0, 0.0, 0.0, 0.0, 0.0, 0.0, 0.0, 0.0, 0.0, 1.6635909836716008E9, 0.0, 2022-09-19 17:36:23.671
56.0, 34029.435697726694, 48431.670478781525, -39940.980367777396, -22813.442088775886, -187500.02235174447, -187500.02235174447, 390.32851342302723, -41314.11508490027, 0.634, -0.704, 0.372, 192.0, 0.0, 0.0, 0.0, 0.0, 0.0, 0.0, 0.0, 0.0, 0.0, 1.6635909836754863E9, 0.0, 2022-09-19 17:36:23.675
57.0, 33685.062370903775, 48221.586432646094, -39777.812633253656, -22744.64341934245, -187500.02235174447, -187500.02235174447, -596.7245217233326, -41178.8199757123, 0.634, -0.704, 0.372, 192.0, 0.0, 0.0, 0.0, 0.0, 0.0, 0.0, 0.0, 0.0, 0.0, 1.6635909836795087E9, 0.0, 2022-09-19 17:36:23.679
58.0, 33076.20085194121, 48030.6354797644, -39690.059684522115, -22644.619362904952, -187500.02235174447, -187500.02235174447, -1426.4212759043307, -41080.18172743103, 0.636, -0.706, 0.368, 192.0, 19.0, 224.0, 233.0, 240.0, 11.0, 128.0, 0.0, 0.0, 0.0, 1.6635909836845508E9, 0.0, 2022-09-19 17:36:23.684
59.0, 33074.122139706866, 48108.91128884689, -39758.88070570001, -22649.0450083071, -187500.02235174447, -187500.02235174447, -1102.79036793594, -41129.46732395498, 0.636, -0.706, 0.368, 192.0, 0.0, 0.0, 0.0, 0.0, 0.0, 0.0, 0.0, 0.0, 0.0, 1.6635909836875083E9, 0.0, 2022-09-19 17:36:23.687
60.0, 33481.43797891593, 48298.61054403908, -39869.70065470942, -22716.390814350943, -187500.02235174447, -187500.02235174447, -339.81357095403325, -41233.090011249784, 0.636, -0.706, 0.368, 192.0, 0.0, 0.0, 0.0, 0.0, 0.0, 0.0, 0.0, 0.0, 0.0, 1.6635909836915336E9, 0.0, 2022-09-19 17:36:23.691
61.0, 34109.27612892105, 48486.342845719206, -39947.35061494716, -22802.22151305932, -187500.02235174447, -187500.02235174447, 403.8736705629433, -41313.44453256662, 0.636, -0.706, 0.368, 192.0, 0.0, 0.0, 0.0, 0.0, 0.0, 0.0, 0.0, 0.0, 0.0, 1.6635909836955204E9, 0.0, 2022-09-19 17:36:23.695
62.0, 33788.528595987395, 48277.21992459535, -39783.06529320065, -22741.02243674069, -187500.02235174447, -187500.02235174447, -542.7897623526767, -41184.13969089266, 0.636, -0.706, 0.368, 192.0, 0.0, 0.0, 0.0, 0.0, 0.0, 0.0, 0.0, 0.0, 0.0, 1.6635909836995406E9, 0.0, 2022-09-19 17:36:23.699
63.0, 33158.56703025902, 48063.91722725835, -39682.54949838513, -22626.2909324516, -187500.02235174447, -187500.02235174447, -1422.8449967914817, -41077.72303554095, 0.636, -0.706, 0.368, 192.0, 0.0, 0.0, 0.0, 0.0, 0.0, 0.0, 0.0, 0.0, 0.0, 1.6635909837035916E9, 0.0, 2022-09-19 17:36:23.703
64.0, 33137.26581779311, 48125.116303576986, -39750.49880152927, -22629.174307486333, -187500.02235174447, -187500.02235174447, -1118.1236646322805, -41113.26230922488, 0.636, -0.706, 0.368, 192.0, 0.0, 0.0, 0.0, 0.0, 0.0, 0.0, 0.0, 0.0, 0.0, 1.663590983707658E9, 0.0, 2022-09-19 17:36:23.707
65.0, 33522.83340964716, 48297.93999170542, -39862.32457903917, -22689.278148326655, -187500.02235174447, -187500.02235174447, -375.91163824935416, -41204.70329579154, 0.636, -0.706, 0.368, 192.0, 0.0, 0.0, 0.0, 0.0, 0.0, 0.0, 0.0, 0.0, 0.0, 1.6635909837125702E9, 0.0, 2022-09-19 17:36:23.712
66.0, 34160.32751325697, 48499.329209247735, -39957.4312516965, -22782.149646538455, -187500.02235174447, -187500.02235174447, 384.7405773092005, -41300.50287252699, 0.636, -0.706, 0.368, 192.0, 0.0, 0.0, 0.0, 0.0, 0.0, 0.0, 0.0, 0.0, 0.0, 1.6635909837155547E9, 0.0, 2022-09-19 17:36:23.715
67.0, 33878.20379474208, 48306.880689487545, -39798.08566547462, -22726.180878422365, -187500.02235174447, -187500.02235174447, -516.9287940178864, -41162.25733307092, 0.636, -0.706, 0.368, 192.0, 0.0, 0.0, 0.0, 0.0, 0.0, 0.0, 0.0, 0.0, 0.0, 1.6635909837196343E9, 0.0, 2022-09-19 17:36:23.719
68.0, 33222.20244672328, 48083.027968767645, -39684.38234143047, -22617.283179436112, -187500.02235174447, -187500.02235174447, -1441.1510755003783, -41039.41214554455, 0.646, -0.704, 0.366, 192.0, 20.0, 48.0, 234.0, 0.0, 11.0, 112.0, 0.0, 0.0, 0.0, 1.663590983723585E9, 0.0, 2022-09-19 17:36:23.723
69.0, 33180.89642296987, 48146.931606165366, -39751.81755445213, -22612.991644500693, -187500.02235174447, -187500.02235174447, -1159.6308540857858, -41080.38289313113, 0.646, -0.704, 0.366, 192.0, 0.0, 0.0, 0.0, 0.0, 0.0, 0.0, 0.0, 0.0, 0.0, 1.6635909837275796E9, 0.0, 2022-09-19 17:36:23.727
70.0, 33561.814851977215, 48334.12746597856, -39857.04956734771, -22664.49006372572, -187500.02235174447, -187500.02235174447, -427.5665196855688, -41173.70142623204, 0.646, -0.704, 0.366, 192.0, 0.0, 0.0, 0.0, 0.0, 0.0, 0.0, 0.0, 0.0, 0.0, 1.6635909837316067E9, 0.0, 2022-09-19 17:36:23.731
71.0, 34209.23313012518, 48537.81891319978, -39961.00753080935, -22757.36156193752, -187500.02235174447, -187500.02235174447, 369.40728061285984, -41276.519450726446, 0.646, -0.704, 0.366, 192.0, 0.0, 0.0, 0.0, 0.0, 0.0, 0.0, 0.0, 0.0, 0.0, 1.6635909837356145E9, 0.0, 2022-09-19 17:36:23.735
72.0, 33971.09764469834, 48354.80282959972, -39803.651249843984, -22686.81945643657, -187500.02235174447, -187500.02235174447, -463.3740143029707, -41146.43229799656, 0.646, -0.704, 0.366, 192.0, 0.0, 0.0, 0.0, 0.0, 0.0, 0.0, 0.0, 0.0, 0.0, 1.6635909837406397E9, 0.0, 2022-09-19 17:36:23.740
73.0, 33299.24890986072, 48112.599326682015, -39691.80312058963, -22579.03934467308, -187500.02235174447, -187500.02235174447, -1438.8264940770262, -41029.62208147313, 0.646, -0.704, 0.366, 192.0, 0.0, 0.0, 0.0, 0.0, 0.0, 0.0, 0.0, 0.0, 0.0, 1.6635909837436895E9, 0.0, 2022-09-19 17:36:23.743
74.0, 33236.68637713032, 48173.95486521183, -39754.72328123132, -22593.210350657744, -187500.02235174447, -187500.02235174447, -1180.3062177069448, -41086.909602512074, 0.646, -0.704, 0.366, 192.0, 0.0, 0.0, 0.0, 0.0, 0.0, 0.0, 0.0, 0.0, 0.0, 1.6635909837476368E9, 0.0, 2022-09-19 17:36:23.747
75.0, 33605.914843787534, 48363.87763784858, -39848.93588411044, -22647.05570305058, -187500.02235174447, -187500.02235174447, -449.18065657385074, -41159.99980688093, 0.646, -0.704, 0.366, 192.0, 0.0, 0.0, 0.0, 0.0, 0.0, 0.0, 0.0, 0.0, 0.0, 1.6635909837526615E9, 0.0, 2022-09-19 17:36:23.752
76.0, 34288.671229919346, 48600.0238180189, -39940.5780363772, -22725.398567366432, -187500.02235174447, -187500.02235174447, 394.9553245252758, -41234.699336850565, 0.646, -0.704, 0.366, 192.0, 0.0, 0.0, 0.0, 0.0, 0.0, 0.0, 0.0, 0.0, 0.0, 1.6635909837556455E9, 0.0, 2022-09-19 17:36:23.755
77.0, 34089.628945544835, 48438.59951956267, -39806.333459178626, -22679.06340111058, -187500.02235174447, -187500.02235174447, -407.0699700200522, -41121.91243432909, 0.646, -0.704, 0.366, 192.0, 0.0, 0.0, 0.0, 0.0, 0.0, 0.0, 0.0, 0.0, 0.0, 1.6635909837586415E9, 0.0, 2022-09-19 17:36:23.758
78.0, 33406.537283246194, 48185.73423453978, -39696.16171075842, -22571.55151028055, -187500.02235174447, -187500.02235174447, -1440.1005435109787, -40998.620211913614, 0.654, -0.718, 0.364, 192.0, 20.0, 112.0, 233.0, 144.0, 11.0, 96.0, 0.0, 0.0, 0.0, 1.6635909837636647E9, 0.0, 2022-09-19 17:36:23.763
79.0, 33335.70460506733, 48244.27345326823, -39762.74755749077, -22583.95672845325, -187500.02235174447, -187500.02235174447, -1207.9553255981596, -41051.39268057259, 0.654, -0.718, 0.364, 192.0, 0.0, 0.0, 0.0, 0.0, 0.0, 0.0, 0.0, 0.0, 0.0, 1.663590983767658E9, 0.0, 2022-09-19 17:36:23.767
80.0, 33718.29941490882, 48458.40316515007, -39852.62392194557, -22627.185002229813, -187500.02235174447, -187500.02235174447, -482.48475581225824, -41118.82789359426, 0.654, -0.718, 0.364, 192.0, 0.0, 0.0, 0.0, 0.0, 0.0, 0.0, 0.0, 0.0, 0.0, 1.6635909837716565E9, 0.0, 2022-09-19 17:36:23.771
81.0, 34433.82345841211, 48708.720351305055, -39953.542048161275, -22711.026395681667, -187500.02235174447, -187500.02235174447, 391.44610064579257, -41213.35342089575, 0.654, -0.718, 0.364, 192.0, 0.0, 0.0, 0.0, 0.0, 0.0, 0.0, 0.0, 0.0, 0.0, 1.663590983775679E9, 0.0, 2022-09-19 17:36:23.775
82.0, 34317.70614596679, 48578.610846830714, -39823.857226831584, -22672.91667138537, -187500.02235174447, -187500.02235174447, -322.66978295681275, -41105.014515520874, 0.654, -0.718, 0.364, 192.0, 0.0, 0.0, 0.0, 0.0, 0.0, 0.0, 0.0, 0.0, 0.0, 1.6635909837797005E9, 0.0, 2022-09-19 17:36:23.779
83.0, 33680.167338868065, 48351.36066095361, -39704.40950446243, -22559.481568274685, -187500.02235174447, -187500.02235174447, -1360.8859611613705, -40974.14505173505, 0.654, -0.718, 0.364, 192.0, 0.0, 0.0, 0.0, 0.0, 0.0, 0.0, 0.0, 0.0, 0.0, 1.663590983783686E9, 0.0, 2022-09-19 17:36:23.783
84.0, 33603.00911700835, 48375.455841476425, -39755.840868454085, -22571.283289347088, -187500.02235174447, -187500.02235174447, -1159.9661302526154, -41029.957357639956, 0.654, -0.718, 0.364, 192.0, 0.0, 0.0, 0.0, 0.0, 0.0, 0.0, 0.0, 0.0, 0.0, 1.6635909837867289E9, 0.0, 2022-09-19 17:36:23.786
85.0, 33904.8023706439, 48495.52941269033, -39848.77942189925, -22634.583429644517, -187500.02235174447, -187500.02235174447, -487.80447099262136, -41122.225358751464, 0.654, -0.718, 0.364, 192.0, 0.0, 0.0, 0.0, 0.0, 0.0, 0.0, 0.0, 0.0, 0.0, 1.6635909837917128E9, 0.0, 2022-09-19 17:36:23.791
86.0, 34589.65982075451, 48728.278127703445, -39964.04736805527, -22722.82811675407, -187500.02235174447, -187500.02235174447, 399.7162460942562, -41214.515711607426, 0.654, -0.718, 0.364, 192.0, 0.0, 0.0, 0.0, 0.0, 0.0, 0.0, 0.0, 0.0, 0.0, 1.6635909837957091E9, 0.0, 2022-09-19 17:36:23.795
87.0, 34486.12654043753, 48592.53598362637, -39832.86497984707, -22692.474447783763, -187500.02235174447, -187500.02235174447, -271.8195643209892, -41110.200120234505, 0.654, -0.718, 0.364, 192.0, 0.0, 0.0, 0.0, 0.0, 0.0, 0.0, 0.0, 0.0, 0.0, 1.6635909837997072E9, 0.0, 2022-09-19 17:36:23.799
88.0, 33785.8240349083, 48314.99437272482, -39699.782693360175, -22577.497074305666, -187500.02235174447, -187500.02235174447, -1378.901467192348, -40974.16740347951, 0.644, -0.71, 0.362, 192.0, 20.0, 32.0, 233.0, 208.0, 11.0, 80.0, 0.0, 0.0, 0.0, 1.6635909838037455E9, 0.0, 2022-09-19 17:36:23.803
89.0, 33688.1022081497, 48357.59679765663, -39759.66301675594, -22570.210405613234, -187500.02235174447, -187500.02235174447, -1209.9893343435924, -41007.3820957401, 0.644, -0.71, 0.362, 192.0, 0.0, 0.0, 0.0, 0.0, 0.0, 0.0, 0.0, 0.0, 0.0, 1.6635909838088472E9, 0.0, 2022-09-19 17:36:23.808
90.0, 34039.985721109595, 48554.29214886334, -39853.026253345764, -22628.05672026357, -187500.02235174447, -187500.02235174447, -530.5186546467131, -41091.26819268086, 0.644, -0.71, 0.362, 192.0, 0.0, 0.0, 0.0, 0.0, 0.0, 0.0, 0.0, 0.0, 0.0, 1.6635909838127496E9, 0.0, 2022-09-19 17:36:23.812
91.0, 34766.68563684054, 48809.21379437611, -39964.00266456636, -22718.268360885188, -187500.02235174447, -187500.02235174447, 396.58700187051323, -41189.99584793995, 0.644, -0.71, 0.362, 192.0, 0.0, 0.0, 0.0, 0.0, 0.0, 0.0, 0.0, 0.0, 0.0, 1.6635909838157463E9, 0.0, 2022-09-19 17:36:23.815
92.0, 34731.481639323436, 48696.78451976592, -39847.147744554015, -22694.82138095157, -187500.02235174447, -187500.02235174447, -203.64674373230264, -41090.30706766928, 0.644, -0.71, 0.362, 192.0, 0.0, 0.0, 0.0, 0.0, 0.0, 0.0, 0.0, 0.0, 0.0, 1.6635909838197794E9, 0.0, 2022-09-19 17:36:23.819
93.0, 34050.02165437003, 48432.11751367063, -39709.30453649814, -22571.886786447383, -187500.02235174447, -187500.02235174447, -1336.902539360826, -40949.424022367486, 0.644, -0.71, 0.362, 192.0, 0.0, 0.0, 0.0, 0.0, 0.0, 0.0, 0.0, 0.0, 0.0, 1.6635909838237655E9, 0.0, 2022-09-19 17:36:23.823
94.0, 33954.64676077924, 48474.36231069116, -39760.19945862287, -22558.36398105192, -187500.02235174447, -187500.02235174447, -1183.8601450753386, -40980.00120878234, 0.644, -0.71, 0.362, 192.0, 0.0, 0.0, 0.0, 0.0, 0.0, 0.0, 0.0, 0.0, 0.0, 1.6635909838277624E9, 0.0, 2022-09-19 17:36:23.827
95.0, 34300.09297133601, 48651.11990584373, -39863.442166261935, -22617.752566069674, -187500.02235174447, -187500.02235174447, -527.7917418231657, -41055.438346319, 0.644, -0.71, 0.362, 192.0, 0.0, 0.0, 0.0, 0.0, 0.0, 0.0, 0.0, 0.0, 0.0, 1.6635909838317697E9, 0.0, 2022-09-19 17:36:23.831
96.0, 35044.093137275355, 48918.31265906247, -39980.65471418556, -22706.82426772407, -187500.02235174447, -187500.02235174447, 400.74442633920034, -41154.23305681146, 0.644, -0.71, 0.362, 192.0, 0.0, 0.0, 0.0, 0.0, 0.0, 0.0, 0.0, 0.0, 0.0, 1.6635909838357995E9, 0.0, 2022-09-19 17:36:23.835
97.0, 35057.50418394854, 48822.803655004944, -39854.2555992908, -22678.05757261009, -187500.02235174447, -187500.02235174447, -129.17073120721952, -41056.55593354177, 0.644, -0.71, 0.362, 192.0, 0.0, 0.0, 0.0, 0.0, 0.0, 0.0, 0.0, 0.0, 0.0, 1.6635909838398197E9, 0.0, 2022-09-19 17:36:23.839
98.0, 34355.81587026309, 48541.08226789025, -39701.3696672165, -22559.302754319044, -187500.02235174447, -187500.02235174447, -1296.1776609632566, -40906.59807999111, 0.644, -0.71, 0.362, 192.0, 0.0, 0.0, 0.0, 0.0, 0.0, 0.0, 0.0, 0.0, 0.0, 1.6635909838428063E9, 0.0, 2022-09-19 17:36:23.842
99.0, 34206.52856904609, 48542.7586487244, -39749.94000791788, -22541.488413988165, -187500.02235174447, -187500.02235174447, -1194.9689620696263, -40940.10334492962, 0.652, -0.712, 0.366, 192.0, 20.0, 96.0, 233.0, 192.0, 11.0, 112.0, 0.0, 0.0, 0.0, 1.663590983846789E9, 0.0, 2022-09-19 17:36:23.846
100.0, 34486.10418869307, 48667.50373452947, -39849.114698066085, -22593.500923335665, -187500.02235174447, -187500.02235174447, -567.7566609092547, -41037.31108156575, 0.652, -0.712, 0.366, 192.0, 0.0, 0.0, 0.0, 0.0, 0.0, 0.0, 0.0, 0.0, 0.0, 1.6635909838518515E9, 0.0, 2022-09-19 17:36:23.851
101.0, 35165.37370268985, 48889.7918331375, -39960.00170230886, -22685.903034913903, -187500.02235174447, -187500.02235174447, 365.69689103327886, -41151.036757354355, 0.652, -0.712, 0.366, 192.0, 0.0, 0.0, 0.0, 0.0, 0.0, 0.0, 0.0, 0.0, 0.0, 1.6635909838558118E9, 0.0, 2022-09-19 17:36:23.855
102.0, 35148.52048737055, 48761.02343333047, -39851.08165157815, -22668.53572947213, -187500.02235174447, -187500.02235174447, -123.58279509339275, -41073.47620409444, 0.652, -0.712, 0.366, 192.0, 0.0, 0.0, 0.0, 0.0, 0.0, 0.0, 0.0, 0.0, 0.0, 1.6635909838598151E9, 0.0, 2022-09-19 17:36:23.859
103.0, 34385.074303755086, 48432.072810181715, -39690.57377464459, -22547.903364646838, -187500.02235174447, -187500.02235174447, -1338.1095335614127, -40925.842931967134, 0.652, -0.712, 0.366, 192.0, 0.0, 0.0, 0.0, 0.0, 0.0, 0.0, 0.0, 0.0, 0.0, 1.663590983863845E9, 0.0, 2022-09-19 17:36:23.863
104.0, 34173.179766318775, 48414.48198729539, -39729.91284488593, -22536.638085441362, -187500.02235174447, -187500.02235174447, -1266.4498408376983, -40950.22868516787, 0.652, -0.712, 0.366, 192.0, 0.0, 0.0, 0.0, 0.0, 0.0, 0.0, 0.0, 0.0, 0.0, 1.663590983866846E9, 0.0, 2022-09-19 17:36:23.866
105.0, 34425.5756647081, 48569.312521137304, -39812.614299370565, -22583.554397053053, -187500.02235174447, -187500.02235174447, -637.8517315210977, -41020.25670054635, 0.652, -0.712, 0.366, 192.0, 0.0, 0.0, 0.0, 0.0, 0.0, 0.0, 0.0, 0.0, 0.0, 1.6635909838708932E9, 0.0, 2022-09-19 17:36:23.870
106.0, 35097.714972223635, 48811.56072754392, -39934.96774851892, -22675.978860375748, -187500.02235174447, -187500.02235174447, 313.5949747079581, -41149.71800443149, 0.652, -0.712, 0.366, 192.0, 0.0, 0.0, 0.0, 0.0, 0.0, 0.0, 0.0, 0.0, 0.0, 1.663590983874832E9, 0.0, 2022-09-19 17:36:23.874
107.0, 35111.841274719394, 48709.904993761185, -39841.42569797346, -22672.804912663094, -187500.02235174447, -187500.02235174447, -110.05998969793198, -41093.771588059855, 0.652, -0.712, 0.366, 192.0, 0.0, 0.0, 0.0, 0.0, 0.0, 0.0, 0.0, 0.0, 0.0, 1.6635909838798635E9, 0.0, 2022-09-19 17:36:23.879
108.0, 34332.79357347412, 48382.47428923539, -39674.391111658944, -22553.17837633829, -187500.02235174447, -187500.02235174447, -1346.4467342432422, -40937.68935652845, 0.652, -0.712, 0.366, 192.0, 0.0, 0.0, 0.0, 0.0, 0.0, 0.0, 0.0, 0.0, 0.0, 1.6635909838838596E9, 0.0, 2022-09-19 17:36:23.883
109.0, 34094.658088047276, 48355.3616232111, -39709.773923131695, -22535.453442985232, -187500.02235174447, -187500.02235174447, -1304.1125302448906, -40961.82924054018, 0.646, -0.7020000000000001, 0.364, 192.0, 20.0, 48.0, 234.0, 16.0, 11.0, 96.0, 0.0, 0.0, 0.0, 1.6635909838878615E9, 0.0, 2022-09-19 17:36:23.887
110.0, 34319.22606458975, 48488.95799982047, -39804.433560899924, -22594.842028002982, -187500.02235174447, -187500.02235174447, -693.5075752148123, -41049.04574740479, 0.646, -0.7020000000000001, 0.364, 192.0, 0.0, 0.0, 0.0, 0.0, 0.0, 0.0, 0.0, 0.0, 0.0, 1.6635909838918643E9, 0.0, 2022-09-19 17:36:23.891
111.0, 34978.71428474358, 48741.443305187626, -39930.11741997211, -22690.999232649712, -187500.02235174447, -187500.02235174447, 266.05281425152, -41170.50512677492, 0.646, -0.7020000000000001, 0.364, 192.0, 0.0, 0.0, 0.0, 0.0, 0.0, 0.0, 0.0, 0.0, 0.0, 1.6635909838949268E9, 0.0, 2022-09-19 17:36:23.894
112.0, 35032.760802836514, 48656.19375183508, -39837.24592176032, -22684.472523268763, -187500.02235174447, -187500.02235174447, -79.7510242165356, -41111.13889350163, 0.646, -0.7020000000000001, 0.364, 192.0, 0.0, 0.0, 0.0, 0.0, 0.0, 0.0, 0.0, 0.0, 0.0, 1.6635909838988807E9, 0.0, 2022-09-19 17:36:23.898
113.0, 34245.84528754298, 48313.429750612944, -39667.976161000275, -22555.79353043956, -187500.02235174447, -187500.02235174447, -1338.7577341506164, -40963.34915916314, 0.646, -0.7020000000000001, 0.364, 192.0, 0.0, 0.0, 0.0, 0.0, 0.0, 0.0, 0.0, 0.0, 0.0, 1.6635909839029644E9, 0.0, 2022-09-19 17:36:23.902
114.0, 33977.91492675721, 48277.82342169564, -39697.838091592566, -22527.451518470232, -187500.02235174447, -187500.02235174447, -1339.6965074177394, -40977.095482003155, 0.646, -0.7020000000000001, 0.364, 192.0, 0.0, 0.0, 0.0, 0.0, 0.0, 0.0, 0.0, 0.0, 0.0, 1.6635909839079025E9, 0.0, 2022-09-19 17:36:23.907
115.0, 34197.47611254169, 48414.68315299549, -39786.57451708013, -22576.982984183192, -187500.02235174447, -187500.02235174447, -730.5891192661667, -41048.062270648756, 0.646, -0.7020000000000001, 0.364, 192.0, 0.0, 0.0, 0.0, 0.0, 0.0, 0.0, 0.0, 0.0, 0.0, 1.6635909839119124E9, 0.0, 2022-09-19 17:36:23.911
116.0, 34869.61542005723, 48673.605760765764, -39903.362381859115, -22657.11398805547, -187500.02235174447, -187500.02235174447, 257.8944275253329, -41151.88612364366, 0.646, -0.7020000000000001, 0.364, 192.0, 0.0, 0.0, 0.0, 0.0, 0.0, 0.0, 0.0, 0.0, 0.0, 1.6635909839159513E9, 0.0, 2022-09-19 17:36:23.915
117.0, 34976.9037934427, 48617.413475205125, -39828.93107282294, -22657.091636311012, -187500.02235174447, -187500.02235174447, -24.743381112024917, -41104.23220446494, 0.646, -0.7020000000000001, 0.364, 192.0, 0.0, 0.0, 0.0, 0.0, 0.0, 0.0, 0.0, 0.0, 0.0, 1.6635909839200175E9, 0.0, 2022-09-19 17:36:23.920
118.0, 34189.9212229158, 48273.06250012666, -39670.45720463481, -22549.691504203263, -187500.02235174447, -187500.02235174447, -1317.7917978515386, -40952.48621135786, 0.646, -0.7020000000000001, 0.364, 192.0, 0.0, 0.0, 0.0, 0.0, 0.0, 0.0, 0.0, 0.0, 0.0, 1.6635909839229736E9, 0.0, 2022-09-19 17:36:23.922
119.0, 33897.98508858503, 48234.63985140799, -39708.298707997645, -22526.579800436473, -187500.02235174447, -187500.02235174447, -1361.2435890726554, -40973.049816256746, 0.636, -0.7000000000000001, 0.372, 192.0, 19.0, 224.0, 234.0, 32.0, 11.0, 160.0, 0.0, 0.0, 0.0, 1.6635909839269376E9, 0.0, 2022-09-19 17:36:23.926
120.0, 34101.855349761885, 48364.72700413788, -39790.91075550446, -22567.930527678793, -187500.02235174447, -187500.02235174447, -766.8436487726747, -41050.23038986092, 0.636, -0.7000000000000001, 0.372, 192.0, 0.0, 0.0, 0.0, 0.0, 0.0, 0.0, 0.0, 0.0, 0.0, 1.6635909839309647E9, 0.0, 2022-09-19 17:36:23.930
121.0, 34776.766273589885, 48636.18894054758, -39916.05817270972, -22654.074150809545, -187500.02235174447, -187500.02235174447, 223.69625850871307, -41162.771423193386, 0.636, -0.7000000000000001, 0.372, 192.0, 0.0, 0.0, 0.0, 0.0, 0.0, 0.0, 0.0, 0.0, 0.0, 1.6635909839349804E9, 0.0, 2022-09-19 17:36:23.934
122.0, 34935.68717666712, 48615.8265013488, -39849.33821551064, -22671.53086322914, -187500.02235174447, -187500.02235174447, 15.44505541861718, -41112.14472200212, 0.636, -0.7000000000000001, 0.372, 192.0, 0.0, 0.0, 0.0, 0.0, 0.0, 0.0, 0.0, 0.0, 0.0, 1.6635909839399943E9, 0.0, 2022-09-19 17:36:23.939
123.0, 34160.21575453469, 48282.51728803126, -39667.0150359887, -22555.99469613966, -187500.02235174447, -187500.02235174447, -1283.392463134821, -40936.83999023915, 0.636, -0.7000000000000001, 0.372, 192.0, 0.0, 0.0, 0.0, 0.0, 0.0, 0.0, 0.0, 0.0, 0.0, 1.6635909839439702E9, 0.0, 2022-09-19 17:36:23.943
124.0, 33851.64992232918, 48238.66316540995, -39690.28320196667, -22520.097794544436, -187500.02235174447, -187500.02235174447, -1361.2435890726554, -40941.95853971941, 0.636, -0.7000000000000001, 0.372, 192.0, 0.0, 0.0, 0.0, 0.0, 0.0, 0.0, 0.0, 0.0, 0.0, 1.6635909839479947E9, 0.0, 2022-09-19 17:36:23.947
125.0, 34058.20239284067, 48380.32852176768, -39784.853432757074, -22573.496112048164, -187500.02235174447, -187500.02235174447, -781.7969658132752, -41025.84463666018, 0.636, -0.7000000000000001, 0.372, 192.0, 0.0, 0.0, 0.0, 0.0, 0.0, 0.0, 0.0, 0.0, 0.0, 1.663590983951004E9, 0.0, 2022-09-19 17:36:23.951
126.0, 34724.66435726456, 48649.510580242946, -39917.93571924397, -22666.34525851551, -187500.02235174447, -187500.02235174447, 195.22013607265188, -41149.00274860892, 0.636, -0.7000000000000001, 0.372, 192.0, 0.0, 0.0, 0.0, 0.0, 0.0, 0.0, 0.0, 0.0, 0.0, 1.6635909839549913E9, 0.0, 2022-09-19 17:36:23.954
127.0, 34929.56279868636, 48642.44742899507, -39864.98443662935, -22694.977843162756, -187500.02235174447, -187500.02235174447, 54.225332048574934, -41127.23214950945, 0.636, -0.7000000000000001, 0.372, 192.0, 0.0, 0.0, 0.0, 0.0, 0.0, 0.0, 0.0, 0.0, 0.0, 1.6635909839589849E9, 0.0, 2022-09-19 17:36:23.958
128.0, 34166.608353448915, 48303.79614875271, -39677.52035588269, -22571.439751558275, -187500.02235174447, -187500.02235174447, -1252.0553174084805, -40954.028481725276, 0.636, -0.7000000000000001, 0.372, 192.0, 0.0, 0.0, 0.0, 0.0, 0.0, 0.0, 0.0, 0.0, 0.0, 1.6635909839630213E9, 0.0, 2022-09-19 17:36:23.963
129.0, 33834.34967212077, 48247.536807958706, -39692.87600432349, -22529.306713260023, -187500.02235174447, -187500.02235174447, -1378.253266603144, -40939.1645716625, 0.64, -0.6960000000000001, 0.374, 192.0, 20.0, 0.0, 234.0, 64.0, 11.0, 176.0, 0.0, 0.0, 0.0, 1.6635909839681044E9, 0.0, 2022-09-19 17:36:23.968
130.0, 34025.77001163602, 48381.043777590254, -39785.30046764618, -22576.357135338443, -187500.02235174447, -187500.02235174447, -813.8717191066407, -41022.3801162696, 0.64, -0.6960000000000001, 0.374, 192.0, 0.0, 0.0, 0.0, 0.0, 0.0, 0.0, 0.0, 0.0, 0.0, 1.6635909839720054E9, 0.0, 2022-09-19 17:36:23.972
131.0, 34693.28250804931, 48649.15295233166, -39922.09314371266, -22658.946831100802, -187500.02235174447, -187500.02235174447, 173.8071648844677, -41139.972643848974, 0.64, -0.6960000000000001, 0.374, 192.0, 0.0, 0.0, 0.0, 0.0, 0.0, 0.0, 0.0, 0.0, 0.0, 1.6635909839760392E9, 0.0, 2022-09-19 17:36:23.976
132.0, 34942.07977558133, 48654.897350656676, -39868.00192213082, -22680.225691822256, -187500.02235174447, -187500.02235174447, 105.85786174033424, -41119.23022499445, 0.64, -0.6960000000000001, 0.374, 192.0, 0.0, 0.0, 0.0, 0.0, 0.0, 0.0, 0.0, 0.0, 0.0, 1.6635909839790363E9, 0.0, 2022-09-19 17:36:23.979
133.0, 34185.741446702654, 48306.0536749427, -39676.67098959339, -22562.968440409713, -187500.02235174447, -187500.02235174447, -1217.074837335925, -40951.34627239064, 0.64, -0.6960000000000001, 0.374, 192.0, 0.0, 0.0, 0.0, 0.0, 0.0, 0.0, 0.0, 0.0, 0.0, 1.663590983983043E9, 0.0, 2022-09-19 17:36:23.983
134.0, 33829.58875055179, 48239.7360491438, -39696.787559603166, -22522.556486434518, -187500.02235174447, -187500.02235174447, -1388.8256417305042, -40949.558132834216, 0.64, -0.6960000000000001, 0.374, 192.0, 0.0, 0.0, 0.0, 0.0, 0.0, 0.0, 0.0, 0.0, 0.0, 1.663590983987048E9, 0.0, 2022-09-19 17:36:23.987
135.0, 34015.89054058678, 48383.12248982459, -39778.90786873196, -22552.396065282355, -187500.02235174447, -187500.02235174447, -825.2040535454814, -41015.6298894441, 0.64, -0.6960000000000001, 0.374, 192.0, 0.0, 0.0, 0.0, 0.0, 0.0, 0.0, 0.0, 0.0, 0.0, 1.663590983991068E9, 0.0, 2022-09-19 17:36:23.991
136.0, 34680.05027533177, 48653.556245989355, -39915.320565142705, -22635.365740700454, -187500.02235174447, -187500.02235174447, 162.36307172335052, -41134.96585309099, 0.64, -0.6960000000000001, 0.374, 192.0, 0.0, 0.0, 0.0, 0.0, 0.0, 0.0, 0.0, 0.0, 0.0, 1.663590983996091E9, 0.0, 2022-09-19 17:36:23.996
137.0, 34982.022342922966, 48675.505659044466, -39880.98828565935, -22663.372476502955, -187500.02235174447, -187500.02235174447, 164.62059791333652, -41120.45957093949, 0.64, -0.6960000000000001, 0.374, 192.0, 0.0, 0.0, 0.0, 0.0, 0.0, 0.0, 0.0, 0.0, 0.0, 1.6635909840000656E9, 0.0, 2022-09-19 17:36:24.000
138.0, 34255.85886905895, 48332.65225084451, -39684.9187832974, -22542.56129772202, -187500.02235174447, -187500.02235174447, -1166.3140256779225, -40936.057679183206, 0.64, -0.6960000000000001, 0.374, 192.0, 0.0, 0.0, 0.0, 0.0, 0.0, 0.0, 0.0, 0.0, 0.0, 1.6635909840040991E9, 0.0, 2022-09-19 17:36:24.004
139.0, 33918.01225161699, 48294.65428527049, -39695.737027613766, -22490.325270929967, -187500.02235174447, -187500.02235174447, -1379.5943712704625, -40904.78758869023, 0.638, -0.7020000000000001, 0.364, 192.0, 19.0, 240.0, 234.0, 16.0, 11.0, 96.0, 0.0, 0.0, 0.0, 1.6635909840070832E9, 0.0, 2022-09-19 17:36:24.007
140.0, 34112.40537314479, 48447.383755133604, -39782.50649958927, -22547.411626268822, -187500.02235174447, -187500.02235174447, -840.2244258194478, -40991.6241158991, 0.638, -0.7020000000000001, 0.364, 192.0, 0.0, 0.0, 0.0, 0.0, 0.0, 0.0, 0.0, 0.0, 0.0, 1.6635909840111032E9, 0.0, 2022-09-19 17:36:24.011
141.0, 34697.842263918195, 48645.57667321881, -39897.23800387836, -22649.20147051829, -187500.02235174447, -187500.02235174447, 111.24463215406325, -41132.59656817873, 0.638, -0.7020000000000001, 0.364, 192.0, 0.0, 0.0, 0.0, 0.0, 0.0, 0.0, 0.0, 0.0, 0.0, 1.6635909840151136E9, 0.0, 2022-09-19 17:36:24.015
142.0, 34956.429595521644, 48620.16273977313, -39862.36928252808, -22678.996345877214, -187500.02235174447, -187500.02235174447, 165.78288862501248, -41130.38374547765, 0.638, -0.7020000000000001, 0.364, 192.0, 0.0, 0.0, 0.0, 0.0, 0.0, 0.0, 0.0, 0.0, 0.0, 1.663590984019148E9, 0.0, 2022-09-19 17:36:24.019
143.0, 34173.00095236313, 48241.65829916696, -39665.22689643227, -22564.331896821488, -187500.02235174447, -187500.02235174447, -1170.0467670019589, -40959.99639749484, 0.638, -0.7020000000000001, 0.364, 192.0, 0.0, 0.0, 0.0, 0.0, 0.0, 0.0, 0.0, 0.0, 0.0, 1.6635909840241215E9, 0.0, 2022-09-19 17:36:24.024
144.0, 33722.34508065523, 48135.37575428197, -39668.33378891156, -22510.531247917563, -187500.02235174447, -187500.02235174447, -1436.5242643981296, -40942.74085077534, 0.638, -0.7020000000000001, 0.364, 192.0, 0.0, 0.0, 0.0, 0.0, 0.0, 0.0, 0.0, 0.0, 0.0, 1.6635909840281093E9, 0.0, 2022-09-19 17:36:24.028
145.0, 33832.96386396454, 48240.183084032906, -39756.01968240973, -22546.852832657438, -187500.02235174447, -187500.02235174447, -918.1873104795588, -41022.08954359168, 0.638, -0.7020000000000001, 0.364, 192.0, 0.0, 0.0, 0.0, 0.0, 0.0, 0.0, 0.0, 0.0, 0.0, 1.663590984032137E9, 0.0, 2022-09-19 17:36:24.032
146.0, 34419.808914638634, 48491.30493298828, -39885.883317695065, -22631.56594414305, -187500.02235174447, -187500.02235174447, 43.63060517675939, -41145.73939391845, 0.638, -0.7020000000000001, 0.364, 192.0, 0.0, 0.0, 0.0, 0.0, 0.0, 0.0, 0.0, 0.0, 0.0, 1.6635909840351355E9, 0.0, 2022-09-19 17:36:24.035
147.0, 34731.77221200135, 48526.5536339943, -39865.2079540739, -22684.852502924503, -187500.02235174447, -187500.02235174447, 167.7274903926242, -41161.67618771508, 0.638, -0.7020000000000001, 0.364, 192.0, 0.0, 0.0, 0.0, 0.0, 0.0, 0.0, 0.0, 0.0, 0.0, 1.6635909840391607E9, 0.0, 2022-09-19 17:36:24.039
148.0, 33938.46409779359, 48126.792684411135, -39665.89744876593, -22582.99560344167, -187500.02235174447, -187500.02235174447, -1184.2177729866235, -40996.56385142373, 0.638, -0.7020000000000001, 0.364, 192.0, 0.0, 0.0, 0.0, 0.0, 0.0, 0.0, 0.0, 0.0, 0.0, 1.6635909840431528E9, 0.0, 2022-09-19 17:36:24.043
149.0, 33412.2369780823, 47967.312987722515, -39659.41544287389, -22542.337780277467, -187500.02235174447, -187500.02235174447, -1521.058561928101, -40994.90982233403, 0.642, -0.716, 0.36, 192.0, 20.0, 16.0, 233.0, 160.0, 11.0, 64.0, 0.0, 0.0, 0.0, 1.6635909840471385E9, 0.0, 2022-09-19 17:36:24.047
150.0, 33466.68582757543, 48038.68210776831, -39735.0313943662, -22584.56022555354, -187500.02235174447, -187500.02235174447, -1018.8148640173512, -41077.18659367402, 0.642, -0.716, 0.36, 192.0, 0.0, 0.0, 0.0, 0.0, 0.0, 0.0, 0.0, 0.0, 0.0, 1.663590984051185E9, 0.0, 2022-09-19 17:36:24.051
151.0, 33991.325973430394, 48254.242331295296, -39850.03111958875, -22653.425950220342, -187500.02235174447, -187500.02235174447, -64.9094658982117, -41189.548813050846, 0.642, -0.716, 0.36, 192.0, 0.0, 0.0, 0.0, 0.0, 0.0, 0.0, 0.0, 0.0, 0.0, 1.6635909840561657E9, 0.0, 2022-09-19 17:36:24.056
152.0, 34281.5410234381, 48273.26366582676, -39833.75904962529, -22702.599788022017, -187500.02235174447, -187500.02235174447, 124.90154801625587, -41212.57110983981, 0.642, -0.716, 0.36, 192.0, 0.0, 0.0, 0.0, 0.0, 0.0, 0.0, 0.0, 0.0, 0.0, 1.6635909840591617E9, 0.0, 2022-09-19 17:36:24.059
153.0, 33441.9424464634, 47849.18401827622, -39627.22893085825, -22596.540760581585, -187500.02235174447, -187500.02235174447, -1218.0806658364138, -41053.225523617926, 0.642, -0.716, 0.36, 192.0, 0.0, 0.0, 0.0, 0.0, 0.0, 0.0, 0.0, 0.0, 0.0, 1.6635909840632231E9, 0.0, 2022-09-19 17:36:24.063
154.0, 32823.67084308515, 47647.63833852272, -39606.64297421491, -22540.437881998765, -187500.02235174447, -187500.02235174447, -1608.2527170482538, -41040.61913974513, 0.642, -0.716, 0.36, 192.0, 0.0, 0.0, 0.0, 0.0, 0.0, 0.0, 0.0, 0.0, 0.0, 1.663590984067178E9, 0.0, 2022-09-19 17:36:24.067
155.0, 32802.12376143024, 47700.52256590397, -39688.584469388064, -22579.106399906446, -187500.02235174447, -187500.02235174447, -1122.5493100344313, -41121.890082584636, 0.642, -0.716, 0.36, 192.0, 0.0, 0.0, 0.0, 0.0, 0.0, 0.0, 0.0, 0.0, 0.0, 1.6635909840711975E9, 0.0, 2022-09-19 17:36:24.071
156.0, 33260.33452276403, 47910.33839110594, -39814.17892148244, -22666.367610259964, -187500.02235174447, -187500.02235174447, -180.28917077650678, -41241.91895030963, 0.642, -0.716, 0.36, 192.0, 0.0, 0.0, 0.0, 0.0, 0.0, 0.0, 0.0, 0.0, 0.0, 1.6635909840751817E9, 0.0, 2022-09-19 17:36:24.075
157.0, 33539.28429356626, 47943.82130429999, -39808.16630222396, -22726.270285400187, -187500.02235174447, -187500.02235174447, 72.41965203519489, -41271.28914252391, 0.642, -0.716, 0.36, 192.0, 0.0, 0.0, 0.0, 0.0, 0.0, 0.0, 0.0, 0.0, 0.0, 1.663590984079249E9, 0.0, 2022-09-19 17:36:24.079
158.0, 32695.125960722682, 47536.90779649113, -39604.27368930265, -22630.38130168692, -187500.02235174447, -187500.02235174447, -1259.9231314567485, -41110.758913845886, 0.642, -0.716, 0.36, 192.0, 0.0, 0.0, 0.0, 0.0, 0.0, 0.0, 0.0, 0.0, 0.0, 1.6635909840842092E9, 0.0, 2022-09-19 17:36:24.084
159.0, 32068.718322362703, 47372.57777125571, -39579.753825635176, -22557.738132207174, -187500.02235174447, -187500.02235174447, -1680.6723690834488, -41069.96698021495, 0.644, -0.718, 0.34800000000000003, 192.0, 20.0, 32.0, 233.0, 144.0, 10.0, 224.0, 0.0, 0.0, 0.0, 1.663590984088312E9, 0.0, 2022-09-19 17:36:24.088
160.0, 32099.563729711026, 47501.212060596, -39667.618533088986, -22577.027687672104, -187500.02235174447, -187500.02235174447, -1172.751328081051, -41128.796771621324, 0.644, -0.718, 0.34800000000000003, 192.0, 0.0, 0.0, 0.0, 0.0, 0.0, 0.0, 0.0, 0.0, 0.0, 1.6635909840912547E9, 0.0, 2022-09-19 17:36:24.091
161.0, 32654.512841047388, 47803.07236946492, -39820.07978201864, -22661.80785439108, -187500.02235174447, -187500.02235174447, -214.97907817114333, -41245.49522942248, 0.644, -0.718, 0.34800000000000003, 192.0, 0.0, 0.0, 0.0, 0.0, 0.0, 0.0, 0.0, 0.0, 0.0, 1.663590984095243E9, 0.0, 2022-09-19 17:36:24.095
162.0, 33127.118125810404, 47978.75708088363, -39829.89219783452, -22712.63572128245, -187500.02235174447, -187500.02235174447, 131.3388504193843, -41249.943226569085, 0.644, -0.718, 0.34800000000000003, 192.0, 0.0, 0.0, 0.0, 0.0, 0.0, 0.0, 0.0, 0.0, 0.0, 1.663590984099233E9, 0.0, 2022-09-19 17:36:24.099
163.0, 32456.834013084655, 47670.77239403396, -39628.190055869825, -22605.0344234746, -187500.02235174447, -187500.02235174447, -1158.625025585297, -41066.23423889092, 0.644, -0.718, 0.34800000000000003, 192.0, 0.0, 0.0, 0.0, 0.0, 0.0, 0.0, 0.0, 0.0, 0.0, 1.6635909841032612E9, 0.0, 2022-09-19 17:36:24.103
164.0, 31943.883829579812, 47558.11960197921, -39625.59725351301, -22542.069559344003, -187500.02235174447, -187500.02235174447, -1625.8658916790357, -41027.02927911631, 0.644, -0.718, 0.34800000000000003, 192.0, 0.0, 0.0, 0.0, 0.0, 0.0, 0.0, 0.0, 0.0, 0.0, 1.6635909841072457E9, 0.0, 2022-09-19 17:36:24.107
165.0, 32084.118674292407, 47735.12306632079, -39717.9770133468, -22571.864434702926, -187500.02235174447, -187500.02235174447, -1127.4666938145988, -41092.162262459075, 0.644, -0.718, 0.34800000000000003, 192.0, 0.0, 0.0, 0.0, 0.0, 0.0, 0.0, 0.0, 0.0, 0.0, 1.6635909841122675E9, 0.0, 2022-09-19 17:36:24.112
166.0, 32720.495190679456, 48046.28170088312, -39857.34014002563, -22642.563002415063, -187500.02235174447, -187500.02235174447, -177.74107190860175, -41193.63918228617, 0.644, -0.718, 0.34800000000000003, 192.0, 0.0, 0.0, 0.0, 0.0, 0.0, 0.0, 0.0, 0.0, 0.0, 1.6635909841152549E9, 0.0, 2022-09-19 17:36:24.115
167.0, 33292.43162780185, 48219.82064483412, -39889.593707274646, -22703.225636866766, -187500.02235174447, -187500.02235174447, 217.4824735501377, -41231.79361007138, 0.644, -0.718, 0.34800000000000003, 192.0, 0.0, 0.0, 0.0, 0.0, 0.0, 0.0, 0.0, 0.0, 0.0, 1.6635909841192625E9, 0.0, 2022-09-19 17:36:24.119
168.0, 32701.339745681256, 47904.057550913996, -39680.359027428516, -22603.46980136273, -187500.02235174447, -187500.02235174447, -1066.1558587736915, -41055.99713993039, 0.644, -0.718, 0.34800000000000003, 192.0, 0.0, 0.0, 0.0, 0.0, 0.0, 0.0, 0.0, 0.0, 0.0, 1.6635909841232846E9, 0.0, 2022-09-19 17:36:24.123
169.0, 32185.08150399703, 47757.98890089857, -39653.87221024898, -22527.071538814493, -187500.02235174447, -187500.02235174447, -1598.4850047212847, -41004.09638930517, 0.64, -0.714, 0.356, 192.0, 20.0, 0.0, 233.0, 176.0, 11.0, 32.0, 0.0, 0.0, 0.0, 1.6635909841273062E9, 0.0, 2022-09-19 17:36:24.127
170.0, 32319.30372945115, 47904.057550913996, -39737.177161833904, -22553.826576927495, -187500.02235174447, -187500.02235174447, -1127.2431763700458, -41069.7434627704, 0.64, -0.714, 0.356, 192.0, 0.0, 0.0, 0.0, 0.0, 0.0, 0.0, 0.0, 0.0, 0.0, 1.6635909841312969E9, 0.0, 2022-09-19 17:36:24.131
171.0, 32933.1720391717, 48195.7254643113, -39864.87267790707, -22617.81962130304, -187500.02235174447, -187500.02235174447, -204.27259257705126, -41177.165946622605, 0.64, -0.714, 0.356, 192.0, 0.0, 0.0, 0.0, 0.0, 0.0, 0.0, 0.0, 0.0, 0.0, 1.663590984135314E9, 0.0, 2022-09-19 17:36:24.135
172.0, 33536.19975283143, 48374.5170682093, -39893.72877999888, -22680.091581355522, -187500.02235174447, -187500.02235174447, 252.75352630061226, -41222.87526403371, 0.64, -0.714, 0.356, 192.0, 0.0, 0.0, 0.0, 0.0, 0.0, 0.0, 0.0, 0.0, 0.0, 1.6635909841403823E9, 0.0, 2022-09-19 17:36:24.140
173.0, 32955.99317026057, 48040.313785113554, -39692.585431645566, -22600.228798416712, -187500.02235174447, -187500.02235174447, -1014.5903843152981, -41077.2983523963, 0.64, -0.714, 0.356, 192.0, 0.0, 0.0, 0.0, 0.0, 0.0, 0.0, 0.0, 0.0, 0.0, 1.663590984143385E9, 0.0, 2022-09-19 17:36:24.143
174.0, 32385.330782572128, 47849.876922354335, -39651.56998057008, -22530.357245249423, -187500.02235174447, -187500.02235174447, -1609.6161734600275, -41032.55015999677, 0.64, -0.714, 0.356, 192.0, 0.0, 0.0, 0.0, 0.0, 0.0, 0.0, 0.0, 0.0, 0.0, 1.6635909841464164E9, 0.0, 2022-09-19 17:36:24.146
175.0, 32458.7115596189, 47947.15171422383, -39731.321004786616, -22562.722571220707, -187500.02235174447, -187500.02235174447, -1166.0011012555483, -41102.68993409752, 0.64, -0.714, 0.356, 192.0, 0.0, 0.0, 0.0, 0.0, 0.0, 0.0, 0.0, 0.0, 0.0, 1.6635909841513858E9, 0.0, 2022-09-19 17:36:24.151
176.0, 33004.16117956176, 48193.04325497666, -39855.328483024656, -22633.130566254924, -187500.02235174447, -187500.02235174447, -260.68839558224624, -41208.972478982505, 0.64, -0.714, 0.356, 192.0, 0.0, 0.0, 0.0, 0.0, 0.0, 0.0, 0.0, 0.0, 0.0, 1.6635909841553895E9, 0.0, 2022-09-19 17:36:24.155
177.0, 33584.85950051063, 48358.0661842902, -39887.22442236238, -22692.2062268503, -187500.02235174447, -187500.02235174447, 261.49305838263734, -41248.06568003484, 0.64, -0.714, 0.356, 192.0, 0.0, 0.0, 0.0, 0.0, 0.0, 0.0, 0.0, 0.0, 0.0, 1.6635909841613853E9, 0.0, 2022-09-19 17:36:24.161
178.0, 32994.840502123894, 48001.91348813933, -39685.99166703125, -22605.90614150836, -187500.02235174447, -187500.02235174447, -970.6021512272539, -41087.28958216782, 0.64, -0.714, 0.356, 192.0, 0.0, 0.0, 0.0, 0.0, 0.0, 0.0, 0.0, 0.0, 0.0, 1.663590984164396E9, 0.0, 2022-09-19 17:36:24.164
179.0, 32373.21613707735, 47780.98884594308, -39641.399936842914, -22527.004483581124, -187500.02235174447, -187500.02235174447, -1621.8649294215359, -41015.607537699645, 0.64, -0.708, 0.34600000000000003, 192.0, 20.0, 0.0, 233.0, 224.0, 10.0, 208.0, 0.0, 0.0, 0.0, 1.6635909841674004E9, 0.0, 2022-09-19 17:36:24.167
180.0, 32432.112983717085, 47880.14118434682, -39719.988670347775, -22555.03357112808, -187500.02235174447, -187500.02235174447, -1191.7056073791514, -41086.61902983416, 0.64, -0.708, 0.34600000000000003, 192.0, 0.0, 0.0, 0.0, 0.0, 0.0, 0.0, 0.0, 0.0, 0.0, 1.6635909841713932E9, 0.0, 2022-09-19 17:36:24.171
181.0, 32976.78029260401, 48137.14154209394, -39852.86979113457, -22622.982874272213, -187500.02235174447, -187500.02235174447, -306.0400850820643, -41193.035685185874, 0.64, -0.708, 0.34600000000000003, 192.0, 0.0, 0.0, 0.0, 0.0, 0.0, 0.0, 0.0, 0.0, 0.0, 1.6635909841743877E9, 0.0, 2022-09-19 17:36:24.174
182.0, 33609.491122900385, 48347.67262311848, -39902.2671463808, -22682.863197667983, -187500.02235174447, -187500.02235174447, 255.16751470178542, -41246.8363340898, 0.64, -0.708, 0.34600000000000003, 192.0, 0.0, 0.0, 0.0, 0.0, 0.0, 0.0, 0.0, 0.0, 0.0, 1.66359098417938E9, 0.0, 2022-09-19 17:36:24.179
183.0, 33062.85686050139, 48022.968831416234, -39694.328867713084, -22594.082068691503, -187500.02235174447, -187500.02235174447, -941.7013456465419, -41087.58015484574, 0.64, -0.708, 0.34600000000000003, 192.0, 0.0, 0.0, 0.0, 0.0, 0.0, 0.0, 0.0, 0.0, 0.0, 1.6635909841833751E9, 0.0, 2022-09-19 17:36:24.183
184.0, 32423.641672568523, 47811.566032357936, -39621.57393951106, -22482.949195259716, -187500.02235174447, -187500.02235174447, -1629.308060325153, -40984.851537329145, 0.64, -0.708, 0.34600000000000003, 192.0, 0.0, 0.0, 0.0, 0.0, 0.0, 0.0, 0.0, 0.0, 0.0, 1.6635909841873977E9, 0.0, 2022-09-19 17:36:24.187
185.0, 32468.099292290128, 47923.6600308013, -39696.29582122515, -22509.190143250245, -187500.02235174447, -187500.02235174447, -1206.7930348864836, -41041.937892668, 0.64, -0.708, 0.34600000000000003, 192.0, 0.0, 0.0, 0.0, 0.0, 0.0, 0.0, 0.0, 0.0, 0.0, 1.6635909841913905E9, 0.0, 2022-09-19 17:36:24.191
186.0, 32983.19524326268, 48171.876152977486, -39829.93690132343, -22589.05292618906, -187500.02235174447, -187500.02235174447, -340.10414363195224, -41148.712175931, 0.64, -0.708, 0.34600000000000003, 192.0, 0.0, 0.0, 0.0, 0.0, 0.0, 0.0, 0.0, 0.0, 0.0, 1.6635909841954107E9, 0.0, 2022-09-19 17:36:24.195
187.0, 33619.99644279438, 48366.62690241658, -39892.454730564925, -22668.78159866114, -187500.02235174447, -187500.02235174447, 275.0605672670087, -41221.69062157758, 0.64, -0.708, 0.34600000000000003, 192.0, 0.0, 0.0, 0.0, 0.0, 0.0, 0.0, 0.0, 0.0, 0.0, 1.663590984199502E9, 0.0, 2022-09-19 17:36:24.199
188.0, 33092.67408760478, 48034.368221088436, -39687.48923390976, -22596.361946625944, -187500.02235174447, -187500.02235174447, -888.1242141871709, -41069.47524183694, 0.64, -0.708, 0.34600000000000003, 192.0, 0.0, 0.0, 0.0, 0.0, 0.0, 0.0, 0.0, 0.0, 0.0, 1.6635909842024574E9, 0.0, 2022-09-19 17:36:24.202
189.0, 32410.78941950672, 47782.68757852168, -39612.968517895766, -22500.65177686832, -187500.02235174447, -187500.02235174447, -1638.8969586964797, -40977.96720003691, 0.632, -0.712, 0.354, 192.0, 19.0, 192.0, 233.0, 192.0, 11.0, 16.0, 0.0, 0.0, 0.0, 1.6635909842074487E9, 0.0, 2022-09-19 17:36:24.207
190.0, 32422.94876849041, 47873.86034415488, -39691.35608570052, -22519.673111399785, -187500.02235174447, -187500.02235174447, -1235.2021020891789, -41032.59486348568, 0.632, -0.712, 0.354, 192.0, 0.0, 0.0, 0.0, 0.0, 0.0, 0.0, 0.0, 0.0, 0.0, 1.6635909842114334E9, 0.0, 2022-09-19 17:36:24.211
191.0, 32910.48501854957, 48123.506977976205, -39817.03994477272, -22597.05485070406, -187500.02235174447, -187500.02235174447, -384.3605976534603, -41133.73650714594, 0.632, -0.712, 0.354, 192.0, 0.0, 0.0, 0.0, 0.0, 0.0, 0.0, 0.0, 0.0, 0.0, 1.663590984215426E9, 0.0, 2022-09-19 17:36:24.215
192.0, 33564.541764800764, 48343.13521899405, -39890.24190786385, -22674.59305221952, -187500.02235174447, -187500.02235174447, 284.04596853804213, -41204.25626090244, 0.632, -0.712, 0.354, 192.0, 0.0, 0.0, 0.0, 0.0, 0.0, 0.0, 0.0, 0.0, 0.0, 1.66359098421952E9, 0.0, 2022-09-19 17:36:24.219
193.0, 33080.000648498615, 48030.1884448753, -39693.278335723684, -22600.76524028364, -187500.02235174447, -187500.02235174447, -834.4576757499785, -41062.099166166685, 0.632, -0.712, 0.354, 192.0, 0.0, 0.0, 0.0, 0.0, 0.0, 0.0, 0.0, 0.0, 0.0, 1.6635909842234635E9, 0.0, 2022-09-19 17:36:24.223
194.0, 32386.53777677271, 47766.43786030267, -39616.81301794208, -22512.02881479607, -187500.02235174447, -187500.02235174447, -1640.6180430195384, -40986.70673211893, 0.632, -0.712, 0.354, 192.0, 0.0, 0.0, 0.0, 0.0, 0.0, 0.0, 0.0, 0.0, 0.0, 1.663590984227485E9, 0.0, 2022-09-19 17:36:24.227
195.0, 32391.991602419806, 47853.11792530036, -39692.227803734284, -22524.94812309124, -187500.02235174447, -187500.02235174447, -1258.5373233005196, -41038.94275891099, 0.632, -0.712, 0.354, 192.0, 0.0, 0.0, 0.0, 0.0, 0.0, 0.0, 0.0, 0.0, 0.0, 1.6635909842305503E9, 0.0, 2022-09-19 17:36:24.230
196.0, 32879.81842515688, 48106.720817890266, -39807.92043303495, -22582.056830174548, -187500.02235174447, -187500.02235174447, -408.4781299207366, -41130.696669900026, 0.632, -0.712, 0.354, 192.0, 0.0, 0.0, 0.0, 0.0, 0.0, 0.0, 0.0, 0.0, 0.0, 1.6635909842345052E9, 0.0, 2022-09-19 17:36:24.234
197.0, 33569.23563113638, 48344.36456493909, -39880.80947170371, -22654.655296165383, -187500.02235174447, -187500.02235174447, 315.9642596202206, -41213.42047612911, 0.632, -0.712, 0.354, 192.0, 0.0, 0.0, 0.0, 0.0, 0.0, 0.0, 0.0, 0.0, 0.0, 1.6635909842394867E9, 0.0, 2022-09-19 17:36:24.239
198.0, 33133.64483519135, 48058.79867777809, -39685.61168737551, -22581.27451911861, -187500.02235174447, -187500.02235174447, -759.0205382133172, -41081.388721631614, 0.632, -0.712, 0.354, 192.0, 0.0, 0.0, 0.0, 0.0, 0.0, 0.0, 0.0, 0.0, 0.0, 1.66359098424351E9, 0.0, 2022-09-19 17:36:24.243
199.0, 32424.692204557923, 47800.74778804157, -39599.15513982238, -22475.483712611644, -187500.02235174447, -187500.02235174447, -1619.9426793983794, -40980.8729268161, 0.636, -0.712, 0.356, 192.0, 19.0, 224.0, 233.0, 192.0, 11.0, 32.0, 0.0, 0.0, 0.0, 1.6635909842475092E9, 0.0, 2022-09-19 17:36:24.247
200.0, 32419.975986477853, 47888.72425421766, -39686.014018775706, -22505.680919370763, -187500.02235174447, -187500.02235174447, -1268.5062013275865, -41045.62593050313, 0.636, -0.712, 0.356, 192.0, 0.0, 0.0, 0.0, 0.0, 0.0, 0.0, 0.0, 0.0, 0.0, 1.6635909842515965E9, 0.0, 2022-09-19 17:36:24.251
201.0, 32902.013707401005, 48140.91898690689, -39808.32276443515, -22569.875129446405, -187500.02235174447, -187500.02235174447, -446.2972815391161, -41135.301129257816, 0.636, -0.712, 0.356, 192.0, 0.0, 0.0, 0.0, 0.0, 0.0, 0.0, 0.0, 0.0, 0.0, 1.6635909842565122E9, 0.0, 2022-09-19 17:36:24.256
202.0, 33619.057669527254, 48394.70069345245, -39897.50622481182, -22664.44536023681, -187500.02235174447, -187500.02235174447, 308.856404883433, -41222.22706344451, 0.636, -0.712, 0.356, 192.0, 0.0, 0.0, 0.0, 0.0, 0.0, 0.0, 0.0, 0.0, 0.0, 1.6635909842595465E9, 0.0, 2022-09-19 17:36:24.259
203.0, 33235.65819688537, 48116.98026859525, -39705.52709168519, -22597.47953384871, -187500.02235174447, -187500.02235174447, -713.8923661580523, -41084.78618678882, 0.636, -0.712, 0.356, 192.0, 0.0, 0.0, 0.0, 0.0, 0.0, 0.0, 0.0, 0.0, 0.0, 1.6635909842625341E9, 0.0, 2022-09-19 17:36:24.262
204.0, 32511.014641644317, 47827.05579126547, -39602.30673579058, -22480.98224174765, -187500.02235174447, -187500.02235174447, -1615.047647362667, -40973.876830801586, 0.636, -0.712, 0.356, 192.0, 0.0, 0.0, 0.0, 0.0, 0.0, 0.0, 0.0, 0.0, 0.0, 1.6635909842675488E9, 0.0, 2022-09-19 17:36:24.267
205.0, 32499.101161849638, 47914.607574296904, -39676.156899470916, -22490.79465756353, -187500.02235174447, -187500.02235174447, -1266.3827856043322, -41010.10900856364, 0.636, -0.712, 0.356, 192.0, 0.0, 0.0, 0.0, 0.0, 0.0, 0.0, 0.0, 0.0, 0.0, 1.6635909842716215E9, 0.0, 2022-09-19 17:36:24.271
206.0, 32964.218612220124, 48157.57103652609, -39806.467569645356, -22557.581669995987, -187500.02235174447, -187500.02235174447, -466.65972073790084, -41108.68020161155, 0.636, -0.712, 0.356, 192.0, 0.0, 0.0, 0.0, 0.0, 0.0, 0.0, 0.0, 0.0, 0.0, 1.6635909842755473E9, 0.0, 2022-09-19 17:36:24.275
207.0, 33698.31695536577, 48411.71037098293, -39902.42360859199, -22639.456109935774, -187500.02235174447, -187500.02235174447, 317.86415789892175, -41204.70329579154, 0.636, -0.712, 0.356, 192.0, 0.0, 0.0, 0.0, 0.0, 0.0, 0.0, 0.0, 0.0, 0.0, 1.6635909842795506E9, 0.0, 2022-09-19 17:36:24.279
208.0, 33357.16227974442, 48147.46804803229, -39713.5737196891, -22571.17153062481, -187500.02235174447, -187500.02235174447, -658.4376881644355, -41065.76485225736, 0.636, -0.712, 0.356, 192.0, 0.0, 0.0, 0.0, 0.0, 0.0, 0.0, 0.0, 0.0, 0.0, 1.6635909842825563E9, 0.0, 2022-09-19 17:36:24.282
209.0, 32624.002709865894, 47852.82735262244, -39603.26786080216, -22450.58386928843, -187500.02235174447, -187500.02235174447, -1612.566603728128, -40950.89923750153, 0.636, -0.712, 0.356, 192.0, 0.0, 0.0, 0.0, 0.0, 0.0, 0.0, 0.0, 0.0, 0.0, 1.663590984286611E9, 0.0, 2022-09-19 17:36:24.286
210.0, 32595.16895951855, 47917.87092898738, -39677.65446634942, -22451.992029189114, -187500.02235174447, -187500.02235174447, -1290.522669616064, -40989.29953447575, 0.638, -0.71, 0.352, 192.0, 19.0, 240.0, 233.0, 208.0, 11.0, 0.0, 0.0, 0.0, 0.0, 1.663590984290614E9, 0.0, 2022-09-19 17:36:24.290
211.0, 33050.2504766286, 48147.84802768804, -39799.00208699729, -22514.4651549417, -187500.02235174447, -187500.02235174447, -492.7665582616995, -41070.74929127089, 0.638, -0.71, 0.352, 192.0, 0.0, 0.0, 0.0, 0.0, 0.0, 0.0, 0.0, 0.0, 0.0, 1.6635909842955773E9, 0.0, 2022-09-19 17:36:24.295
212.0, 33816.08829690079, 48422.238042621386, -39903.04945743674, -22610.220028188232, -187500.02235174447, -187500.02235174447, 351.83880947098845, -41172.15915586462, 0.638, -0.71, 0.352, 192.0, 0.0, 0.0, 0.0, 0.0, 0.0, 0.0, 0.0, 0.0, 0.0, 1.663590984299584E9, 0.0, 2022-09-19 17:36:24.299
213.0, 33521.3134910242, 48181.666217048914, -39732.68446119839, -22574.256071359643, -187500.02235174447, -187500.02235174447, -571.6235127000228, -41058.56759054275, 0.638, -0.71, 0.352, 192.0, 0.0, 0.0, 0.0, 0.0, 0.0, 0.0, 0.0, 0.0, 0.0, 1.6635909843036149E9, 0.0, 2022-09-19 17:36:24.303
214.0, 32754.827470162807, 47863.22091379415, -39624.278500590146, -22465.87246249586, -187500.02235174447, -187500.02235174447, -1594.50639420824, -40952.37445263558, 0.638, -0.71, 0.352, 192.0, 0.0, 0.0, 0.0, 0.0, 0.0, 0.0, 0.0, 0.0, 0.0, 1.6635909843076625E9, 0.0, 2022-09-19 17:36:24.307
215.0, 32698.99281251345, 47919.212033654694, -39696.27346948069, -22463.547881072507, -187500.02235174447, -187500.02235174447, -1309.0746175139686, -40995.625078156605, 0.638, -0.71, 0.352, 192.0, 0.0, 0.0, 0.0, 0.0, 0.0, 0.0, 0.0, 0.0, 0.0, 1.6635909843126063E9, 0.0, 2022-09-19 17:36:24.312
216.0, 33136.10352708144, 48158.37569932648, -39800.83493004262, -22509.815992094995, -187500.02235174447, -187500.02235174447, -529.2669569572159, -41076.96307622946, 0.638, -0.71, 0.352, 192.0, 0.0, 0.0, 0.0, 0.0, 0.0, 0.0, 0.0, 0.0, 0.0, 1.663590984315647E9, 0.0, 2022-09-19 17:36:24.315
217.0, 33907.596338700816, 48450.71416505744, -39907.273937138794, -22588.695298277773, -187500.02235174447, -187500.02235174447, 342.0263936551087, -41169.141670363155, 0.638, -0.71, 0.352, 192.0, 0.0, 0.0, 0.0, 0.0, 0.0, 0.0, 0.0, 0.0, 0.0, 1.6635909843186383E9, 0.0, 2022-09-19 17:36:24.318
218.0, 33651.46769898745, 48210.36585692953, -39740.328757802105, -22546.89753614635, -187500.02235174447, -187500.02235174447, -528.6634598569226, -41056.39947133058, 0.638, -0.71, 0.352, 192.0, 0.0, 0.0, 0.0, 0.0, 0.0, 0.0, 0.0, 0.0, 0.0, 1.663590984323655E9, 0.0, 2022-09-19 17:36:24.323
219.0, 32861.84762261482, 47875.33555928893, -39611.73917195072, -22436.278752837035, -187500.02235174447, -187500.02235174447, -1587.7338156382818, -40928.10045815712, 0.638, -0.71, 0.352, 192.0, 0.0, 0.0, 0.0, 0.0, 0.0, 0.0, 0.0, 0.0, 0.0, 1.6635909843276887E9, 0.0, 2022-09-19 17:36:24.327
220.0, 32783.54946178788, 47931.326679149475, -39673.921725025386, -22425.57226724294, -187500.02235174447, -187500.02235174447, -1316.1824722507563, -40957.29183641575, 0.642, -0.714, 0.354, 192.0, 20.0, 16.0, 233.0, 176.0, 11.0, 16.0, 0.0, 0.0, 0.0, 1.663590984331754E9, 0.0, 2022-09-19 17:36:24.331
221.0, 33192.072295197526, 48154.464144046804, -39787.513290347255, -22480.40109639181, -187500.02235174447, -187500.02235174447, -562.5710561956234, -41045.20124735848, 0.642, -0.714, 0.354, 192.0, 0.0, 0.0, 0.0, 0.0, 0.0, 0.0, 0.0, 0.0, 0.0, 1.66359098433572E9, 0.0, 2022-09-19 17:36:24.335
222.0, 33959.27357188149, 48438.59951956267, -39895.78514048876, -22570.635088757885, -187500.02235174447, -187500.02235174447, 332.5269022616032, -41154.09894634473, 0.642, -0.714, 0.354, 192.0, 0.0, 0.0, 0.0, 0.0, 0.0, 0.0, 0.0, 0.0, 0.0, 1.6635909843386629E9, 0.0, 2022-09-19 17:36:24.338
223.0, 33754.10690952622, 48223.39692394697, -39736.17133333342, -22543.254201800133, -187500.02235174447, -187500.02235174447, -461.60822649100146, -41049.91746543854, 0.642, -0.714, 0.354, 192.0, 0.0, 0.0, 0.0, 0.0, 0.0, 0.0, 0.0, 0.0, 0.0, 1.6635909843426628E9, 0.0, 2022-09-19 17:36:24.342
224.0, 32959.681208095695, 47877.9507133902, -39609.5487009941, -22440.21265986117, -187500.02235174447, -187500.02235174447, -1563.9739112822904, -40928.59219653514, 0.642, -0.714, 0.354, 192.0, 0.0, 0.0, 0.0, 0.0, 0.0, 0.0, 0.0, 0.0, 0.0, 1.6635909843466935E9, 0.0, 2022-09-19 17:36:24.346
225.0, 32852.81751785488, 47912.32769636246, -39676.26865819319, -22449.82390997695, -187500.02235174447, -187500.02235174447, -1333.2592050146109, -40967.97597026539, 0.642, -0.714, 0.354, 192.0, 0.0, 0.0, 0.0, 0.0, 0.0, 0.0, 0.0, 0.0, 0.0, 1.6635909843527548E9, 0.0, 2022-09-19 17:36:24.352
226.0, 33247.214048768765, 48126.83738790004, -39779.82429025463, -22505.323291459477, -187500.02235174447, -187500.02235174447, -589.393149541992, -41040.909712423054, 0.642, -0.714, 0.354, 192.0, 0.0, 0.0, 0.0, 0.0, 0.0, 0.0, 0.0, 0.0, 0.0, 1.6635909843556838E9, 0.0, 2022-09-19 17:36:24.355
227.0, 34030.0838983159, 48434.531502071804, -39900.61311729111, -22594.61851055843, -187500.02235174447, -187500.02235174447, 332.66101272833504, -41150.72383293198, 0.642, -0.714, 0.354, 192.0, 0.0, 0.0, 0.0, 0.0, 0.0, 0.0, 0.0, 0.0, 0.0, 1.663590984359714E9, 0.0, 2022-09-19 17:36:24.359
228.0, 33865.88798354721, 48243.602900934566, -39752.421051552425, -22564.331896821488, -187500.02235174447, -187500.02235174447, -407.82992933153264, -41057.38294808662, 0.642, -0.714, 0.354, 192.0, 0.0, 0.0, 0.0, 0.0, 0.0, 0.0, 0.0, 0.0, 0.0, 1.6635909843627212E9, 0.0, 2022-09-19 17:36:24.362
229.0, 33051.59158129592, 47884.119794859864, -39615.71778246377, -22444.750063985597, -187500.02235174447, -187500.02235174447, -1549.4676291307962, -40928.435734323946, 0.642, -0.714, 0.354, 192.0, 0.0, 0.0, 0.0, 0.0, 0.0, 0.0, 0.0, 0.0, 0.0, 1.663590984366714E9, 0.0, 2022-09-19 17:36:24.366
230.0, 32931.22743740409, 47923.39180986784, -39673.564097114104, -22445.33120934143, -187500.02235174447, -187500.02235174447, -1341.7528679076277, -40967.75245282084, 0.64, -0.716, 0.354, 192.0, 20.0, 0.0, 233.0, 160.0, 11.0, 16.0, 0.0, 0.0, 0.0, 1.6635909843708193E9, 0.0, 2022-09-19 17:36:24.370
231.0, 33299.33831683854, 48134.43698101485, -39784.5405083347, -22502.998710036125, -187500.02235174447, -187500.02235174447, -625.7817895152318, -41046.67646249253, 0.64, -0.716, 0.354, 192.0, 0.0, 0.0, 0.0, 0.0, 0.0, 0.0, 0.0, 0.0, 0.0, 1.6635909843747997E9, 0.0, 2022-09-19 17:36:24.374
232.0, 34072.50750929207, 48433.34685961567, -39907.273937138794, -22585.36488835393, -187500.02235174447, -187500.02235174447, 318.9593933772318, -41149.09215558674, 0.64, -0.716, 0.354, 192.0, 0.0, 0.0, 0.0, 0.0, 0.0, 0.0, 0.0, 0.0, 0.0, 1.6635909843787413E9, 0.0, 2022-09-19 17:36:24.378
233.0, 33951.65162702223, 48255.35991851806, -39755.416185309434, -22555.659419972828, -187500.02235174447, -187500.02235174447, -349.0001379251645, -41053.04670966229, 0.64, -0.716, 0.354, 192.0, 0.0, 0.0, 0.0, 0.0, 0.0, 0.0, 0.0, 0.0, 0.0, 1.6635909843837347E9, 0.0, 2022-09-19 17:36:24.383
234.0, 33127.43105023278, 47877.72719594565, -39600.07156134505, -22418.307950294966, -187500.02235174447, -187500.02235174447, -1523.7631230071931, -40904.56407124568, 0.64, -0.716, 0.354, 192.0, 0.0, 0.0, 0.0, 0.0, 0.0, 0.0, 0.0, 0.0, 0.0, 1.6635909843877711E9, 0.0, 2022-09-19 17:36:24.387
235.0, 32965.09033025388, 47884.52212626006, -39666.09861446603, -22407.042671089494, -187500.02235174447, -187500.02235174447, -1356.6614814593174, -40943.97019672039, 0.64, -0.716, 0.354, 192.0, 0.0, 0.0, 0.0, 0.0, 0.0, 0.0, 0.0, 0.0, 0.0, 1.6635909843907712E9, 0.0, 2022-09-19 17:36:24.390
236.0, 33303.40633432941, 48083.13972748992, -39780.248973399284, -22465.045447951015, -187500.02235174447, -187500.02235174447, -659.0635370091841, -41035.14296235359, 0.64, -0.716, 0.354, 192.0, 0.0, 0.0, 0.0, 0.0, 0.0, 0.0, 0.0, 0.0, 0.0, 1.6635909843947856E9, 0.0, 2022-09-19 17:36:24.394
237.0, 34090.947698467695, 48407.41883604752, -39892.65589626502, -22539.36499826491, -187500.02235174447, -187500.02235174447, 323.4520940127485, -41133.401230979114, 0.64, -0.716, 0.354, 192.0, 0.0, 0.0, 0.0, 0.0, 0.0, 0.0, 0.0, 0.0, 0.0, 1.6635909843988533E9, 0.0, 2022-09-19 17:36:24.398
238.0, 34018.75156387706, 48254.443496995395, -39763.328702846615, -22533.08415807297, -187500.02235174447, -187500.02235174447, -278.4803841686707, -41057.69587250899, 0.64, -0.716, 0.354, 192.0, 0.0, 0.0, 0.0, 0.0, 0.0, 0.0, 0.0, 0.0, 0.0, 1.66359098440484E9, 0.0, 2022-09-19 17:36:24.404
239.0, 33188.85364399596, 47882.33165530344, -39610.867453916966, -22414.128174081823, -187500.02235174447, -187500.02235174447, -1493.409454036886, -40917.9080626855, 0.64, -0.716, 0.354, 192.0, 0.0, 0.0, 0.0, 0.0, 0.0, 0.0, 0.0, 0.0, 0.0, 1.6635909844078085E9, 0.0, 2022-09-19 17:36:24.407
240.0, 33016.23112156762, 47896.74853047711, -39667.484422622256, -22389.29538599198, -187500.02235174447, -187500.02235174447, -1364.3951850408537, -40943.92549323148, 0.638, -0.712, 0.36, 192.0, 19.0, 240.0, 233.0, 192.0, 11.0, 64.0, 0.0, 0.0, 0.0, 1.6635909844117897E9, 0.0, 2022-09-19 17:36:24.411
241.0, 33345.852297050034, 48090.158175248886, -39771.844717484084, -22439.653866249784, -187500.02235174447, -187500.02235174447, -682.868144854086, -41018.334450523194, 0.638, -0.712, 0.36, 192.0, 0.0, 0.0, 0.0, 0.0, 0.0, 0.0, 0.0, 0.0, 0.0, 1.663590984415814E9, 0.0, 2022-09-19 17:36:24.415
242.0, 34123.98357677264, 48404.893088924066, -39896.58980328916, -22532.92769586178, -187500.02235174447, -187500.02235174447, 305.6824571707794, -41132.44010596754, 0.638, -0.712, 0.36, 192.0, 0.0, 0.0, 0.0, 0.0, 0.0, 0.0, 0.0, 0.0, 0.0, 1.6635909844188316E9, 0.0, 2022-09-19 17:36:24.418
243.0, 34101.40831487278, 48283.61252350957, -39766.413243581446, -22527.9656085927, -187500.02235174447, -187500.02235174447, -229.01597368907616, -41067.95532321397, 0.638, -0.712, 0.36, 192.0, 0.0, 0.0, 0.0, 0.0, 0.0, 0.0, 0.0, 0.0, 0.0, 1.663590984422905E9, 0.0, 2022-09-19 17:36:24.422
244.0, 33273.097368848015, 47910.49485331713, -39602.73141893523, -22407.824982145426, -187500.02235174447, -187500.02235174447, -1470.901247370392, -40912.34247831613, 0.638, -0.712, 0.36, 192.0, 0.0, 0.0, 0.0, 0.0, 0.0, 0.0, 0.0, 0.0, 0.0, 1.663590984426809E9, 0.0, 2022-09-19 17:36:24.426
245.0, 33081.185290954745, 47917.759170265104, -39663.75168129822, -22394.704508150164, -187500.02235174447, -187500.02235174447, -1365.1327926078789, -40939.49984782933, 0.638, -0.712, 0.36, 192.0, 0.0, 0.0, 0.0, 0.0, 0.0, 0.0, 0.0, 0.0, 0.0, 1.663590984430837E9, 0.0, 2022-09-19 17:36:24.430
246.0, 33403.27392855572, 48117.74022790673, -39774.61633379654, -22456.663543780272, -187500.02235174447, -187500.02235174447, -692.3676362475916, -41022.87185464762, 0.638, -0.712, 0.36, 192.0, 0.0, 0.0, 0.0, 0.0, 0.0, 0.0, 0.0, 0.0, 0.0, 1.66359098443484E9, 0.0, 2022-09-19 17:36:24.434
247.0, 34202.23703411067, 48443.49455159838, -39903.362381859115, -22544.46119600072, -187500.02235174447, -187500.02235174447, 314.3325822749832, -41122.89591108512, 0.638, -0.712, 0.36, 192.0, 0.0, 0.0, 0.0, 0.0, 0.0, 0.0, 0.0, 0.0, 0.0, 1.6635909844398365E9, 0.0, 2022-09-19 17:36:24.439
248.0, 34250.65091260087, 48340.54241663723, -39792.743598549794, -22540.30377153203, -187500.02235174447, -187500.02235174447, -153.78000185251258, -41061.92035221104, 0.638, -0.712, 0.36, 192.0, 0.0, 0.0, 0.0, 0.0, 0.0, 0.0, 0.0, 0.0, 0.0, 1.6635909844438443E9, 0.0, 2022-09-19 17:36:24.443
249.0, 33437.49444931679, 47959.33341495197, -39625.86547444647, -22414.73167118212, -187500.02235174447, -187500.02235174447, -1428.2988224385765, -40911.71662947138, 0.638, -0.712, 0.36, 192.0, 0.0, 0.0, 0.0, 0.0, 0.0, 0.0, 0.0, 0.0, 0.0, 1.6635909844468672E9, 0.0, 2022-09-19 17:36:24.446
250.0, 33254.97010409476, 47980.54522044006, -39678.57088787209, -22388.401316213767, -187500.02235174447, -187500.02235174447, -1356.7955919260494, -40919.495036541826, 0.644, -0.712, 0.356, 192.0, 20.0, 32.0, 233.0, 192.0, 11.0, 32.0, 0.0, 0.0, 0.0, 1.6635909844508657E9, 0.0, 2022-09-19 17:36:24.450
251.0, 33618.1859514935, 48218.18896748889, -39787.803863025176, -22424.72290095364, -187500.02235174447, -187500.02235174447, -688.0761013121726, -40974.59208662416, 0.644, -0.712, 0.356, 192.0, 0.0, 0.0, 0.0, 0.0, 0.0, 0.0, 0.0, 0.0, 0.0, 1.6635909844548542E9, 0.0, 2022-09-19 17:36:24.454
252.0, 34471.82142398613, 48582.70121606603, -39928.798667049254, -22501.54584664653, -187500.02235174447, -187500.02235174447, 334.1362278623853, -41085.00970423337, 0.644, -0.712, 0.356, 192.0, 0.0, 0.0, 0.0, 0.0, 0.0, 0.0, 0.0, 0.0, 0.0, 1.6635909844588544E9, 0.0, 2022-09-19 17:36:24.458
253.0, 34567.799814677215, 48483.72769161793, -39815.140046494016, -22519.829573610972, -187500.02235174447, -187500.02235174447, -69.24570432254129, -41057.204134130974, 0.644, -0.712, 0.356, 192.0, 0.0, 0.0, 0.0, 0.0, 0.0, 0.0, 0.0, 0.0, 0.0, 1.6635909844628818E9, 0.0, 2022-09-19 17:36:24.462
254.0, 33733.67741509407, 48059.91626500086, -39633.085087905536, -22405.366290255344, -187500.02235174447, -187500.02235174447, -1381.2484003601553, -40904.742885201325, 0.644, -0.712, 0.356, 192.0, 0.0, 0.0, 0.0, 0.0, 0.0, 0.0, 0.0, 0.0, 0.0, 1.6635909844668908E9, 0.0, 2022-09-19 17:36:24.466
255.0, 33498.53706342424, 48023.684087238806, -39683.24240246325, -22379.482970176097, -187500.02235174447, -187500.02235174447, -1369.0443478875575, -40915.87405394007, 0.644, -0.712, 0.356, 192.0, 0.0, 0.0, 0.0, 0.0, 0.0, 0.0, 0.0, 0.0, 0.0, 1.6635909844719367E9, 0.0, 2022-09-19 17:36:24.471
0.0, 33795.43528502408, 48198.944115512866, -39768.089624415596, -22420.744290440594, -187500.02235174447, -187500.02235174447, -723.7941889517533, -40977.74368259236, 0.644, -0.712, 0.356, 192.0, 0.0, 0.0, 0.0, 0.0, 0.0, 0.0, 0.0, 0.0, 0.0, 1.6635909844748957E9, 0.0, 2022-09-19 17:36:24.474
1.0, 34576.1593671035, 48531.85099743021, -39898.62381203459, -22507.35730020491, -187500.02235174447, -187500.02235174447, 309.90693687283243, -41081.14285244261, 0.644, -0.712, 0.356, 192.0, 0.0, 0.0, 0.0, 0.0, 0.0, 0.0, 0.0, 0.0, 0.0, 1.6635909844789126E9, 0.0, 2022-09-19 17:36:24.478
2.0, 34715.58954901571, 48480.48668867191, -39813.75423833779, -22530.60311443843, -187500.02235174447, -187500.02235174447, -4.895032035712247, -41046.49764853688, 0.644, -0.712, 0.356, 192.0, 0.0, 0.0, 0.0, 0.0, 0.0, 0.0, 0.0, 0.0, 0.0, 1.6635909844829104E9, 0.0, 2022-09-19 17:36:24.482
3.0, 33902.61189968728, 48084.7490530907, -39636.97429144076, -22417.14565958329, -187500.02235174447, -187500.02235174447, -1334.2203300261892, -40903.133559600545, 0.644, -0.712, 0.356, 192.0, 0.0, 0.0, 0.0, 0.0, 0.0, 0.0, 0.0, 0.0, 0.0, 1.663590984486921E9, 0.0, 2022-09-19 17:36:24.486
4.0, 33660.944838636504, 48075.87541054194, -39669.451376134326, -22368.3294496929, -187500.02235174447, -187500.02235174447, -1353.0852023464683, -40901.54658574422, 0.644, -0.722, 0.354, 192.0, 20.0, 32.0, 233.0, 112.0, 11.0, 16.0, 0.0, 0.0, 0.0, 1.663590984490937E9, 0.0, 2022-09-19 17:36:24.490
5.0, 33951.405757833214, 48261.439593009905, -39767.240258126294, -22404.986310599605, -187500.02235174447, -187500.02235174447, -733.0031076673398, -40973.049816256746, 0.644, -0.722, 0.354, 192.0, 0.0, 0.0, 0.0, 0.0, 0.0, 0.0, 0.0, 0.0, 0.0, 1.663590984494934E9, 0.0, 2022-09-19 17:36:24.494
6.0, 34705.08422912171, 48556.6614337756, -39901.30602136922, -22492.64985235332, -187500.02235174447, -187500.02235174447, 277.116927756897, -41090.53058511383, 0.644, -0.722, 0.354, 192.0, 0.0, 0.0, 0.0, 0.0, 0.0, 0.0, 0.0, 0.0, 0.0, 1.6635909844999835E9, 0.0, 2022-09-19 17:36:24.499
7.0, 34853.20923962704, 48481.53722066131, -39822.27025297526, -22520.03073931107, -187500.02235174447, -187500.02235174447, 7.465482648072559, -41067.01654994686, 0.644, -0.722, 0.354, 192.0, 0.0, 0.0, 0.0, 0.0, 0.0, 0.0, 0.0, 0.0, 0.0, 1.6635909845030055E9, 0.0, 2022-09-19 17:36:24.503
8.0, 34001.42896192419, 48049.92503522933, -39627.67596574735, -22402.19234254269, -187500.02235174447, -187500.02235174447, -1345.7314784206724, -40916.63401325155, 0.644, -0.722, 0.354, 192.0, 0.0, 0.0, 0.0, 0.0, 0.0, 0.0, 0.0, 0.0, 0.0, 1.6635909845069542E9, 0.0, 2022-09-19 17:36:24.506
9.0, 33677.68629523353, 47989.66473217782, -39652.97814047076, -22367.368324681323, -187500.02235174447, -187500.02235174447, -1400.6273628029064, -40923.8089232217, 0.644, -0.722, 0.354, 192.0, 0.0, 0.0, 0.0, 0.0, 0.0, 0.0, 0.0, 0.0, 0.0, 1.6635909845109656E9, 0.0, 2022-09-19 17:36:24.510
10.0, 33911.88787363623, 48156.90048419243, -39757.606656266056, -22414.932836882217, -187500.02235174447, -187500.02235174447, -788.7260065944204, -40995.24509850086, 0.644, -0.722, 0.354, 192.0, 0.0, 0.0, 0.0, 0.0, 0.0, 0.0, 0.0, 0.0, 0.0, 1.663590984515E9, 0.0, 2022-09-19 17:36:24.515
11.0, 34648.31079820523, 48467.07564199873, -39906.55868131622, -22508.49723917213, -187500.02235174447, -187500.02235174447, 223.62920327534715, -41112.2564807244, 0.644, -0.722, 0.354, 192.0, 0.0, 0.0, 0.0, 0.0, 0.0, 0.0, 0.0, 0.0, 0.0, 1.6635909845190184E9, 0.0, 2022-09-19 17:36:24.519
12.0, 34856.29378036187, 48442.578130075715, -39827.63467164453, -22535.006408096124, -187500.02235174447, -187500.02235174447, 44.90465461071189, -41079.444119864005, 0.644, -0.722, 0.354, 192.0, 0.0, 0.0, 0.0, 0.0, 0.0, 0.0, 0.0, 0.0, 0.0, 1.663590984523021E9, 0.0, 2022-09-19 17:36:24.523
13.0, 34033.05668032845, 48033.20593037676, -39636.32609085156, -22416.989197372102, -187500.02235174447, -187500.02235174447, -1307.4429401687314, -40920.81378946469, 0.644, -0.722, 0.354, 192.0, 0.0, 0.0, 0.0, 0.0, 0.0, 0.0, 0.0, 0.0, 0.0, 1.66359098452701E9, 0.0, 2022-09-19 17:36:24.527
14.0, 33710.655118305105, 47968.05059528954, -39658.27550390667, -22371.034010771993, -187500.02235174447, -187500.02235174447, -1406.2376506611886, -40918.779780719255, 0.638, -0.72, 0.358, 192.0, 19.0, 240.0, 233.0, 128.0, 11.0, 48.0, 0.0, 0.0, 0.0, 1.663590984531007E9, 0.0, 2022-09-19 17:36:24.531
15.0, 33944.65553100772, 48122.97053610928, -39759.551258033665, -22421.97363638564, -187500.02235174447, -187500.02235174447, -811.2118615164592, -41008.007944584846, 0.638, -0.72, 0.358, 192.0, 0.0, 0.0, 0.0, 0.0, 0.0, 0.0, 0.0, 0.0, 0.0, 1.6635909845340123E9, 0.0, 2022-09-19 17:36:24.534
16.0, 34671.847185116676, 48434.956185216455, -39904.837596993166, -22517.572047420985, -187500.02235174447, -187500.02235174447, 202.95383965418813, -41130.98724257794, 0.638, -0.72, 0.358, 192.0, 0.0, 0.0, 0.0, 0.0, 0.0, 0.0, 0.0, 0.0, 0.0, 1.6635909845390344E9, 0.0, 2022-09-19 17:36:24.539
17.0, 34911.5919961443, 48426.931908957, -39840.68809040643, -22554.117149605412, -187500.02235174447, -187500.02235174447, 101.40986459372814, -41115.922166815064, 0.638, -0.72, 0.358, 192.0, 0.0, 0.0, 0.0, 0.0, 0.0, 0.0, 0.0, 0.0, 0.0, 1.663590984543028E9, 0.0, 2022-09-19 17:36:24.543
18.0, 34084.62215478685, 48011.65884872185, -39633.912102450384, -22441.956095928683, -187500.02235174447, -187500.02235174447, -1255.4080790767764, -40954.855496270124, 0.638, -0.72, 0.358, 192.0, 0.0, 0.0, 0.0, 0.0, 0.0, 0.0, 0.0, 0.0, 0.0, 1.663590984547036E9, 0.0, 2022-09-19 17:36:24.547
19.0, 33714.18669392904, 47927.750400036624, -39653.24636140423, -22398.213732029646, -187500.02235174447, -187500.02235174447, -1407.80227277306, -40941.04211819674, 0.638, -0.72, 0.358, 192.0, 0.0, 0.0, 0.0, 0.0, 0.0, 0.0, 0.0, 0.0, 0.0, 1.6635909845510943E9, 0.0, 2022-09-19 17:36:24.551
20.0, 33921.27560630746, 48075.49543088621, -39742.40747003644, -22438.11159588237, -187500.02235174447, -187500.02235174447, -827.796855902297, -41014.26643303233, 0.638, -0.72, 0.358, 192.0, 0.0, 0.0, 0.0, 0.0, 0.0, 0.0, 0.0, 0.0, 0.0, 1.663590984556047E9, 0.0, 2022-09-19 17:36:24.556
21.0, 34626.33903340567, 48374.80764088722, -39890.82305321968, -22522.489431201153, -187500.02235174447, -187500.02235174447, 177.31638876395093, -41131.83660886724, 0.638, -0.72, 0.358, 192.0, 0.0, 0.0, 0.0, 0.0, 0.0, 0.0, 0.0, 0.0, 0.0, 1.6635909845590408E9, 0.0, 2022-09-19 17:36:24.559
22.0, 34901.556062883865, 48373.511239708816, -39846.588950942634, -22563.393123554364, -187500.02235174447, -187500.02235174447, 129.70717307414688, -41119.14081801663, 0.638, -0.72, 0.358, 192.0, 0.0, 0.0, 0.0, 0.0, 0.0, 0.0, 0.0, 0.0, 0.0, 1.663590984562064E9, 0.0, 2022-09-19 17:36:24.562
23.0, 34081.42585532974, 47947.4199351573, -39620.769276710664, -22433.596543502397, -187500.02235174447, -187500.02235174447, -1231.6928782096957, -40947.36766187759, 0.638, -0.72, 0.358, 192.0, 0.0, 0.0, 0.0, 0.0, 0.0, 0.0, 0.0, 0.0, 0.0, 1.6635909845670612E9, 0.0, 2022-09-19 17:36:24.567
24.0, 33666.33160905023, 47839.55041641598, -39640.05883217559, -22381.85225508836, -187500.02235174447, -187500.02235174447, -1444.1462092573893, -40931.20735063641, 0.636, -0.712, 0.358, 192.0, 19.0, 224.0, 233.0, 192.0, 11.0, 48.0, 0.0, 0.0, 0.0, 1.6635909845710676E9, 0.0, 2022-09-19 17:36:24.571
25.0, 33841.859858257754, 47990.71526416722, -39735.59018797758, -22427.986255644115, -187500.02235174447, -187500.02235174447, -889.5770775767658, -41004.856348616646, 0.636, -0.712, 0.358, 192.0, 0.0, 0.0, 0.0, 0.0, 0.0, 0.0, 0.0, 0.0, 0.0, 1.6635909845751288E9, 0.0, 2022-09-19 17:36:24.575
26.0, 34530.71827062586, 48306.724227276354, -39880.85417519262, -22513.83930609695, -187500.02235174447, -187500.02235174447, 116.25142291205204, -41127.23214950945, 0.636, -0.712, 0.358, 192.0, 0.0, 0.0, 0.0, 0.0, 0.0, 0.0, 0.0, 0.0, 0.0, 1.6635909845791535E9, 0.0, 2022-09-19 17:36:24.579
27.0, 34844.35794882273, 48339.51423639229, -39844.80081138621, -22556.151158350847, -187500.02235174447, -187500.02235174447, 146.15805699325287, -41134.384707735146, 0.636, -0.712, 0.358, 192.0, 0.0, 0.0, 0.0, 0.0, 0.0, 0.0, 0.0, 0.0, 0.0, 1.6635909845830977E9, 0.0, 2022-09-19 17:36:24.583
28.0, 34022.90898834574, 47904.30342010301, -39650.631207302955, -22444.928877941238, -187500.02235174447, -187500.02235174447, -1241.0135556475586, -40981.7222931054, 0.636, -0.712, 0.358, 192.0, 0.0, 0.0, 0.0, 0.0, 0.0, 0.0, 0.0, 0.0, 0.0, 1.6635909845871055E9, 0.0, 2022-09-19 17:36:24.587
29.0, 33592.03441048079, 47793.77404377151, -39641.13171590945, -22378.85712133135, -187500.02235174447, -187500.02235174447, -1481.0936428420118, -40955.68251081497, 0.636, -0.712, 0.358, 192.0, 0.0, 0.0, 0.0, 0.0, 0.0, 0.0, 0.0, 0.0, 0.0, 1.6635909845901282E9, 0.0, 2022-09-19 17:36:24.590
30.0, 33762.08648229676, 47941.22850194317, -39724.79429540566, -22416.653921205274, -187500.02235174447, -187500.02235174447, -915.1698249780924, -41028.057459361255, 0.636, -0.712, 0.358, 192.0, 0.0, 0.0, 0.0, 0.0, 0.0, 0.0, 0.0, 0.0, 0.0, 1.6635909845951705E9, 0.0, 2022-09-19 17:36:24.595
31.0, 34436.70683344684, 48238.841979365585, -39870.88529716555, -22507.46905892719, -187500.02235174447, -187500.02235174447, 91.21746912210813, -41150.72383293198, 0.636, -0.712, 0.358, 192.0, 0.0, 0.0, 0.0, 0.0, 0.0, 0.0, 0.0, 0.0, 0.0, 1.6635909845991442E9, 0.0, 2022-09-19 17:36:24.599
32.0, 34804.48243671447, 48288.88753520102, -39829.15459026749, -22548.08217860248, -187500.02235174447, -187500.02235174447, 206.6195257448585, -41148.19808580853, 0.636, -0.712, 0.358, 192.0, 0.0, 0.0, 0.0, 0.0, 0.0, 0.0, 0.0, 0.0, 0.0, 1.6635909846031651E9, 0.0, 2022-09-19 17:36:24.603
33.0, 34007.95567130514, 47860.494000970604, -39626.2007506133, -22435.87642143684, -187500.02235174447, -187500.02235174447, -1169.0185867570146, -40983.13045300609, 0.636, -0.712, 0.358, 192.0, 0.0, 0.0, 0.0, 0.0, 0.0, 0.0, 0.0, 0.0, 0.0, 1.6635909846072073E9, 0.0, 2022-09-19 17:36:24.607
34.0, 33538.189058087955, 47718.7615893795, -39635.812000729085, -22378.38773469779, -187500.02235174447, -187500.02235174447, -1479.506668985685, -40959.482307372375, 0.638, -0.714, 0.356, 192.0, 19.0, 240.0, 233.0, 176.0, 11.0, 32.0, 0.0, 0.0, 0.0, 1.663590984611162E9, 0.0, 2022-09-19 17:36:24.611
35.0, 33685.21883311497, 47852.76029738907, -39736.39485077797, -22422.95711314167, -187500.02235174447, -187500.02235174447, -947.5798544382876, -41029.957357639956, 0.638, -0.714, 0.356, 192.0, 0.0, 0.0, 0.0, 0.0, 0.0, 0.0, 0.0, 0.0, 0.0, 1.6635909846151984E9, 0.0, 2022-09-19 17:36:24.615
36.0, 34352.194887661324, 48159.13565863796, -39870.2594483208, -22503.333986202953, -187500.02235174447, -187500.02235174447, 41.97657608706666, -41137.7598211479, 0.638, -0.714, 0.356, 192.0, 0.0, 0.0, 0.0, 0.0, 0.0, 0.0, 0.0, 0.0, 0.0, 1.6635909846182733E9, 0.0, 2022-09-19 17:36:24.618
37.0, 34763.01995074987, 48239.065496810144, -39842.29741600721, -22560.196824097256, -187500.02235174447, -187500.02235174447, 224.7020870092019, -41151.036757354355, 0.638, -0.714, 0.356, 192.0, 0.0, 0.0, 0.0, 0.0, 0.0, 0.0, 0.0, 0.0, 0.0, 1.663590984622192E9, 0.0, 2022-09-19 17:36:24.622
38.0, 33998.85851131183, 47833.20252099068, -39628.77120122567, -22459.479863581644, -187500.02235174447, -187500.02235174447, -1135.3568596073223, -40982.39284543906, 0.638, -0.714, 0.356, 192.0, 0.0, 0.0, 0.0, 0.0, 0.0, 0.0, 0.0, 0.0, 0.0, 1.6635909846271825E9, 0.0, 2022-09-19 17:36:24.627
39.0, 33506.00254607231, 47694.68876060114, -39628.391221569924, -22399.845409374884, -187500.02235174447, -187500.02235174447, -1496.96338140528, -40954.18494393647, 0.638, -0.714, 0.356, 192.0, 0.0, 0.0, 0.0, 0.0, 0.0, 0.0, 0.0, 0.0, 0.0, 1.6635909846312363E9, 0.0, 2022-09-19 17:36:24.631
40.0, 33642.59405643869, 47835.057715780466, -39725.24133029477, -22434.557668513975, -187500.02235174447, -187500.02235174447, -981.7333199659968, -41022.89420639208, 0.638, -0.714, 0.356, 192.0, 0.0, 0.0, 0.0, 0.0, 0.0, 0.0, 0.0, 0.0, 0.0, 1.6635909846352446E9, 0.0, 2022-09-19 17:36:24.635
41.0, 34294.460331733266, 48138.4155915279, -39867.44312851944, -22504.675090870274, -187500.02235174447, -187500.02235174447, -5.498529136005537, -41134.56352169079, 0.638, -0.714, 0.356, 192.0, 0.0, 0.0, 0.0, 0.0, 0.0, 0.0, 0.0, 0.0, 0.0, 1.6635909846392467E9, 0.0, 2022-09-19 17:36:24.639
42.0, 34747.485488353435, 48245.10046781308, -39861.6093232166, -22556.017047884114, -187500.02235174447, -187500.02235174447, 241.60000581741403, -41152.46726899949, 0.638, -0.714, 0.356, 192.0, 0.0, 0.0, 0.0, 0.0, 0.0, 0.0, 0.0, 0.0, 0.0, 1.6635909846433413E9, 0.0, 2022-09-19 17:36:24.643
43.0, 34010.01203179503, 47836.64468963679, -39654.31924513808, -22460.01630544857, -187500.02235174447, -187500.02235174447, -1105.6737429706745, -40985.5220896628, 0.638, -0.714, 0.356, 192.0, 0.0, 0.0, 0.0, 0.0, 0.0, 0.0, 0.0, 0.0, 0.0, 1.6635909846482491E9, 0.0, 2022-09-19 17:36:24.648
44.0, 33493.57497615516, 47675.22039118056, -39636.929587951854, -22382.29928997747, -187500.02235174447, -187500.02235174447, -1505.9487826763134, -40933.01784193729, 0.638, -0.71, 0.358, 192.0, 19.0, 240.0, 233.0, 208.0, 11.0, 48.0, 0.0, 0.0, 0.0, 1.663590984651238E9, 0.0, 2022-09-19 17:36:24.651
45.0, 33623.46096318495, 47804.301715409965, -39731.589225720076, -22417.279770050023, -187500.02235174447, -187500.02235174447, -993.9150206941391, -41003.939927093976, 0.638, -0.71, 0.358, 192.0, 0.0, 0.0, 0.0, 0.0, 0.0, 0.0, 0.0, 0.0, 0.0, 1.66359098465531E9, 0.0, 2022-09-19 17:36:24.655
46.0, 34263.905497062864, 48096.349608463, -39867.979570386364, -22490.146456974326, -187500.02235174447, -187500.02235174447, -26.129189268253956, -41115.40807669259, 0.638, -0.71, 0.358, 192.0, 0.0, 0.0, 0.0, 0.0, 0.0, 0.0, 0.0, 0.0, 0.0, 1.6635909846592357E9, 0.0, 2022-09-19 17:36:24.659
47.0, 34750.97236048846, 48203.34740917056, -39877.32259956868, -22554.184204838777, -187500.02235174447, -187500.02235174447, 272.24424746564, -41157.40700452412, 0.638, -0.71, 0.358, 192.0, 0.0, 0.0, 0.0, 0.0, 0.0, 0.0, 0.0, 0.0, 0.0, 1.6635909846633112E9, 0.0, 2022-09-19 17:36:24.663
48.0, 34040.410404254246, 47805.10637821035, -39655.92857073886, -22456.283564124533, -187500.02235174447, -187500.02235174447, -1065.1947337621134, -40997.05558980174, 0.638, -0.71, 0.358, 192.0, 0.0, 0.0, 0.0, 0.0, 0.0, 0.0, 0.0, 0.0, 0.0, 1.6635909846672697E9, 0.0, 2022-09-19 17:36:24.667
49.0, 33504.68379314945, 47637.8929779402, -39624.59142501252, -22370.18464448269, -187500.02235174447, -187500.02235174447, -1522.9361084623467, -40939.07516468468, 0.638, -0.71, 0.358, 192.0, 0.0, 0.0, 0.0, 0.0, 0.0, 0.0, 0.0, 0.0, 0.0, 1.66359098467034E9, 0.0, 2022-09-19 17:36:24.670
50.0, 33626.612559153145, 47767.77896496999, -39718.021716835705, -22403.309929765455, -187500.02235174447, -187500.02235174447, -1027.0626577213595, -41009.17023529652, 0.638, -0.71, 0.358, 192.0, 0.0, 0.0, 0.0, 0.0, 0.0, 0.0, 0.0, 0.0, 0.0, 1.6635909846742857E9, 0.0, 2022-09-19 17:36:24.674
51.0, 34248.77336606662, 48053.590721320004, -39863.866849406586, -22475.193139933723, -187500.02235174447, -187500.02235174447, -76.71118697061384, -41128.55090243231, 0.638, -0.71, 0.358, 192.0, 0.0, 0.0, 0.0, 0.0, 0.0, 0.0, 0.0, 0.0, 0.0, 1.6635909846782832E9, 0.0, 2022-09-19 17:36:24.678
52.0, 34779.96257304699, 48191.14335669796, -39886.643277006544, -22531.117204560902, -187500.02235174447, -187500.02235174447, 284.15772726031867, -41170.10279537473, 0.638, -0.71, 0.358, 192.0, 0.0, 0.0, 0.0, 0.0, 0.0, 0.0, 0.0, 0.0, 0.0, 1.6635909846832836E9, 0.0, 2022-09-19 17:36:24.683
53.0, 34102.011811973076, 47810.96253525765, -39666.791518544145, -22435.67525573674, -187500.02235174447, -187500.02235174447, -1029.342535655801, -41006.42097072852, 0.638, -0.71, 0.358, 192.0, 0.0, 0.0, 0.0, 0.0, 0.0, 0.0, 0.0, 0.0, 0.0, 1.6635909846873438E9, 0.0, 2022-09-19 17:36:24.687
54.0, 33540.87126742259, 47637.66946049565, -39631.0063756712, -22355.14192046427, -187500.02235174447, -187500.02235174447, -1538.82819877007, -40944.77485952078, 0.638, -0.71, 0.358, 192.0, 0.0, 0.0, 0.0, 0.0, 0.0, 0.0, 0.0, 0.0, 0.0, 1.66359098469134E9, 0.0, 2022-09-19 17:36:24.691
55.0, 33639.75538489287, 47763.26391259002, -39731.522170486714, -22390.94941508167, -187500.02235174447, -187500.02235174447, -1069.4415652086218, -40997.14499677956, 0.64, -0.716, 0.358, 192.0, 20.0, 0.0, 233.0, 160.0, 11.0, 48.0, 0.0, 0.0, 0.0, 1.66359098469431E9, 0.0, 2022-09-19 17:36:24.694
56.0, 34258.608133626956, 48070.35452966148, -39865.09619535162, -22457.53526181403, -187500.02235174447, -187500.02235174447, -120.83353052538997, -41087.55780310128, 0.64, -0.716, 0.358, 192.0, 0.0, 0.0, 0.0, 0.0, 0.0, 0.0, 0.0, 0.0, 0.0, 1.6635909846983824E9, 0.0, 2022-09-19 17:36:24.698
57.0, 34838.83706794227, 48246.57568294712, -39892.253564864826, -22526.199820780734, -187500.02235174447, -187500.02235174447, 324.5696812355139, -41131.6577949116, 0.64, -0.716, 0.358, 192.0, 0.0, 0.0, 0.0, 0.0, 0.0, 0.0, 0.0, 0.0, 0.0, 1.6635909847023869E9, 0.0, 2022-09-19 17:36:24.702
58.0, 34201.16415037682, 47873.88269589934, -39681.27544895118, -22442.67135175125, -187500.02235174447, -187500.02235174447, -957.5263807208993, -40970.25584819983, 0.64, -0.716, 0.358, 192.0, 0.0, 0.0, 0.0, 0.0, 0.0, 0.0, 0.0, 0.0, 0.0, 1.663590984706401E9, 0.0, 2022-09-19 17:36:24.706
59.0, 33610.474599656416, 47664.71507128657, -39650.6088555585, -22375.884339318793, -187500.02235174447, -187500.02235174447, -1540.0128412262013, -40924.8594552111, 0.64, -0.716, 0.358, 192.0, 0.0, 0.0, 0.0, 0.0, 0.0, 0.0, 0.0, 0.0, 0.0, 1.6635909847104688E9, 0.0, 2022-09-19 17:36:24.710
60.0, 33694.69597276401, 47774.61859877332, -39725.218978550314, -22396.38088898431, -187500.02235174447, -187500.02235174447, -1073.2190100215687, -40981.29760996075, 0.64, -0.716, 0.358, 192.0, 0.0, 0.0, 0.0, 0.0, 0.0, 0.0, 0.0, 0.0, 0.0, 1.66359098471546E9, 0.0, 2022-09-19 17:36:24.715
61.0, 34268.15232850937, 48049.61211080696, -39859.664721448986, -22457.222337391657, -187500.02235174447, -187500.02235174447, -157.22217049862988, -41082.26043966537, 0.64, -0.716, 0.358, 192.0, 0.0, 0.0, 0.0, 0.0, 0.0, 0.0, 0.0, 0.0, 0.0, 1.6635909847194512E9, 0.0, 2022-09-19 17:36:24.719
62.0, 34855.86909721722, 48228.716639127335, -39879.66953273649, -22517.728509632172, -187500.02235174447, -187500.02235174447, 338.2713005866171, -41122.11360002919, 0.64, -0.716, 0.358, 192.0, 0.0, 0.0, 0.0, 0.0, 0.0, 0.0, 0.0, 0.0, 0.0, 1.6635909847223866E9, 0.0, 2022-09-19 17:36:24.722
63.0, 34239.229171184204, 47860.53870445952, -39666.165669699396, -22438.670389493753, -187500.02235174447, -187500.02235174447, -918.7908075798521, -40967.14895572054, 0.64, -0.716, 0.358, 192.0, 0.0, 0.0, 0.0, 0.0, 0.0, 0.0, 0.0, 0.0, 0.0, 1.6635909847264175E9, 0.0, 2022-09-19 17:36:24.726
64.0, 33616.2860532148, 47641.759829730974, -39626.379564568946, -22354.247850686057, -187500.02235174447, -187500.02235174447, -1544.4384866283522, -40912.05190563821, 0.64, -0.716, 0.358, 192.0, 0.0, 0.0, 0.0, 0.0, 0.0, 0.0, 0.0, 0.0, 0.0, 1.663590984730462E9, 0.0, 2022-09-19 17:36:24.730
65.0, 33680.50261503489, 47752.80329618494, -39716.05476332364, -22384.422705700723, -187500.02235174447, -187500.02235174447, -1104.4220452811774, -40974.94971453545, 0.644, -0.724, 0.358, 192.0, 20.0, 32.0, 233.0, 96.0, 11.0, 48.0, 0.0, 0.0, 0.0, 1.663590984734458E9, 0.0, 2022-09-19 17:36:24.734
66.0, 34241.01731074063, 48033.04946816558, -39846.81246838719, -22450.807386732984, -187500.02235174447, -187500.02235174447, -193.61081047186977, -41075.82313726225, 0.644, -0.724, 0.358, 192.0, 0.0, 0.0, 0.0, 0.0, 0.0, 0.0, 0.0, 0.0, 0.0, 1.6635909847385576E9, 0.0, 2022-09-19 17:36:24.738
67.0, 34868.341370623275, 48239.66899391043, -39897.57328004519, -22520.433070711264, -187500.02235174447, -187500.02235174447, 356.75619325115605, -41129.93671058854, 0.644, -0.724, 0.358, 192.0, 0.0, 0.0, 0.0, 0.0, 0.0, 0.0, 0.0, 0.0, 0.0, 1.6635909847434845E9, 0.0, 2022-09-19 17:36:24.743
68.0, 34289.721761908746, 47886.69024547222, -39683.08594025206, -22451.790863489015, -187500.02235174447, -187500.02235174447, -866.6441877656207, -40985.99147629637, 0.644, -0.724, 0.358, 192.0, 0.0, 0.0, 0.0, 0.0, 0.0, 0.0, 0.0, 0.0, 0.0, 1.6635909847474177E9, 0.0, 2022-09-19 17:36:24.747
69.0, 33635.84382961319, 47642.944472187104, -39622.51271277818, -22366.921289792215, -187500.02235174447, -187500.02235174447, -1546.9418820073465, -40922.5125220433, 0.644, -0.724, 0.358, 192.0, 0.0, 0.0, 0.0, 0.0, 0.0, 0.0, 0.0, 0.0, 0.0, 1.6635909847504086E9, 0.0, 2022-09-19 17:36:24.750
70.0, 33692.01376342938, 47752.44566827365, -39700.967335816305, -22378.544196908977, -187500.02235174447, -187500.02235174447, -1114.3462198193336, -40969.98762726637, 0.644, -0.724, 0.358, 192.0, 0.0, 0.0, 0.0, 0.0, 0.0, 0.0, 0.0, 0.0, 0.0, 1.6635909847544372E9, 0.0, 2022-09-19 17:36:24.754
71.0, 34243.38659565289, 48019.8842906814, -39833.848456603104, -22444.30302909649, -187500.02235174447, -187500.02235174447, -219.80705497348964, -41067.30712262477, 0.644, -0.724, 0.358, 192.0, 0.0, 0.0, 0.0, 0.0, 0.0, 0.0, 0.0, 0.0, 0.0, 1.6635909847584484E9, 0.0, 2022-09-19 17:36:24.758
72.0, 34895.49874013648, 48224.648621636465, -39908.458579594924, -22535.475794729686, -187500.02235174447, -187500.02235174447, 368.5802660680135, -41147.92986487506, 0.644, -0.724, 0.358, 192.0, 0.0, 0.0, 0.0, 0.0, 0.0, 0.0, 0.0, 0.0, 0.0, 1.6635909847625225E9, 0.0, 2022-09-19 17:36:24.762
73.0, 34355.94998072982, 47886.91376291678, -39694.99942004674, -22455.25538387959, -187500.02235174447, -187500.02235174447, -827.7298006689311, -40996.07211304571, 0.644, -0.724, 0.358, 192.0, 0.0, 0.0, 0.0, 0.0, 0.0, 0.0, 0.0, 0.0, 0.0, 1.6635909847664444E9, 0.0, 2022-09-19 17:36:24.766
74.0, 33697.10996116519, 47652.55572230288, -39607.492340504214, -22340.032141212483, -187500.02235174447, -187500.02235174447, -1536.7718382801818, -40897.47856825335, 0.644, -0.724, 0.358, 192.0, 0.0, 0.0, 0.0, 0.0, 0.0, 0.0, 0.0, 0.0, 0.0, 1.6635909847714782E9, 0.0, 2022-09-19 17:36:24.771
75.0, 33734.72794708347, 47758.03360438748, -39689.27737346618, -22356.684190831686, -187500.02235174447, -187500.02235174447, -1121.878757700772, -40953.20146718043, 0.638, -0.72, 0.362, 192.0, 19.0, 240.0, 233.0, 128.0, 11.0, 80.0, 0.0, 0.0, 0.0, 1.6635909847754633E9, 0.0, 2022-09-19 17:36:24.775
76.0, 34265.090139518994, 48025.36046807295, -39826.76295361078, -22423.24768581959, -187500.02235174447, -187500.02235174447, -255.9498257577212, -41051.16916312804, 0.638, -0.72, 0.362, 192.0, 0.0, 0.0, 0.0, 0.0, 0.0, 0.0, 0.0, 0.0, 0.0, 1.663590984778468E9, 0.0, 2022-09-19 17:36:24.778
77.0, 34949.05351985139, 48258.44445925289, -39890.353666586125, -22508.005500794116, -187500.02235174447, -187500.02235174447, 402.48786240671427, -41112.14472200212, 0.638, -0.72, 0.362, 192.0, 0.0, 0.0, 0.0, 0.0, 0.0, 0.0, 0.0, 0.0, 0.0, 1.6635909847825103E9, 0.0, 2022-09-19 17:36:24.782
78.0, 34445.69223471788, 47924.57645232397, -39685.99166703125, -22450.829738477438, -187500.02235174447, -187500.02235174447, -734.6124332681219, -40967.081900487174, 0.638, -0.72, 0.362, 192.0, 0.0, 0.0, 0.0, 0.0, 0.0, 0.0, 0.0, 0.0, 0.0, 1.6635909847866137E9, 0.0, 2022-09-19 17:36:24.786
79.0, 33745.881467566665, 47656.780202004935, -39606.26299455917, -22348.3246384054, -187500.02235174447, -187500.02235174447, -1524.992468952235, -40883.218155290866, 0.638, -0.72, 0.362, 192.0, 0.0, 0.0, 0.0, 0.0, 0.0, 0.0, 0.0, 0.0, 0.0, 1.6635909847904804E9, 0.0, 2022-09-19 17:36:24.790
80.0, 33767.24973526594, 47755.50785726403, -39686.30459145363, -22345.933001748683, -187500.02235174447, -187500.02235174447, -1133.725182262085, -40926.401725578515, 0.638, -0.72, 0.362, 192.0, 0.0, 0.0, 0.0, 0.0, 0.0, 0.0, 0.0, 0.0, 0.0, 1.6635909847944872E9, 0.0, 2022-09-19 17:36:24.794
81.0, 34296.270823034145, 48035.485808311205, -39800.63376434252, -22387.753115624564, -187500.02235174447, -187500.02235174447, -265.58342761795853, -41009.661973674534, 0.638, -0.72, 0.362, 192.0, 0.0, 0.0, 0.0, 0.0, 0.0, 0.0, 0.0, 0.0, 0.0, 1.6635909847985485E9, 0.0, 2022-09-19 17:36:24.798
82.0, 34997.37799136376, 48278.09164262911, -39884.631620005566, -22470.745142787116, -187500.02235174447, -187500.02235174447, 427.2535952631945, -41092.18461420353, 0.638, -0.72, 0.362, 192.0, 0.0, 0.0, 0.0, 0.0, 0.0, 0.0, 0.0, 0.0, 0.0, 1.6635909848035247E9, 0.0, 2022-09-19 17:36:24.803
83.0, 34534.808639861185, 47957.679385862284, -39686.86338506501, -22400.560665197452, -187500.02235174447, -187500.02235174447, -680.9235430864744, -40957.314188160206, 0.638, -0.72, 0.362, 192.0, 0.0, 0.0, 0.0, 0.0, 0.0, 0.0, 0.0, 0.0, 0.0, 1.6635909848065407E9, 0.0, 2022-09-19 17:36:24.806
84.0, 33817.13882889019, 47672.2029056791, -39601.16679682336, -22296.75916394701, -187500.02235174447, -187500.02235174447, -1521.5503003061176, -40863.70508238138, 0.638, -0.72, 0.362, 192.0, 0.0, 0.0, 0.0, 0.0, 0.0, 0.0, 0.0, 0.0, 0.0, 1.6635909848105662E9, 0.0, 2022-09-19 17:36:24.810
85.0, 33812.91434918813, 47759.70998522163, -39687.064550765106, -22313.768841477497, -187500.02235174447, -187500.02235174447, -1154.2217319276015, -40920.72438248687, 0.64, -0.718, 0.364, 192.0, 20.0, 0.0, 233.0, 144.0, 11.0, 96.0, 0.0, 0.0, 0.0, 1.6635909848145912E9, 0.0, 2022-09-19 17:36:24.814
86.0, 34311.13473309693, 48021.225395348716, -39812.904872048486, -22375.973746296615, -187500.02235174447, -187500.02235174447, -311.7844834070782, -41013.506473720845, 0.64, -0.718, 0.364, 192.0, 0.0, 0.0, 0.0, 0.0, 0.0, 0.0, 0.0, 0.0, 0.0, 1.66359098481857E9, 0.0, 2022-09-19 17:36:24.818
87.0, 35033.207837725626, 48274.090680371606, -39889.07961715217, -22471.795674776517, -187500.02235174447, -187500.02235174447, 435.72490641175585, -41094.48684388243, 0.64, -0.718, 0.364, 192.0, 0.0, 0.0, 0.0, 0.0, 0.0, 0.0, 0.0, 0.0, 0.0, 1.6635909848245742E9, 0.0, 2022-09-19 17:36:24.824
88.0, 34606.08835292916, 47964.742537110156, -39683.57767863008, -22426.779261443528, -187500.02235174447, -187500.02235174447, -609.0179811737515, -40953.313225902704, 0.64, -0.718, 0.364, 192.0, 0.0, 0.0, 0.0, 0.0, 0.0, 0.0, 0.0, 0.0, 0.0, 1.663590984827561E9, 0.0, 2022-09-19 17:36:24.827
89.0, 33863.31753293485, 47660.60235030679, -39580.91611634685, -22328.677455029185, -187500.02235174447, -187500.02235174447, -1490.347265046509, -40853.84796307659, 0.64, -0.718, 0.364, 192.0, 0.0, 0.0, 0.0, 0.0, 0.0, 0.0, 0.0, 0.0, 0.0, 1.663590984832683E9, 0.0, 2022-09-19 17:36:24.832
90.0, 33828.247645884476, 47716.48171144506, -39660.063643463094, -22357.600612354352, -187500.02235174447, -187500.02235174447, -1148.365574880311, -40919.91971968648, 0.64, -0.718, 0.364, 192.0, 0.0, 0.0, 0.0, 0.0, 0.0, 0.0, 0.0, 0.0, 0.0, 1.6635909848345945E9, 0.0, 2022-09-19 17:36:24.834
91.0, 34273.11441577845, 47933.78537103956, -39793.97294449484, -22423.985293386617, -187500.02235174447, -187500.02235174447, -348.3966408248712, -41021.46369474694, 0.64, -0.718, 0.364, 192.0, 0.0, 0.0, 0.0, 0.0, 0.0, 0.0, 0.0, 0.0, 0.0, 1.6635909848376727E9, 0.0, 2022-09-19 17:36:24.837
92.0, 34994.5616715624, 48192.573868343105, -39865.09619535162, -22496.717869844186, -187500.02235174447, -187500.02235174447, 441.24578729221673, -41084.27209666635, 0.64, -0.718, 0.364, 192.0, 0.0, 0.0, 0.0, 0.0, 0.0, 0.0, 0.0, 0.0, 0.0, 1.6635909848425941E9, 0.0, 2022-09-19 17:36:24.842
93.0, 34587.15642537551, 47890.31122807399, -39671.57479185758, -22452.081436166936, -187500.02235174447, -187500.02235174447, -558.0560038156515, -40963.12564171859, 0.64, -0.718, 0.364, 192.0, 0.0, 0.0, 0.0, 0.0, 0.0, 0.0, 0.0, 0.0, 0.0, 1.663590984846587E9, 0.0, 2022-09-19 17:36:24.846
94.0, 33788.103912842744, 47561.07003224731, -39580.223212268735, -22355.410141397733, -187500.02235174447, -187500.02235174447, -1521.9526317063132, -40873.87512610854, 0.64, -0.718, 0.364, 192.0, 0.0, 0.0, 0.0, 0.0, 0.0, 0.0, 0.0, 0.0, 0.0, 1.6635909848506093E9, 0.0, 2022-09-19 17:36:24.850
95.0, 33730.637577848145, 47629.98046040302, -39649.60302705801, -22348.36934189431, -187500.02235174447, -187500.02235174447, -1194.879555091805, -40922.53487378775, 0.638, -0.71, 0.354, 192.0, 19.0, 240.0, 233.0, 208.0, 11.0, 16.0, 0.0, 0.0, 0.0, 1.6635909848546207E9, 0.0, 2022-09-19 17:36:24.854
96.0, 34162.540335958045, 47862.21508529366, -39775.130423919014, -22398.616063429843, -187500.02235174447, -187500.02235174447, -393.3459989244937, -41015.8310551442, 0.638, -0.71, 0.354, 192.0, 0.0, 0.0, 0.0, 0.0, 0.0, 0.0, 0.0, 0.0, 0.0, 1.6635909848596475E9, 0.0, 2022-09-19 17:36:24.859
97.0, 34892.0342197459, 48127.977326867265, -39870.41591053199, -22478.948233002215, -187500.02235174447, -187500.02235174447, 437.3789355014486, -41106.646192866116, 0.638, -0.71, 0.354, 192.0, 0.0, 0.0, 0.0, 0.0, 0.0, 0.0, 0.0, 0.0, 0.0, 1.663590984862628E9, 0.0, 2022-09-19 17:36:24.862
98.0, 34530.91943632596, 47851.64271016631, -39684.85172806403, -22442.96192442917, -187500.02235174447, -187500.02235174447, -509.2621456697161, -40999.737799136376, 0.638, -0.71, 0.354, 192.0, 0.0, 0.0, 0.0, 0.0, 0.0, 0.0, 0.0, 0.0, 0.0, 1.6635909848668704E9, 0.0, 2022-09-19 17:36:24.866
99.0, 33727.46363013549, 47528.436485342565, -39563.05707252706, -22323.42479508219, -187500.02235174447, -187500.02235174447, -1495.8681459269699, -40890.37071351656, 0.638, -0.71, 0.354, 192.0, 0.0, 0.0, 0.0, 0.0, 0.0, 0.0, 0.0, 0.0, 0.0, 1.663590984870648E9, 0.0, 2022-09-19 17:36:24.870
100.0, 33640.13536454861, 47587.55684942685, -39649.9606549693, -22331.4714230861, -187500.02235174447, -187500.02235174447, -1206.4801104641094, -40948.41819386699, 0.638, -0.71, 0.354, 192.0, 0.0, 0.0, 0.0, 0.0, 0.0, 0.0, 0.0, 0.0, 0.0, 1.6635909848746269E9, 0.0, 2022-09-19 17:36:24.874
101.0, 34040.94684612117, 47814.292945181485, -39780.7407117773, -22403.712261165652, -187500.02235174447, -187500.02235174447, -444.10681058249605, -41055.952436441476, 0.638, -0.71, 0.354, 192.0, 0.0, 0.0, 0.0, 0.0, 0.0, 0.0, 0.0, 0.0, 0.0, 1.663590984878661E9, 0.0, 2022-09-19 17:36:24.878
102.0, 34782.577727148266, 48097.55660266359, -39873.96983790038, -22490.59349186343, -187500.02235174447, -187500.02235174447, 421.5539004270912, -41142.1631148056, 0.638, -0.71, 0.354, 192.0, 0.0, 0.0, 0.0, 0.0, 0.0, 0.0, 0.0, 0.0, 0.0, 1.663590984882663E9, 0.0, 2022-09-19 17:36:24.882
103.0, 34476.82821474412, 47847.485285697614, -39692.451321178836, -22444.97358143015, -187500.02235174447, -187500.02235174447, -461.0047293907082, -41024.25766280385, 0.638, -0.71, 0.354, 192.0, 0.0, 0.0, 0.0, 0.0, 0.0, 0.0, 0.0, 0.0, 0.0, 1.6635909848876853E9, 0.0, 2022-09-19 17:36:24.887
104.0, 33658.776719424335, 47494.86416517069, -39566.90157257338, -22318.30624560192, -187500.02235174447, -187500.02235174447, -1502.7077797302939, -40908.654440481005, 0.638, -0.71, 0.354, 192.0, 0.0, 0.0, 0.0, 0.0, 0.0, 0.0, 0.0, 0.0, 0.0, 1.6635909848906708E9, 0.0, 2022-09-19 17:36:24.890
105.0, 33551.15306987203, 47530.89517723265, -39648.954826468806, -22320.78728923646, -187500.02235174447, -187500.02235174447, -1241.9523289146816, -40954.095536958645, 0.636, -0.7000000000000001, 0.36, 192.0, 19.0, 224.0, 234.0, 32.0, 11.0, 64.0, 0.0, 0.0, 0.0, 1.6635909848946812E9, 0.0, 2022-09-19 17:36:24.894
106.0, 33941.839211206345, 47750.07638336139, -39761.89819120147, -22379.214749242634, -187500.02235174447, -187500.02235174447, -481.83655522305435, -41036.95345365447, 0.636, -0.7000000000000001, 0.36, 192.0, 0.0, 0.0, 0.0, 0.0, 0.0, 0.0, 0.0, 0.0, 0.0, 1.6635909848986988E9, 0.0, 2022-09-19 17:36:24.898
107.0, 34695.472979005935, 48038.279776368116, -39872.516974510785, -22468.621727063863, -187500.02235174447, -187500.02235174447, 412.6355543894237, -41140.93376886055, 0.636, -0.7000000000000001, 0.36, 192.0, 0.0, 0.0, 0.0, 0.0, 0.0, 0.0, 0.0, 0.0, 0.0, 1.6635909849026952E9, 0.0, 2022-09-19 17:36:24.902
108.0, 34432.92938863389, 47796.61271531734, -39703.38132421748, -22437.15047087079, -187500.02235174447, -187500.02235174447, -416.54710966910244, -41037.24402633239, 0.636, -0.7000000000000001, 0.36, 192.0, 0.0, 0.0, 0.0, 0.0, 0.0, 0.0, 0.0, 0.0, 0.0, 1.66359098490774E9, 0.0, 2022-09-19 17:36:24.907
109.0, 33597.1306082166, 47424.45617013647, -39576.22225001124, -22317.792155479452, -187500.02235174447, -187500.02235174447, -1506.507576287696, -40917.43867605194, 0.636, -0.7000000000000001, 0.36, 192.0, 0.0, 0.0, 0.0, 0.0, 0.0, 0.0, 0.0, 0.0, 0.0, 1.6635909849117596E9, 0.0, 2022-09-19 17:36:24.911
110.0, 33469.56920261016, 47455.502743184894, -39650.005358458206, -22322.24015262606, -187500.02235174447, -187500.02235174447, -1273.0883089409244, -40965.09259523065, 0.636, -0.7000000000000001, 0.36, 192.0, 0.0, 0.0, 0.0, 0.0, 0.0, 0.0, 0.0, 0.0, 0.0, 1.6635909849147174E9, 0.0, 2022-09-19 17:36:24.914
111.0, 33841.099898946275, 47673.02992022395, -39763.6863307579, -22385.5849964124, -187500.02235174447, -187500.02235174447, -534.4749134153025, -41056.33241609722, 0.636, -0.7000000000000001, 0.36, 192.0, 0.0, 0.0, 0.0, 0.0, 0.0, 0.0, 0.0, 0.0, 0.0, 1.6635909849177587E9, 0.0, 2022-09-19 17:36:24.917
112.0, 34607.89884423004, 47975.69489189326, -39879.46836703639, -22472.44387536572, -187500.02235174447, -187500.02235174447, 386.1934406987954, -41150.14268757614, 0.636, -0.7000000000000001, 0.36, 192.0, 0.0, 0.0, 0.0, 0.0, 0.0, 0.0, 0.0, 0.0, 0.0, 1.6635909849217477E9, 0.0, 2022-09-19 17:36:24.921
113.0, 34394.90907131542, 47758.435935787675, -39719.04989708065, -22444.370084329854, -187500.02235174447, -187500.02235174447, -384.53941160910273, -41059.48401206541, 0.636, -0.7000000000000001, 0.36, 192.0, 0.0, 0.0, 0.0, 0.0, 0.0, 0.0, 0.0, 0.0, 0.0, 1.663590984926726E9, 0.0, 2022-09-19 17:36:24.926
114.0, 33546.30274132523, 47381.45141380446, -39585.49822396019, -22332.343141119854, -187500.02235174447, -187500.02235174447, -1520.8797479724585, -40939.25397864032, 0.636, -0.7000000000000001, 0.36, 192.0, 0.0, 0.0, 0.0, 0.0, 0.0, 0.0, 0.0, 0.0, 0.0, 1.663590984930727E9, 0.0, 2022-09-19 17:36:24.930
115.0, 33399.36237327604, 47405.65835304956, -39637.51073330769, -22320.80964098092, -187500.02235174447, -187500.02235174447, -1304.4701581561756, -40969.048853999244, 0.64, -0.7000000000000001, 0.368, 192.0, 20.0, 0.0, 234.0, 32.0, 11.0, 128.0, 0.0, 0.0, 0.0, 1.6635909849347248E9, 0.0, 2022-09-19 17:36:24.934
116.0, 33753.32459847029, 47610.55679447136, -39748.353034061554, -22362.406237412244, -187500.02235174447, -187500.02235174447, -577.7031871918664, -41047.23525610391, 0.64, -0.7000000000000001, 0.368, 192.0, 0.0, 0.0, 0.0, 0.0, 0.0, 0.0, 0.0, 0.0, 0.0, 1.6635909849387984E9, 0.0, 2022-09-19 17:36:24.938
117.0, 34524.70565136739, 47914.09348417443, -39872.33816055515, -22446.82877621994, -187500.02235174447, -187500.02235174447, 366.61331255594644, -41139.212684537495, 0.64, -0.7000000000000001, 0.368, 192.0, 0.0, 0.0, 0.0, 0.0, 0.0, 0.0, 0.0, 0.0, 0.0, 1.6635909849418695E9, 0.0, 2022-09-19 17:36:24.941
118.0, 34357.5593063306, 47717.64400215674, -39727.02946985119, -22438.424520304743, -187500.02235174447, -187500.02235174447, -336.43845754128193, -41056.80180273078, 0.64, -0.7000000000000001, 0.368, 192.0, 0.0, 0.0, 0.0, 0.0, 0.0, 0.0, 0.0, 0.0, 0.0, 1.6635909849457643E9, 0.0, 2022-09-19 17:36:24.945
119.0, 33502.314508237185, 47342.17939879649, -39574.67997964382, -22319.22266712459, -187500.02235174447, -187500.02235174447, -1500.1820326068441, -40927.07227791218, 0.64, -0.7000000000000001, 0.368, 192.0, 0.0, 0.0, 0.0, 0.0, 0.0, 0.0, 0.0, 0.0, 0.0, 1.6635909849497657E9, 0.0, 2022-09-19 17:36:24.949
120.0, 33324.685195050864, 47354.294044291266, -39639.27652111966, -22305.3645855623, -187500.02235174447, -187500.02235174447, -1324.7878938660497, -40959.884638772564, 0.64, -0.7000000000000001, 0.368, 192.0, 0.0, 0.0, 0.0, 0.0, 0.0, 0.0, 0.0, 0.0, 0.0, 1.6635909849547937E9, 0.0, 2022-09-19 17:36:24.954
121.0, 33659.201402568986, 47557.35964266773, -39749.80589745115, -22359.43345539969, -187500.02235174447, -187500.02235174447, -625.6029755595894, -41046.76586947034, 0.64, -0.7000000000000001, 0.368, 192.0, 0.0, 0.0, 0.0, 0.0, 0.0, 0.0, 0.0, 0.0, 0.0, 1.6635909849587822E9, 0.0, 2022-09-19 17:36:24.958
122.0, 34437.17622008041, 47878.57656223495, -39862.458689505904, -22452.930802456238, -187500.02235174447, -187500.02235174447, 354.56572229453593, -41153.473097499984, 0.64, -0.7000000000000001, 0.368, 192.0, 0.0, 0.0, 0.0, 0.0, 0.0, 0.0, 0.0, 0.0, 0.0, 1.66359098496279E9, 0.0, 2022-09-19 17:36:24.962
123.0, 34329.23964610573, 47723.5672144374, -39730.71750768632, -22445.97940993064, -187500.02235174447, -187500.02235174447, -276.6475411233355, -41086.10493971169, 0.64, -0.7000000000000001, 0.368, 192.0, 0.0, 0.0, 0.0, 0.0, 0.0, 0.0, 0.0, 0.0, 0.0, 1.6635909849668353E9, 0.0, 2022-09-19 17:36:24.966
124.0, 33465.59059209712, 47337.59729118315, -39578.904459345875, -22329.549173062944, -187500.02235174447, -187500.02235174447, -1486.122785344456, -40942.60674030861, 0.64, -0.7000000000000001, 0.368, 192.0, 0.0, 0.0, 0.0, 0.0, 0.0, 0.0, 0.0, 0.0, 0.0, 1.663590984969862E9, 0.0, 2022-09-19 17:36:24.969
125.0, 33271.97978162525, 47345.66627093152, -39642.4057653434, -22315.17700137818, -187500.02235174447, -187500.02235174447, -1345.6197196983958, -40970.457013899926, 0.642, -0.71, 0.364, 192.0, 20.0, 16.0, 233.0, 208.0, 11.0, 96.0, 0.0, 0.0, 0.0, 1.6635909849738145E9, 0.0, 2022-09-19 17:36:24.973
126.0, 33594.33664015969, 47552.08463097628, -39756.198496365374, -22374.073848017913, -187500.02235174447, -187500.02235174447, -662.5504091442119, -41056.06419516375, 0.642, -0.71, 0.364, 192.0, 0.0, 0.0, 0.0, 0.0, 0.0, 0.0, 0.0, 0.0, 0.0, 1.6635909849778223E9, 0.0, 2022-09-19 17:36:24.977
127.0, 34377.94409727384, 47891.31705657447, -39869.90182040952, -22448.68397100973, -187500.02235174447, -187500.02235174447, 337.6901552307791, -41162.994940637946, 0.642, -0.71, 0.364, 192.0, 0.0, 0.0, 0.0, 0.0, 0.0, 0.0, 0.0, 0.0, 0.0, 1.663590984981842E9, 0.0, 2022-09-19 17:36:24.981
128.0, 34323.31643382507, 47752.95975839612, -39739.077060112606, -22433.48478478012, -187500.02235174447, -187500.02235174447, -222.06458116347568, -41087.960134501474, 0.642, -0.71, 0.364, 192.0, 0.0, 0.0, 0.0, 0.0, 0.0, 0.0, 0.0, 0.0, 0.0, 1.6635909849868393E9, 0.0, 2022-09-19 17:36:24.986
129.0, 33454.995865225304, 47351.56713146772, -39576.669284900345, -22308.136201874757, -187500.02235174447, -187500.02235174447, -1465.8050496345818, -40937.868170484086, 0.642, -0.71, 0.364, 192.0, 0.0, 0.0, 0.0, 0.0, 0.0, 0.0, 0.0, 0.0, 0.0, 1.663590984990831E9, 0.0, 2022-09-19 17:36:24.990
130.0, 33236.95459806378, 47350.13661982258, -39624.36790756797, -22281.492922484034, -187500.02235174447, -187500.02235174447, -1348.9277778777812, -40946.18301942146, 0.642, -0.71, 0.364, 192.0, 0.0, 0.0, 0.0, 0.0, 0.0, 0.0, 0.0, 0.0, 0.0, 1.6635909849948726E9, 0.0, 2022-09-19 17:36:24.994
131.0, 33544.02286339079, 47540.394668626155, -39740.038185124184, -22330.197373652147, -187500.02235174447, -187500.02235174447, -668.5183249137789, -41023.31888953673, 0.642, -0.71, 0.364, 192.0, 0.0, 0.0, 0.0, 0.0, 0.0, 0.0, 0.0, 0.0, 0.0, 1.6635909849978957E9, 0.0, 2022-09-19 17:36:24.997
132.0, 34319.6507477344, 47862.30449227148, -39879.08838738065, -22420.230200318125, -187500.02235174447, -187500.02235174447, 323.34033529047196, -41139.704422915514, 0.642, -0.71, 0.364, 192.0, 0.0, 0.0, 0.0, 0.0, 0.0, 0.0, 0.0, 0.0, 0.0, 1.6635909850018642E9, 0.0, 2022-09-19 17:36:25.001
133.0, 34311.0006226302, 47744.510798992014, -39755.974978920814, -22415.044595604493, -187500.02235174447, -187500.02235174447, -174.79064164050124, -41063.39556734509, 0.642, -0.71, 0.364, 192.0, 0.0, 0.0, 0.0, 0.0, 0.0, 0.0, 0.0, 0.0, 0.0, 1.6635909850058627E9, 0.0, 2022-09-19 17:36:25.005
134.0, 33447.10569943258, 47342.55937845223, -39572.57891566502, -22283.057544595904, -187500.02235174447, -187500.02235174447, -1434.445552163786, -40906.01693463528, 0.642, -0.71, 0.364, 192.0, 0.0, 0.0, 0.0, 0.0, 0.0, 0.0, 0.0, 0.0, 0.0, 1.6635909850098848E9, 0.0, 2022-09-19 17:36:25.009
135.0, 33201.8847110134, 47318.620660140594, -39642.85280023251, -22269.534739200444, -187500.02235174447, -187500.02235174447, -1375.995740413158, -40942.830257753165, 0.636, -0.712, 0.36, 192.0, 19.0, 224.0, 233.0, 192.0, 11.0, 64.0, 0.0, 0.0, 0.0, 1.6635909850148845E9, 0.0, 2022-09-19 17:36:25.014
136.0, 33495.92190932297, 47513.59492702424, -39745.44730728237, -22318.976797935582, -187500.02235174447, -187500.02235174447, -728.1974826094488, -41012.59005219818, 0.636, -0.712, 0.36, 192.0, 0.0, 0.0, 0.0, 0.0, 0.0, 0.0, 0.0, 0.0, 0.0, 1.66359098501891E9, 0.0, 2022-09-19 17:36:25.018
137.0, 34276.19895651328, 47849.56399793196, -39881.189451359445, -22420.96780788515, -187500.02235174447, -187500.02235174447, 274.0547387665199, -41127.43331520955, 0.636, -0.712, 0.36, 192.0, 0.0, 0.0, 0.0, 0.0, 0.0, 0.0, 0.0, 0.0, 0.0, 1.6635909850229988E9, 0.0, 2022-09-19 17:36:25.022
138.0, 34328.32322458306, 47754.949063652646, -39764.96038019185, -22429.372063800343, -187500.02235174447, -187500.02235174447, -144.70519360365793, -41071.01751220435, 0.636, -0.712, 0.36, 192.0, 0.0, 0.0, 0.0, 0.0, 0.0, 0.0, 0.0, 0.0, 0.0, 1.6635909850259137E9, 0.0, 2022-09-19 17:36:25.025
139.0, 33463.444824629405, 47349.264901788825, -39582.3913314809, -22311.98070192107, -187500.02235174447, -187500.02235174447, -1434.2443864636882, -40914.71176322839, 0.636, -0.712, 0.36, 192.0, 0.0, 0.0, 0.0, 0.0, 0.0, 0.0, 0.0, 0.0, 0.0, 1.663590985029916E9, 0.0, 2022-09-19 17:36:25.029
140.0, 33203.82931278102, 47332.59050042516, -39626.64778550241, -22280.710611428098, -187500.02235174447, -187500.02235174447, -1398.638057546384, -40922.691335998934, 0.636, -0.712, 0.36, 192.0, 0.0, 0.0, 0.0, 0.0, 0.0, 0.0, 0.0, 0.0, 0.0, 1.6635909850339098E9, 0.0, 2022-09-19 17:36:25.033
141.0, 33470.3515136661, 47515.718342747496, -39736.618368222524, -22336.813490010918, -187500.02235174447, -187500.02235174447, -758.7299655353983, -41003.78346488279, 0.636, -0.712, 0.36, 192.0, 0.0, 0.0, 0.0, 0.0, 0.0, 0.0, 0.0, 0.0, 0.0, 1.663590985037946E9, 0.0, 2022-09-19 17:36:25.037
142.0, 34233.842400770474, 47830.56501514495, -39882.79877696023, -22436.166994114756, -187500.02235174447, -187500.02235174447, 251.8818082668553, -41115.05044878131, 0.636, -0.712, 0.36, 192.0, 0.0, 0.0, 0.0, 0.0, 0.0, 0.0, 0.0, 0.0, 0.0, 1.6635909850429664E9, 0.0, 2022-09-19 17:36:25.042
143.0, 34329.194942616814, 47748.53411299397, -39777.54441232019, -22443.54306978501, -187500.02235174447, -187500.02235174447, -92.55857378942655, -41065.18370690152, 0.636, -0.712, 0.36, 192.0, 0.0, 0.0, 0.0, 0.0, 0.0, 0.0, 0.0, 0.0, 0.0, 1.6635909850470307E9, 0.0, 2022-09-19 17:36:25.047
