%OpenBCI Raw EEG Data
%Number of channels = 8
%Sample Rate = 250 Hz
%Board = OpenBCI_GUI$BoardCytonSerial
Sample Index, EXG Channel 0, EXG Channel 1, EXG Channel 2, EXG Channel 3, EXG Channel 4, EXG Channel 5, EXG Channel 6, EXG Channel 7, Accel Channel 0, Accel Channel 1, Accel Channel 2, Other, Other, Other, Other, Other, Other, Other, Analog Channel 0, Analog Channel 1, Analog Channel 2, Timestamp, Other, Timestamp (Formatted)
89.0, -1757.495314776339, 18896.79061136134, -25686.89294897234, -41670.312484540045, -187500.02235174447, -187500.02235174447, 6678.32126359001, -20642.260687620725, 0.0, 0.0, 0.0, 192.0, 0.0, 0.0, 0.0, 0.0, 0.0, 0.0, 0.0, 0.0, 0.0, 1.6635906665228996E9, 0.0, 2022-09-19 17:31:06.522
90.0, -2032.2653093654287, 18804.276741060825, -25927.08479488907, -41787.16740455239, -187500.02235174447, -187500.02235174447, 6534.554843253475, -20855.65279193554, 0.0, 0.0, 0.0, 192.0, 0.0, 0.0, 0.0, 0.0, 0.0, 0.0, 0.0, 0.0, 0.0, 1.6635906665229363E9, 0.0, 2022-09-19 17:31:06.522
91.0, -1907.4755200714494, 18913.50971621391, -25112.006081581843, -41760.59118039503, -187500.02235174447, -187500.02235174447, 6285.221133854525, -20019.071700462307, 0.0, 0.0, 0.0, 192.0, 0.0, 0.0, 0.0, 0.0, 0.0, 0.0, 0.0, 0.0, 0.0, 1.6635906665229557E9, 0.0, 2022-09-19 17:31:06.522
0.0, 0.0, 0.0, 0.0, 0.0, 0.0, 0.0, 0.0, 0.0, 0.0, 0.0, 0.0, 192.0, 0.0, 0.0, 0.0, 0.0, 0.0, 0.0, 0.0, 0.0, 0.0, 1.6635906665855987E9, 0.0, 2022-09-19 17:31:06.585
1.0, -1786.329065123685, 21012.87496243417, -24252.872079953206, -43284.33195165777, -187500.02235174447, -187500.02235174447, 6216.042484765349, -20421.112527979916, 0.614, -0.79, 0.178, 192.0, 19.0, 48.0, 231.0, 80.0, 5.0, 144.0, 0.0, 0.0, 0.0, 1.663590666602679E9, 0.0, 2022-09-19 17:31:06.602
2.0, -1451.3211192275428, 21039.540593569352, -23977.856216175107, -43222.88700615013, -187500.02235174447, -187500.02235174447, 6362.088783036325, -20112.926675430142, 0.614, -0.79, 0.178, 192.0, 0.0, 0.0, 0.0, 0.0, 0.0, 0.0, 0.0, 0.0, 0.0, 1.6635906666056082E9, 0.0, 2022-09-19 17:31:06.605
3.0, -1412.317325153032, 21023.804965472817, -24367.223604586557, -43060.43452744896, -187500.02235174447, -187500.02235174447, 6469.980653522093, -20464.184339545292, 0.614, -0.79, 0.178, 192.0, 0.0, 0.0, 0.0, 0.0, 0.0, 0.0, 0.0, 0.0, 0.0, 1.6635906666085982E9, 0.0, 2022-09-19 17:31:06.608
4.0, -1683.8463167961022, 20937.57193536424, -25228.83864984973, -42928.22395899582, -187500.02235174447, -187500.02235174447, 6467.767830821018, -21263.996811389545, 0.614, -0.79, 0.178, 192.0, 0.0, 0.0, 0.0, 0.0, 0.0, 0.0, 0.0, 0.0, 0.0, 1.6635906666136036E9, 0.0, 2022-09-19 17:31:06.613
5.0, -1994.714378680513, 20817.520715894785, -25316.166915436617, -43051.73969885585, -187500.02235174447, -187500.02235174447, 6296.57582003782, -21373.207434798176, 0.614, -0.79, 0.178, 192.0, 0.0, 0.0, 0.0, 0.0, 0.0, 0.0, 0.0, 0.0, 0.0, 1.6635906666166058E9, 0.0, 2022-09-19 17:31:06.616
6.0, -1763.820858457191, 20805.629587844564, -24227.547553485343, -43280.44274812254, -187500.02235174447, -187500.02235174447, 6227.352467459735, -20385.305033362514, 0.614, -0.79, 0.178, 192.0, 0.0, 0.0, 0.0, 0.0, 0.0, 0.0, 0.0, 0.0, 0.0, 1.6635906666206093E9, 0.0, 2022-09-19 17:31:06.620
7.0, -1453.444534950797, 20848.45553022093, -24001.102030408627, -43211.666430433565, -187500.02235174447, -187500.02235174447, 6365.016861559971, -20134.339646618326, 0.614, -0.79, 0.178, 192.0, 0.0, 0.0, 0.0, 0.0, 0.0, 0.0, 0.0, 0.0, 0.0, 1.6635906666246178E9, 0.0, 2022-09-19 17:31:06.624
8.0, -1436.479560909219, 20853.954059356936, -24407.479096350562, -43051.784402344754, -187500.02235174447, -187500.02235174447, 6466.0914499868695, -20488.838313679495, 0.61, -0.792, 0.194, 192.0, 19.0, 16.0, 231.0, 64.0, 6.0, 16.0, 0.0, 0.0, 0.0, 1.6635906666286309E9, 0.0, 2022-09-19 17:31:06.628
9.0, -1718.8715003575685, 20790.631567315053, -25270.703467214524, -42922.814836837635, -187500.02235174447, -187500.02235174447, 6458.760077805528, -21294.864570482325, 0.61, -0.792, 0.194, 192.0, 0.0, 0.0, 0.0, 0.0, 0.0, 0.0, 0.0, 0.0, 0.0, 1.663590666632609E9, 0.0, 2022-09-19 17:31:06.632
10.0, -2008.6618672206246, 20696.57542664712, -25271.262260825904, -43057.729966369865, -187500.02235174447, -187500.02235174447, 6289.177392623114, -21358.522338691037, 0.61, -0.792, 0.194, 192.0, 0.0, 0.0, 0.0, 0.0, 0.0, 0.0, 0.0, 0.0, 0.0, 1.6635906666366408E9, 0.0, 2022-09-19 17:31:06.636
11.0, -1750.2757013172748, 20702.76685986124, -24170.97528826896, -43285.24837318044, -187500.02235174447, -187500.02235174447, 6233.096865784749, -20357.16418709328, 0.61, -0.792, 0.194, 192.0, 0.0, 0.0, 0.0, 0.0, 0.0, 0.0, 0.0, 0.0, 0.0, 1.6635906666417053E9, 0.0, 2022-09-19 17:31:06.641
12.0, -1442.223959234233, 20757.3498198211, -23990.88728319255, -43211.84524438921, -187500.02235174447, -187500.02235174447, 6381.668911179175, -20143.772082778465, 0.61, -0.792, 0.194, 192.0, 0.0, 0.0, 0.0, 0.0, 0.0, 0.0, 0.0, 0.0, 0.0, 1.6635906666448507E9, 0.0, 2022-09-19 17:31:06.644
13.0, -1438.6923836102944, 20775.857064230095, -24425.9639890151, -43046.621149375576, -187500.02235174447, -187500.02235174447, 6476.9543977921485, -20507.85964821096, 0.61, -0.792, 0.194, 192.0, 0.0, 0.0, 0.0, 0.0, 0.0, 0.0, 0.0, 0.0, 0.0, 1.663590666647715E9, 0.0, 2022-09-19 17:31:06.647
14.0, -1734.0930383316324, 20718.703653657874, -25289.47893255698, -42915.17054023392, -187500.02235174447, -187500.02235174447, 6468.348976176855, -21325.017073752533, 0.61, -0.792, 0.194, 192.0, 0.0, 0.0, 0.0, 0.0, 0.0, 0.0, 0.0, 0.0, 0.0, 1.663590666652683E9, 0.0, 2022-09-19 17:31:06.652
15.0, -2005.7114369525239, 20634.683446250376, -25231.99024581793, -43063.3626059726, -187500.02235174447, -187500.02235174447, 6295.122956648226, -21332.773129078523, 0.61, -0.792, 0.194, 192.0, 0.0, 0.0, 0.0, 0.0, 0.0, 0.0, 0.0, 0.0, 0.0, 1.6635906666567163E9, 0.0, 2022-09-19 17:31:06.656
16.0, -1725.465264971884, 20654.777664515696, -24159.531195107844, -43284.35430340222, -187500.02235174447, -187500.02235174447, 6244.764476390419, -20338.07579732845, 0.61, -0.792, 0.194, 192.0, 0.0, 0.0, 0.0, 0.0, 0.0, 0.0, 0.0, 0.0, 0.0, 1.6635906666607115E9, 0.0, 2022-09-19 17:31:06.660
17.0, -1431.2939561955877, 20720.42473798093, -24008.165181656503, -43199.149453538594, -187500.02235174447, -187500.02235174447, 6390.006111861005, -20151.349324148814, 0.61, -0.792, 0.194, 192.0, 0.0, 0.0, 0.0, 0.0, 0.0, 0.0, 0.0, 0.0, 0.0, 1.6635906666647604E9, 0.0, 2022-09-19 17:31:06.664
18.0, -1434.959642286258, 20746.53157550473, -24444.806509590926, -43035.19940795892, -187500.02235174447, -187500.02235174447, 6482.676444372707, -20539.286200915125, 0.612, -0.786, 0.196, 192.0, 19.0, 32.0, 231.0, 112.0, 6.0, 32.0, 0.0, 0.0, 0.0, 1.6635906666697507E9, 0.0, 2022-09-19 17:31:06.669
19.0, -1738.8986633895236, 20692.61916787853, -25334.830622056797, -42915.192891978375, -187500.02235174447, -187500.02235174447, 6456.949586504649, -21364.84788237189, 0.612, -0.786, 0.196, 192.0, 0.0, 0.0, 0.0, 0.0, 0.0, 0.0, 0.0, 0.0, 0.0, 1.6635906666727417E9, 0.0, 2022-09-19 17:31:06.672
20.0, -1995.1390618251637, 20613.583399484563, -25205.70459433849, -43073.733815399864, -187500.02235174447, -187500.02235174447, 6279.409680296145, -21301.97242521911, 0.612, -0.786, 0.196, 192.0, 0.0, 0.0, 0.0, 0.0, 0.0, 0.0, 0.0, 0.0, 0.0, 1.6635906666757567E9, 0.0, 2022-09-19 17:31:06.675
21.0, -1704.7004943729037, 20635.577516028585, -24130.295113360302, -43284.577820846775, -187500.02235174447, -187500.02235174447, 6240.562348432822, -20303.989387034107, 0.612, -0.786, 0.196, 192.0, 0.0, 0.0, 0.0, 0.0, 0.0, 0.0, 0.0, 0.0, 0.0, 1.6635906666807969E9, 0.0, 2022-09-19 17:31:06.680
22.0, -1416.8547292774595, 20697.469496425332, -24028.795841788753, -43193.89679359159, -187500.02235174447, -187500.02235174447, 6388.910876382694, -20158.94891726362, 0.612, -0.786, 0.196, 192.0, 0.0, 0.0, 0.0, 0.0, 0.0, 0.0, 0.0, 0.0, 0.0, 1.66359066668473E9, 0.0, 2022-09-19 17:31:06.684
23.0, -1428.1647119718448, 20717.51901120174, -24496.975481149613, -43030.79611430122, -187500.02235174447, -187500.02235174447, 6476.753232092051, -20576.032468799647, 0.612, -0.786, 0.196, 192.0, 0.0, 0.0, 0.0, 0.0, 0.0, 0.0, 0.0, 0.0, 0.0, 1.6635906666887484E9, 0.0, 2022-09-19 17:31:06.688
24.0, -1757.651776987526, 20658.532757584187, -25390.374707028237, -42919.14915074696, -187500.02235174447, -187500.02235174447, 6443.292670642456, -21416.01102543009, 0.612, -0.786, 0.196, 192.0, 0.0, 0.0, 0.0, 0.0, 0.0, 0.0, 0.0, 0.0, 0.0, 1.66359066669274E9, 0.0, 2022-09-19 17:31:06.692
25.0, -2002.2022130730406, 20589.287053261647, -25179.441294603505, -43093.29159179826, -187500.02235174447, -187500.02235174447, 6269.641967969176, -21294.64105303777, 0.612, -0.786, 0.196, 192.0, 0.0, 0.0, 0.0, 0.0, 0.0, 0.0, 0.0, 0.0, 0.0, 1.663590666697809E9, 0.0, 2022-09-19 17:31:06.697
26.0, -1691.401206421996, 20627.17326011339, -24102.467191513442, -43297.69829484204, -187500.02235174447, -187500.02235174447, 6248.318403758813, -20291.047726994482, 0.612, -0.786, 0.196, 192.0, 0.0, 0.0, 0.0, 0.0, 0.0, 0.0, 0.0, 0.0, 0.0, 1.6635906667008486E9, 0.0, 2022-09-19 17:31:06.700
27.0, -1423.3367351694985, 20691.2333597223, -24062.748141616365, -43200.87053786165, -187500.02235174447, -187500.02235174447, 6384.865210636283, -20162.480492887556, 0.612, -0.786, 0.196, 192.0, 0.0, 0.0, 0.0, 0.0, 0.0, 0.0, 0.0, 0.0, 0.0, 1.6635906667037845E9, 0.0, 2022-09-19 17:31:06.703
28.0, -1455.2326745072216, 20713.495697199785, -24539.108519447866, -43034.461800391895, -187500.02235174447, -187500.02235174447, 6460.414106895221, -20600.664091189396, 0.61, -0.786, 0.198, 192.0, 19.0, 16.0, 231.0, 112.0, 6.0, 48.0, 0.0, 0.0, 0.0, 1.6635906667088017E9, 0.0, 2022-09-19 17:31:06.708
29.0, -1791.2464489038528, 20651.335495869578, -25410.69244273811, -42923.30657521565, -187500.02235174447, -187500.02235174447, 6442.957394475627, -21438.653342563313, 0.61, -0.786, 0.198, 192.0, 0.0, 0.0, 0.0, 0.0, 0.0, 0.0, 0.0, 0.0, 0.0, 1.6635906667128277E9, 0.0, 2022-09-19 17:31:06.712
30.0, -2012.6851812225798, 20586.85071311602, -25160.509367049857, -43111.17298736251, -187500.02235174447, -187500.02235174447, 6264.322252788813, -21259.34764854284, 0.61, -0.786, 0.198, 192.0, 0.0, 0.0, 0.0, 0.0, 0.0, 0.0, 0.0, 0.0, 0.0, 1.663590666716823E9, 0.0, 2022-09-19 17:31:06.716
31.0, -1695.625686124049, 20622.457042033322, -24105.842304926195, -43310.28232697038, -187500.02235174447, -187500.02235174447, 6243.333964745279, -20284.476314124622, 0.61, -0.786, 0.198, 192.0, 0.0, 0.0, 0.0, 0.0, 0.0, 0.0, 0.0, 0.0, 0.0, 1.663590666720795E9, 0.0, 2022-09-19 17:31:06.720
32.0, -1430.4445899062862, 20688.171170731923, -24056.981391546895, -43202.32340125125, -187500.02235174447, -187500.02235174447, 6397.69511195363, -20191.94009207965, 0.61, -0.786, 0.198, 192.0, 0.0, 0.0, 0.0, 0.0, 0.0, 0.0, 0.0, 0.0, 0.0, 1.6635906667248151E9, 0.0, 2022-09-19 17:31:06.724
33.0, -1462.6311019219283, 20718.99422633579, -24554.263002188567, -43031.310204423695, -187500.02235174447, -187500.02235174447, 6486.409185696743, -20625.765100212706, 0.61, -0.786, 0.198, 192.0, 0.0, 0.0, 0.0, 0.0, 0.0, 0.0, 0.0, 0.0, 0.0, 1.6635906667288225E9, 0.0, 2022-09-19 17:31:06.728
34.0, -1802.5340798537827, 20660.18678667388, -25441.962533231086, -42924.7817903497, -187500.02235174447, -187500.02235174447, 6445.483141599077, -21464.58136613147, 0.61, -0.786, 0.198, 192.0, 0.0, 0.0, 0.0, 0.0, 0.0, 0.0, 0.0, 0.0, 0.0, 1.6635906667319477E9, 0.0, 2022-09-19 17:31:06.731
35.0, -2002.001047372943, 20595.4114312424, -25101.612520410126, -43119.06315315523, -187500.02235174447, -187500.02235174447, 6261.684746943087, -21213.39246194273, 0.61, -0.786, 0.198, 192.0, 0.0, 0.0, 0.0, 0.0, 0.0, 0.0, 0.0, 0.0, 0.0, 1.6635906667368999E9, 0.0, 2022-09-19 17:31:06.736
36.0, -1661.405165362974, 20638.1703183854, -24058.791882847774, -43300.15698673212, -187500.02235174447, -187500.02235174447, 6258.957834119539, -20240.71159848113, 0.61, -0.786, 0.198, 192.0, 0.0, 0.0, 0.0, 0.0, 0.0, 0.0, 0.0, 0.0, 0.0, 1.6635906667409048E9, 0.0, 2022-09-19 17:31:06.740
37.0, -1401.4767290922082, 20697.693013869884, -24062.256403238345, -43182.27388647484, -187500.02235174447, -187500.02235174447, 6411.732007471563, -20187.067411788394, 0.61, -0.786, 0.198, 192.0, 0.0, 0.0, 0.0, 0.0, 0.0, 0.0, 0.0, 0.0, 0.0, 1.6635906667448764E9, 0.0, 2022-09-19 17:31:06.744
38.0, -1446.157866258367, 20710.634673909506, -24586.516569437572, -43015.06048620468, -187500.02235174447, -187500.02235174447, 6487.012682797037, -20655.64938254945, 0.608, -0.782, 0.202, 192.0, 19.0, 0.0, 231.0, 144.0, 6.0, 80.0, 0.0, 0.0, 0.0, 1.6635906667489429E9, 0.0, 2022-09-19 17:31:06.748
39.0, -1808.300829923252, 20634.07994915008, -25468.31523994389, -42920.53495890319, -187500.02235174447, -187500.02235174447, 6432.295612370445, -21490.241168766162, 0.608, -0.782, 0.202, 192.0, 0.0, 0.0, 0.0, 0.0, 0.0, 0.0, 0.0, 0.0, 0.0, 1.6635906667519E9, 0.0, 2022-09-19 17:31:06.751
40.0, -1987.5394687103594, 20570.086904774536, -25062.921650757988, -43120.69483050047, -187500.02235174447, -187500.02235174447, 6253.168732305615, -21191.10777272079, 0.608, -0.782, 0.202, 192.0, 0.0, 0.0, 0.0, 0.0, 0.0, 0.0, 0.0, 0.0, 0.0, 1.663590666755901E9, 0.0, 2022-09-19 17:31:06.755
41.0, -1638.628737763016, 20615.639759974452, -24042.989199517873, -43287.729416814975, -187500.02235174447, -187500.02235174447, 6261.125953331703, -20222.71844419461, 0.608, -0.782, 0.202, 192.0, 0.0, 0.0, 0.0, 0.0, 0.0, 0.0, 0.0, 0.0, 0.0, 1.663590666759904E9, 0.0, 2022-09-19 17:31:06.759
42.0, -1394.1230051664122, 20682.091496240082, -24076.539167945288, -43163.297255432284, -187500.02235174447, -187500.02235174447, 6418.772806974985, -20180.361888451804, 0.608, -0.782, 0.202, 192.0, 0.0, 0.0, 0.0, 0.0, 0.0, 0.0, 0.0, 0.0, 0.0, 1.663590666763911E9, 0.0, 2022-09-19 17:31:06.763
43.0, -1452.7963343615932, 20701.67162438293, -24625.453308278717, -42996.95557319589, -187500.02235174447, -187500.02235174447, 6492.71237763314, -20677.375278160012, 0.608, -0.782, 0.202, 192.0, 0.0, 0.0, 0.0, 0.0, 0.0, 0.0, 0.0, 0.0, 0.0, 1.6635906667689903E9, 0.0, 2022-09-19 17:31:06.768
44.0, -1824.7293620979026, 20627.150908368934, -25508.213103796614, -42912.39892392146, -187500.02235174447, -187500.02235174447, 6426.7076762566185, -21511.296512043064, 0.608, -0.782, 0.202, 192.0, 0.0, 0.0, 0.0, 0.0, 0.0, 0.0, 0.0, 0.0, 0.0, 1.663590666772925E9, 0.0, 2022-09-19 17:31:06.772
45.0, -1991.7863001568676, 20568.052896029105, -25016.76529845778, -43129.23319688239, -187500.02235174447, -187500.02235174447, 6248.877197370195, -21146.001952409977, 0.608, -0.782, 0.202, 192.0, 0.0, 0.0, 0.0, 0.0, 0.0, 0.0, 0.0, 0.0, 0.0, 1.6635906667769537E9, 0.0, 2022-09-19 17:31:06.776
46.0, -1629.0845428805999, 20617.60671348652, -24022.80557427473, -43290.881012783175, -187500.02235174447, -187500.02235174447, 6267.496200501466, -20206.692243420155, 0.608, -0.782, 0.202, 192.0, 0.0, 0.0, 0.0, 0.0, 0.0, 0.0, 0.0, 0.0, 0.0, 1.6635906667808883E9, 0.0, 2022-09-19 17:31:06.780
47.0, -1397.475766834708, 20679.677507838907, -24097.169828077534, -43164.66071184406, -187500.02235174447, -187500.02235174447, 6417.878737196772, -20211.162592311215, 0.608, -0.782, 0.202, 192.0, 0.0, 0.0, 0.0, 0.0, 0.0, 0.0, 0.0, 0.0, 0.0, 1.663590666783922E9, 0.0, 2022-09-19 17:31:06.783
48.0, -1470.3424537590092, 20692.552112645164, -24653.79532024805, -42997.17909064044, -187500.02235174447, -187500.02235174447, 6497.897982346772, -20722.749319404284, 0.604, -0.786, 0.20800000000000002, 192.0, 18.0, 224.0, 231.0, 112.0, 6.0, 128.0, 0.0, 0.0, 0.0, 1.66359066678796E9, 0.0, 2022-09-19 17:31:06.787
49.0, -1842.3425367286845, 20613.404585528922, -25503.67569967219, -42917.04808676816, -187500.02235174447, -187500.02235174447, 6433.770827504495, -21543.25950661415, 0.604, -0.786, 0.20800000000000002, 192.0, 0.0, 0.0, 0.0, 0.0, 0.0, 0.0, 0.0, 0.0, 0.0, 1.6635906667919211E9, 0.0, 2022-09-19 17:31:06.791
50.0, -1981.4597942185158, 20553.703076088797, -24967.591460656102, -43147.136944191094, -187500.02235174447, -187500.02235174447, 6251.76057240493, -21120.006873608458, 0.604, -0.786, 0.20800000000000002, 192.0, 0.0, 0.0, 0.0, 0.0, 0.0, 0.0, 0.0, 0.0, 0.0, 1.6635906667969377E9, 0.0, 2022-09-19 17:31:06.796
51.0, -1603.8717751350136, 20610.07417560508, -23988.205073857913, -43291.506861627924, -187500.02235174447, -187500.02235174447, 6282.29305533088, -20199.360871238812, 0.604, -0.786, 0.20800000000000002, 192.0, 0.0, 0.0, 0.0, 0.0, 0.0, 0.0, 0.0, 0.0, 0.0, 1.6635906668009703E9, 0.0, 2022-09-19 17:31:06.800
52.0, -1382.0083596716356, 20668.23341467779, -24091.067801841236, -43155.675310573024, -187500.02235174447, -187500.02235174447, 6430.999211192037, -20234.184889100183, 0.604, -0.786, 0.20800000000000002, 192.0, 0.0, 0.0, 0.0, 0.0, 0.0, 0.0, 0.0, 0.0, 0.0, 1.6635906668049545E9, 0.0, 2022-09-19 17:31:06.804
53.0, -1477.4279567513415, 20664.031286720194, -24692.866169555924, -42995.860337717575, -187500.02235174447, -187500.02235174447, 6491.639493899285, -20768.54804379321, 0.604, -0.786, 0.20800000000000002, 192.0, 0.0, 0.0, 0.0, 0.0, 0.0, 0.0, 0.0, 0.0, 0.0, 1.6635906668079095E9, 0.0, 2022-09-19 17:31:06.807
54.0, -1856.3570805021623, 20583.833227614552, -25524.887505160274, -42925.608804894546, -187500.02235174447, -187500.02235174447, 6419.823338964384, -21551.08261717351, 0.604, -0.786, 0.20800000000000002, 192.0, 0.0, 0.0, 0.0, 0.0, 0.0, 0.0, 0.0, 0.0, 0.0, 1.6635906668119652E9, 0.0, 2022-09-19 17:31:06.811
55.0, -1965.1430207661417, 20535.799328780096, -24910.326291361605, -43156.12234546213, -187500.02235174447, -187500.02235174447, 6249.123066559204, -21060.46182637952, 0.604, -0.786, 0.20800000000000002, 192.0, 0.0, 0.0, 0.0, 0.0, 0.0, 0.0, 0.0, 0.0, 0.0, 1.66359066681597E9, 0.0, 2022-09-19 17:31:06.815
56.0, -1588.1361470384775, 20588.616500927987, -23977.74445745283, -43291.39510290565, -187500.02235174447, -187500.02235174447, 6283.6565117426535, -20168.18018772366, 0.604, -0.786, 0.20800000000000002, 192.0, 0.0, 0.0, 0.0, 0.0, 0.0, 0.0, 0.0, 0.0, 0.0, 1.6635906668200274E9, 0.0, 2022-09-19 17:31:06.820
57.0, -1377.3368450804765, 20643.4229783324, -24099.472057756433, -43150.17678143702, -187500.02235174447, -187500.02235174447, 6437.74943801754, -20226.227668074094, 0.604, -0.786, 0.20800000000000002, 192.0, 0.0, 0.0, 0.0, 0.0, 0.0, 0.0, 0.0, 0.0, 0.0, 1.6635906668250031E9, 0.0, 2022-09-19 17:31:06.825
59.0, -1854.6136444346482, 20558.374590679956, -25514.94097887766, -42918.56800539113, -187500.02235174447, -187500.02235174447, 6432.854405981828, -21571.199187183283, 0.604, -0.786, 0.20800000000000002, 192.0, 0.0, 0.0, 0.0, 0.0, 0.0, 0.0, 0.0, 0.0, 0.0, 1.663590666832966E9, 0.0, 2022-09-19 17:31:06.832
60.0, -1948.9827095249545, 20513.24641862469, -24860.660715181915, -43159.452755385966, -187500.02235174447, -187500.02235174447, 6256.342680018268, -21017.546477025327, 0.604, -0.786, 0.20800000000000002, 192.0, 0.0, 0.0, 0.0, 0.0, 0.0, 0.0, 0.0, 0.0, 0.0, 1.66359066683604E9, 0.0, 2022-09-19 17:31:06.836
61.0, -1570.4559171743294, 20566.980012295247, -23966.814454414183, -43282.94614350154, -187500.02235174447, -187500.02235174447, 6303.706026519064, -20158.300716674414, 0.604, -0.786, 0.20800000000000002, 192.0, 0.0, 0.0, 0.0, 0.0, 0.0, 0.0, 0.0, 0.0, 0.0, 1.663590666840052E9, 0.0, 2022-09-19 17:31:06.840
62.0, -1374.1181938789123, 20624.200478100836, -24120.48269754442, -43138.755040020354, -187500.02235174447, -187500.02235174447, 6451.115781201814, -20247.81945321792, 0.604, -0.786, 0.20800000000000002, 192.0, 0.0, 0.0, 0.0, 0.0, 0.0, 0.0, 0.0, 0.0, 0.0, 1.6635906668440454E9, 0.0, 2022-09-19 17:31:06.844
63.0, -1484.2899422991209, 20624.02166414519, -24739.04487360059, -42972.25689557277, -187500.02235174447, -187500.02235174447, 6519.534470979509, -20823.935666553458, 0.604, -0.786, 0.20800000000000002, 192.0, 0.0, 0.0, 0.0, 0.0, 0.0, 0.0, 0.0, 0.0, 0.0, 1.66359066684805E9, 0.0, 2022-09-19 17:31:06.848
64.0, -1873.098537099187, 20544.002418995195, -25527.457955772636, -42919.41737168043, -187500.02235174447, -187500.02235174447, 6432.027391436982, -21575.736591307712, 0.604, -0.786, 0.20800000000000002, 192.0, 0.0, 0.0, 0.0, 0.0, 0.0, 0.0, 0.0, 0.0, 0.0, 1.6635906668520768E9, 0.0, 2022-09-19 17:31:06.852
65.0, -1938.387982653139, 20505.780935976618, -24810.235179690742, -43169.801613068776, -187500.02235174447, -187500.02235174447, 6257.460267241034, -20965.24339499991, 0.604, -0.786, 0.20800000000000002, 192.0, 0.0, 0.0, 0.0, 0.0, 0.0, 0.0, 0.0, 0.0, 0.0, 1.6635906668571053E9, 0.0, 2022-09-19 17:31:06.857
66.0, -1558.0730507460894, 20571.472712930765, -23958.58901245463, -43282.52146035689, -187500.02235174447, -187500.02235174447, 6312.602020812276, -20135.054902440894, 0.604, -0.786, 0.20800000000000002, 192.0, 0.0, 0.0, 0.0, 0.0, 0.0, 0.0, 0.0, 0.0, 0.0, 1.663590666861061E9, 0.0, 2022-09-19 17:31:06.861
67.0, -1379.706129992739, 20636.717454995807, -24136.06186342977, -43134.88818822958, -187500.02235174447, -187500.02235174447, 6456.748420804552, -20245.114892138827, 0.604, -0.786, 0.20800000000000002, 192.0, 0.0, 0.0, 0.0, 0.0, 0.0, 0.0, 0.0, 0.0, 0.0, 1.66359066686408E9, 0.0, 2022-09-19 17:31:06.864
68.0, -1505.7252652317602, 20639.377312585988, -24787.056420690587, -42969.21705832685, -187500.02235174447, -187500.02235174447, 6514.751197666073, -20852.65765817853, 0.604, -0.786, 0.20800000000000002, 192.0, 0.0, 0.0, 0.0, 0.0, 0.0, 0.0, 0.0, 0.0, 0.0, 1.6635906668681483E9, 0.0, 2022-09-19 17:31:06.868
69.0, -1901.3734938351506, 20555.088884245026, -25542.165403624225, -42930.0344502967, -187500.02235174447, -187500.02235174447, 6419.152786630725, -21590.600501370493, 0.602, -0.784, 0.198, 192.0, 18.0, 208.0, 231.0, 128.0, 6.0, 48.0, 0.0, 0.0, 0.0, 1.6635906668721125E9, 0.0, 2022-09-19 17:31:06.872
70.0, -1944.9817472674547, 20519.080223927525, -24773.019525172655, -43183.63734288661, -187500.02235174447, -187500.02235174447, 6243.1551507896365, -20928.877106771124, 0.602, -0.784, 0.198, 192.0, 0.0, 0.0, 0.0, 0.0, 0.0, 0.0, 0.0, 0.0, 0.0, 1.6635906668760617E9, 0.0, 2022-09-19 17:31:06.876
71.0, -1557.670719345894, 20586.02369857117, -23962.79114041223, -43278.69931205503, -187500.02235174447, -187500.02235174447, 6307.863450987751, -20141.291039143925, 0.602, -0.784, 0.198, 192.0, 0.0, 0.0, 0.0, 0.0, 0.0, 0.0, 0.0, 0.0, 0.0, 1.6635906668800611E9, 0.0, 2022-09-19 17:31:06.880
72.0, -1390.5914295424736, 20641.210155631325, -24161.431093386545, -43128.38383059309, -187500.02235174447, -187500.02235174447, 6452.166313191213, -20270.26060465105, 0.602, -0.784, 0.198, 192.0, 0.0, 0.0, 0.0, 0.0, 0.0, 0.0, 0.0, 0.0, 0.0, 1.6635906668851695E9, 0.0, 2022-09-19 17:31:06.885
73.0, -1524.9701172077796, 20634.437577061366, -24834.19624974683, -42962.667997201446, -187500.02235174447, -187500.02235174447, 6505.564630694942, -20884.263024838332, 0.602, -0.784, 0.198, 192.0, 0.0, 0.0, 0.0, 0.0, 0.0, 0.0, 0.0, 0.0, 0.0, 1.6635906668890984E9, 0.0, 2022-09-19 17:31:06.889
74.0, -1922.8311685122453, 20546.036427740626, -25552.670723518222, -42936.13647653299, -187500.02235174447, -187500.02235174447, 6405.629981235264, -21602.446925931803, 0.602, -0.784, 0.198, 192.0, 0.0, 0.0, 0.0, 0.0, 0.0, 0.0, 0.0, 0.0, 0.0, 1.663590666892128E9, 0.0, 2022-09-19 17:31:06.892
75.0, -1937.1362849636419, 20510.050119167583, -24718.548323935072, -43197.473072704444, -187500.02235174447, -187500.02235174447, 6243.892758356662, -20885.760591716837, 0.602, -0.784, 0.198, 192.0, 0.0, 0.0, 0.0, 0.0, 0.0, 0.0, 0.0, 0.0, 0.0, 1.6635906668961215E9, 0.0, 2022-09-19 17:31:06.896
76.0, -1539.8340272705589, 20568.701096618308, -23937.153689521994, -43277.04528296534, -187500.02235174447, -187500.02235174447, 6323.956706995572, -20129.489318071523, 0.602, -0.784, 0.198, 192.0, 0.0, 0.0, 0.0, 0.0, 0.0, 0.0, 0.0, 0.0, 0.0, 1.6635906669001293E9, 0.0, 2022-09-19 17:31:06.900
77.0, -1378.0073974141358, 20614.008082629214, -24155.50788110589, -43120.091333400174, -187500.02235174447, -187500.02235174447, 6468.684252343685, -20290.243064194092, 0.602, -0.784, 0.198, 192.0, 0.0, 0.0, 0.0, 0.0, 0.0, 0.0, 0.0, 0.0, 0.0, 1.6635906669042027E9, 0.0, 2022-09-19 17:31:06.904
78.0, -1520.3433061055312, 20596.417259742888, -24861.73359891577, -42954.911941875456, -187500.02235174447, -187500.02235174447, 6515.377046510822, -20930.10645271617, 0.602, -0.784, 0.198, 192.0, 0.0, 0.0, 0.0, 0.0, 0.0, 0.0, 0.0, 0.0, 0.0, 1.6635906669081535E9, 0.0, 2022-09-19 17:31:06.908
79.0, -1916.6397352981253, 20504.037499909104, -25538.61147625583, -42934.70596488786, -187500.02235174447, -187500.02235174447, 6408.267487080991, -21605.26324573317, 0.604, -0.79, 0.2, 192.0, 18.0, 224.0, 231.0, 80.0, 6.0, 64.0, 0.0, 0.0, 0.0, 1.663590666913169E9, 0.0, 2022-09-19 17:31:06.913
80.0, -1910.9400404620221, 20475.516673984133, -24658.913869728312, -43196.869575604156, -187500.02235174447, -187500.02235174447, 6247.871368869707, -20846.04154181976, 0.604, -0.79, 0.2, 192.0, 0.0, 0.0, 0.0, 0.0, 0.0, 0.0, 0.0, 0.0, 0.0, 1.663590666917133E9, 0.0, 2022-09-19 17:31:06.917
81.0, -1522.1761491508662, 20545.2988201736, -23933.845631342607, -43262.51664906939, -187500.02235174447, -187500.02235174447, 6331.355134410279, -20109.015120150463, 0.604, -0.79, 0.2, 192.0, 0.0, 0.0, 0.0, 0.0, 0.0, 0.0, 0.0, 0.0, 0.0, 1.6635906669201937E9, 0.0, 2022-09-19 17:31:06.920
82.0, -1384.51175505063, 20595.45613473131, -24176.674983105062, -43104.66862972601, -187500.02235174447, -187500.02235174447, 6475.255665213545, -20280.073020466927, 0.604, -0.79, 0.2, 192.0, 0.0, 0.0, 0.0, 0.0, 0.0, 0.0, 0.0, 0.0, 0.0, 1.6635906669241724E9, 0.0, 2022-09-19 17:31:06.924
83.0, -1553.2450739437431, 20574.959585065793, -24897.384631321984, -42942.819648125136, -187500.02235174447, -187500.02235174447, 6521.389665769299, -20948.256069213876, 0.604, -0.79, 0.2, 192.0, 0.0, 0.0, 0.0, 0.0, 0.0, 0.0, 0.0, 0.0, 0.0, 1.6635906669281762E9, 0.0, 2022-09-19 17:31:06.928
84.0, -1948.2674537023847, 20480.746982186676, -25529.29079881797, -42936.91878758893, -187500.02235174447, -187500.02235174447, 6412.782539460963, -21589.684079847822, 0.604, -0.79, 0.2, 192.0, 0.0, 0.0, 0.0, 0.0, 0.0, 0.0, 0.0, 0.0, 0.0, 1.6635906669321702E9, 0.0, 2022-09-19 17:31:06.932
85.0, -1910.4930055729158, 20452.18145277279, -24606.0072906026, -43204.31270650777, -187500.02235174447, -187500.02235174447, 6257.5273224744, -20796.73359355135, 0.604, -0.79, 0.2, 192.0, 0.0, 0.0, 0.0, 0.0, 0.0, 0.0, 0.0, 0.0, 0.0, 1.663590666936202E9, 0.0, 2022-09-19 17:31:06.936
86.0, -1522.4890735732406, 20516.018034937148, -23928.995302795807, -43263.90245722562, -187500.02235174447, -187500.02235174447, 6346.397858428701, -20111.853791696285, 0.604, -0.79, 0.2, 192.0, 0.0, 0.0, 0.0, 0.0, 0.0, 0.0, 0.0, 0.0, 0.0, 1.6635906669412024E9, 0.0, 2022-09-19 17:31:06.941
87.0, -1381.5836765269848, 20568.142303006924, -24187.269709976877, -43105.74151345986, -187500.02235174447, -187500.02235174447, 6489.538429920487, -20297.417974164247, 0.604, -0.79, 0.2, 192.0, 0.0, 0.0, 0.0, 0.0, 0.0, 0.0, 0.0, 0.0, 0.0, 1.6635906669442177E9, 0.0, 2022-09-19 17:31:06.944
88.0, -1554.1391437219554, 20547.288125430125, -24923.200896167862, -42941.56795043564, -187500.02235174447, -187500.02235174447, 6542.020325901548, -20983.929453364548, 0.604, -0.79, 0.2, 192.0, 0.0, 0.0, 0.0, 0.0, 0.0, 0.0, 0.0, 0.0, 0.0, 1.6635906669482276E9, 0.0, 2022-09-19 17:31:06.948
89.0, -1943.7076978335022, 20449.745112627163, -25528.91081916223, -42948.474639472326, -187500.02235174447, -187500.02235174447, 6415.017713906493, -21591.36046068197, 0.608, -0.792, 0.192, 192.0, 19.0, 0.0, 231.0, 64.0, 6.0, 0.0, 0.0, 0.0, 0.0, 1.6635906669521651E9, 0.0, 2022-09-19 17:31:06.952
90.0, -1889.9517524184887, 20419.614961101408, -24563.449569159697, -43217.768456669866, -187500.02235174447, -187500.02235174447, 6259.9413108755725, -20748.900860416994, 0.608, -0.792, 0.192, 192.0, 0.0, 0.0, 0.0, 0.0, 0.0, 0.0, 0.0, 0.0, 0.0, 1.663590666956244E9, 0.0, 2022-09-19 17:31:06.956
91.0, -1508.2733640996653, 20479.47293275272, -23920.97102653635, -43261.48846882444, -187500.02235174447, -187500.02235174447, 6360.010070801982, -20117.397024321202, 0.608, -0.792, 0.192, 192.0, 0.0, 0.0, 0.0, 0.0, 0.0, 0.0, 0.0, 0.0, 0.0, 1.6635906669602509E9, 0.0, 2022-09-19 17:31:06.960
92.0, -1393.743025510672, 20521.158936161868, -24202.535951439855, -43103.461635525426, -187500.02235174447, -187500.02235174447, 6489.270208987023, -20324.754157633088, 0.608, -0.792, 0.192, 192.0, 0.0, 0.0, 0.0, 0.0, 0.0, 0.0, 0.0, 0.0, 0.0, 1.6635906669642549E9, 0.0, 2022-09-19 17:31:06.964
93.0, -1577.0273300441897, 20500.550627774075, -24961.400027441985, -42945.85948537105, -187500.02235174447, -187500.02235174447, 6531.2467850740895, -21028.454128319518, 0.608, -0.792, 0.192, 192.0, 0.0, 0.0, 0.0, 0.0, 0.0, 0.0, 0.0, 0.0, 0.0, 1.663590666969224E9, 0.0, 2022-09-19 17:31:06.969
94.0, -1962.7290323649686, 20413.647045331843, -25506.402612495735, -42966.445442014396, -187500.02235174447, -187500.02235174447, 6402.0537021224145, -21581.70450707728, 0.608, -0.792, 0.192, 192.0, 0.0, 0.0, 0.0, 0.0, 0.0, 0.0, 0.0, 0.0, 0.0, 1.6635906669722853E9, 0.0, 2022-09-19 17:31:06.972
95.0, -1886.0401971388098, 20404.259312660615, -24504.50801903105, -43235.31457606728, -187500.02235174447, -187500.02235174447, 6259.136648075181, -20698.587083648097, 0.608, -0.792, 0.192, 192.0, 0.0, 0.0, 0.0, 0.0, 0.0, 0.0, 0.0, 0.0, 0.0, 1.663590666975237E9, 0.0, 2022-09-19 17:31:06.975
96.0, -1499.8467564400146, 20478.24358680768, -23917.215933467858, -43261.577875802264, -187500.02235174447, -187500.02235174447, 6366.35796622729, -20096.274625810936, 0.608, -0.792, 0.192, 192.0, 0.0, 0.0, 0.0, 0.0, 0.0, 0.0, 0.0, 0.0, 0.0, 1.66359066698023E9, 0.0, 2022-09-19 17:31:06.980
97.0, -1387.1492608963563, 20523.885848985417, -24210.22495153248, -43098.1195686006, -187500.02235174447, -187500.02235174447, 6499.395549225277, -20334.63362868233, 0.608, -0.792, 0.192, 192.0, 0.0, 0.0, 0.0, 0.0, 0.0, 0.0, 0.0, 0.0, 0.0, 1.6635906669842565E9, 0.0, 2022-09-19 17:31:06.984
98.0, -1582.5258591801953, 20496.59436900549, -24991.597234201105, -42937.25406375576, -187500.02235174447, -187500.02235174447, 6539.919261922749, -21052.325791397787, 0.608, -0.792, 0.192, 192.0, 0.0, 0.0, 0.0, 0.0, 0.0, 0.0, 0.0, 0.0, 0.0, 1.6635906669884057E9, 0.0, 2022-09-19 17:31:06.988
99.0, -1963.1760672540747, 20400.303053892025, -25493.840932111852, -42970.04407287169, -187500.02235174447, -187500.02235174447, 6402.299571311423, -21567.55585283707, 0.61, -0.788, 0.192, 192.0, 19.0, 16.0, 231.0, 96.0, 6.0, 0.0, 0.0, 0.0, 0.0, 1.6635906669923072E9, 0.0, 2022-09-19 17:31:06.992
100.0, -1861.2744642823297, 20387.070821174482, -24461.883242354783, -43238.98026215795, -187500.02235174447, -187500.02235174447, 6263.539941732877, -20647.111016167524, 0.61, -0.788, 0.192, 192.0, 0.0, 0.0, 0.0, 0.0, 0.0, 0.0, 0.0, 0.0, 0.0, 1.663590666997305E9, 0.0, 2022-09-19 17:31:06.997
101.0, -1486.3239510445537, 20460.13867379888, -23924.12262250455, -43255.922884455074, -187500.02235174447, -187500.02235174447, 6372.035309318938, -20080.60605294777, 0.61, -0.788, 0.192, 192.0, 0.0, 0.0, 0.0, 0.0, 0.0, 0.0, 0.0, 0.0, 0.0, 1.6635906670002704E9, 0.0, 2022-09-19 17:31:07.000
102.0, -1384.154127139345, 20513.67110176934, -24236.309437311822, -43090.60938246363, -187500.02235174447, -187500.02235174447, 6500.066101558937, -20327.59282917891, 0.61, -0.788, 0.192, 192.0, 0.0, 0.0, 0.0, 0.0, 0.0, 0.0, 0.0, 0.0, 0.0, 1.663590667003344E9, 0.0, 2022-09-19 17:31:07.003
103.0, -1591.2877430066758, 20492.213427092247, -25045.375531360572, -42931.7331828753, -187500.02235174447, -187500.02235174447, 6529.81627342895, -21080.868969067214, 0.61, -0.788, 0.192, 192.0, 0.0, 0.0, 0.0, 0.0, 0.0, 0.0, 0.0, 0.0, 0.0, 1.6635906670083272E9, 0.0, 2022-09-19 17:31:07.008
104.0, -1965.5230004218818, 20406.270969661593, -25491.09166754385, -42980.92937242143, -187500.02235174447, -187500.02235174447, 6385.424004247667, -21551.619059040437, 0.61, -0.788, 0.192, 192.0, 0.0, 0.0, 0.0, 0.0, 0.0, 0.0, 0.0, 0.0, 0.0, 1.6635906670123236E9, 0.0, 2022-09-19 17:31:07.012
105.0, -1825.4446179204724, 20412.238885431158, -24422.79004130245, -43252.27955010886, -187500.02235174447, -187500.02235174447, 6258.33198527479, -20616.734995452764, 0.61, -0.788, 0.192, 192.0, 0.0, 0.0, 0.0, 0.0, 0.0, 0.0, 0.0, 0.0, 0.0, 1.6635906670162575E9, 0.0, 2022-09-19 17:31:07.016
106.0, -1444.4591336797637, 20491.587578247498, -23920.12166024705, -43257.84513447823, -187500.02235174447, -187500.02235174447, 6380.327806511857, -20099.806201434876, 0.61, -0.788, 0.192, 192.0, 0.0, 0.0, 0.0, 0.0, 0.0, 0.0, 0.0, 0.0, 0.0, 1.6635906670203376E9, 0.0, 2022-09-19 17:31:07.020
107.0, -1358.4719727601973, 20534.458224112775, -24260.739894001472, -43096.71140869992, -187500.02235174447, -187500.02235174447, 6502.211869026646, -20349.78811142303, 0.61, -0.788, 0.192, 192.0, 0.0, 0.0, 0.0, 0.0, 0.0, 0.0, 0.0, 0.0, 0.0, 1.663590667024338E9, 0.0, 2022-09-19 17:31:07.024
108.0, -1584.4928126922623, 20499.187171362304, -25080.646584111048, -42942.2832062582, -187500.02235174447, -187500.02235174447, 6530.397418784788, -21111.647321182172, 0.61, -0.788, 0.192, 192.0, 0.0, 0.0, 0.0, 0.0, 0.0, 0.0, 0.0, 0.0, 0.0, 1.6635906670283167E9, 0.0, 2022-09-19 17:31:07.028
109.0, -1955.5988258837256, 20403.007614971117, -25456.714684571587, -42997.98375344083, -187500.02235174447, -187500.02235174447, 6387.7932891599285, -21518.180849335295, 0.618, -0.788, 0.188, 192.0, 19.0, 80.0, 231.0, 96.0, 5.0, 224.0, 0.0, 0.0, 0.0, 1.663590667031304E9, 0.0, 2022-09-19 17:31:07.031
110.0, -1800.589478086171, 20400.638330058853, -24363.312049306878, -43260.84026823524, -187500.02235174447, -187500.02235174447, 6271.988901136983, -20536.53693634712, 0.618, -0.788, 0.188, 192.0, 0.0, 0.0, 0.0, 0.0, 0.0, 0.0, 0.0, 0.0, 0.0, 1.6635906670363345E9, 0.0, 2022-09-19 17:31:07.036
111.0, -1429.1481887278783, 20474.510845483645, -23911.762107820763, -43250.42435531907, -187500.02235174447, -187500.02235174447, 6400.399673032722, -20063.12698878372, 0.618, -0.788, 0.188, 192.0, 0.0, 0.0, 0.0, 0.0, 0.0, 0.0, 0.0, 0.0, 0.0, 1.66359066704038E9, 0.0, 2022-09-19 17:31:07.040
112.0, -1356.5050192481303, 20521.44950883979, -24264.830263236796, -43085.423777749995, -187500.02235174447, -187500.02235174447, 6520.585002968908, -20354.83960566993, 0.618, -0.788, 0.188, 192.0, 0.0, 0.0, 0.0, 0.0, 0.0, 0.0, 0.0, 0.0, 0.0, 1.663590667044381E9, 0.0, 2022-09-19 17:31:07.044
113.0, -1597.5238797097063, 20489.933549157806, -25102.618348910615, -42933.65543289846, -187500.02235174447, -187500.02235174447, 6546.244805603601, -21132.099167358778, 0.618, -0.788, 0.188, 192.0, 0.0, 0.0, 0.0, 0.0, 0.0, 0.0, 0.0, 0.0, 0.0, 1.6635906670483725E9, 0.0, 2022-09-19 17:31:07.048
114.0, -1958.5939596407368, 20405.220437672193, -25428.50678306899, -43008.89140473502, -187500.02235174447, -187500.02235174447, 6393.560039229398, -21490.241168766162, 0.618, -0.788, 0.188, 192.0, 0.0, 0.0, 0.0, 0.0, 0.0, 0.0, 0.0, 0.0, 0.0, 1.663590667052356E9, 0.0, 2022-09-19 17:31:07.052
115.0, -1779.109451664621, 20418.162097711815, -24320.70962437506, -43269.26687589489, -187500.02235174447, -187500.02235174447, 6281.801316952863, -20491.319357314034, 0.618, -0.788, 0.188, 192.0, 0.0, 0.0, 0.0, 0.0, 0.0, 0.0, 0.0, 0.0, 0.0, 1.6635906670563722E9, 0.0, 2022-09-19 17:31:07.056
116.0, -1417.5923368444846, 20495.052098638072, -23920.30047420269, -43244.83641920524, -187500.02235174447, -187500.02235174447, 6411.441434793644, -20057.471997436525, 0.618, -0.788, 0.188, 192.0, 0.0, 0.0, 0.0, 0.0, 0.0, 0.0, 0.0, 0.0, 0.0, 1.6635906670593634E9, 0.0, 2022-09-19 17:31:07.059
117.0, -1352.2358360571666, 20536.335770647023, -24284.99153673548, -43075.834879378664, -187500.02235174447, -187500.02235174447, 6534.688953720207, -20351.68800970173, 0.618, -0.788, 0.188, 192.0, 0.0, 0.0, 0.0, 0.0, 0.0, 0.0, 0.0, 0.0, 0.0, 1.6635906670644171E9, 0.0, 2022-09-19 17:31:07.064
118.0, -1594.6405046749717, 20503.054023153072, -25146.49482327638, -42923.083057771095, -187500.02235174447, -187500.02235174447, 6554.671413263251, -21152.66277225766, 0.618, -0.788, 0.188, 192.0, 0.0, 0.0, 0.0, 0.0, 0.0, 0.0, 0.0, 0.0, 0.0, 1.6635906670684571E9, 0.0, 2022-09-19 17:31:07.068
119.0, -1942.2101309549967, 20420.643141346354, -25413.84403870631, -43010.836006502635, -187500.02235174447, -187500.02235174447, 6394.342350285334, -21467.95647954422, 0.618, -0.786, 0.192, 192.0, 19.0, 80.0, 231.0, 112.0, 6.0, 0.0, 0.0, 0.0, 0.0, 1.6635906670724359E9, 0.0, 2022-09-19 17:31:07.072
120.0, -1754.589587997149, 20439.262144477623, -24297.240292696988, -43270.27270439538, -187500.02235174447, -187500.02235174447, 6288.395081567179, -20444.850080591452, 0.618, -0.786, 0.192, 192.0, 0.0, 0.0, 0.0, 0.0, 0.0, 0.0, 0.0, 0.0, 0.0, 1.6635906670764525E9, 0.0, 2022-09-19 17:31:07.076
121.0, -1402.2143366592334, 20525.696340286297, -23940.88643084603, -43234.80048594481, -187500.02235174447, -187500.02235174447, 6425.210109378113, -20049.15714849915, 0.618, -0.786, 0.192, 192.0, 0.0, 0.0, 0.0, 0.0, 0.0, 0.0, 0.0, 0.0, 0.0, 1.6635906670804276E9, 0.0, 2022-09-19 17:31:07.080
122.0, -1349.4642197447085, 20571.897396075416, -24310.539580647895, -43069.978722331376, -187500.02235174447, -187500.02235174447, 6546.490674792609, -20373.525664034565, 0.618, -0.786, 0.192, 192.0, 0.0, 0.0, 0.0, 0.0, 0.0, 0.0, 0.0, 0.0, 0.0, 1.663590667084486E9, 0.0, 2022-09-19 17:31:07.084
123.0, -1610.0408566046783, 20537.74393054771, -25186.102114451187, -42923.083057771095, -187500.02235174447, -187500.02235174447, 6562.494523822609, -21194.57229311136, 0.618, -0.786, 0.192, 192.0, 0.0, 0.0, 0.0, 0.0, 0.0, 0.0, 0.0, 0.0, 0.0, 1.6635906670874412E9, 0.0, 2022-09-19 17:31:07.087
124.0, -1956.582302639759, 20457.434112719788, -25398.60014898779, -43027.48805612184, -187500.02235174447, -187500.02235174447, 6389.715539183086, -21449.583345601957, 0.618, -0.786, 0.192, 192.0, 0.0, 0.0, 0.0, 0.0, 0.0, 0.0, 0.0, 0.0, 0.0, 1.663590667091447E9, 0.0, 2022-09-19 17:31:07.091
125.0, -1752.3544135516183, 20476.00841236215, -24269.79235050587, -43284.71193131351, -187500.02235174447, -187500.02235174447, 6291.144346135181, -20419.257333190126, 0.618, -0.786, 0.192, 192.0, 0.0, 0.0, 0.0, 0.0, 0.0, 0.0, 0.0, 0.0, 0.0, 1.6635906670964365E9, 0.0, 2022-09-19 17:31:07.096
126.0, -1411.2667931636327, 20558.44164591332, -23958.79017815473, -43241.595416259224, -187500.02235174447, -187500.02235174447, 6429.948679202638, -20073.40879123316, 0.618, -0.786, 0.192, 192.0, 0.0, 0.0, 0.0, 0.0, 0.0, 0.0, 0.0, 0.0, 0.0, 1.6635906671005063E9, 0.0, 2022-09-19 17:31:07.100
127.0, -1373.2911793340659, 20604.575646469075, -24348.87282238875, -43075.79017588976, -187500.02235174447, -187500.02235174447, 6543.495541035598, -20426.387539671367, 0.618, -0.786, 0.192, 192.0, 0.0, 0.0, 0.0, 0.0, 0.0, 0.0, 0.0, 0.0, 0.0, 1.663590667104524E9, 0.0, 2022-09-19 17:31:07.104
128.0, -1655.8395809936026, 20559.603936624997, -25233.711330140988, -42935.86825559953, -187500.02235174447, -187500.02235174447, 6552.995032429103, -21259.68292470967, 0.618, -0.786, 0.192, 192.0, 0.0, 0.0, 0.0, 0.0, 0.0, 0.0, 0.0, 0.0, 0.0, 1.6635906671085093E9, 0.0, 2022-09-19 17:31:07.108
129.0, -1990.7357681674682, 20473.884996638895, -25375.64490743219, -43050.77857384427, -187500.02235174447, -187500.02235174447, 6378.9867018445375, -21442.609601331904, 0.61, -0.786, 0.186, 192.0, 19.0, 16.0, 231.0, 112.0, 5.0, 208.0, 0.0, 0.0, 0.0, 1.663590667112498E9, 0.0, 2022-09-19 17:31:07.112
130.0, -1751.594454240138, 20503.322244086536, -24239.639847235663, -43301.14046348816, -187500.02235174447, -187500.02235174447, 6293.267761858436, -20404.66164406081, 0.61, -0.786, 0.186, 192.0, 0.0, 0.0, 0.0, 0.0, 0.0, 0.0, 0.0, 0.0, 0.0, 1.6635906671154463E9, 0.0, 2022-09-19 17:31:07.115
131.0, -1413.8595955204482, 20584.816704370583, -23967.753227681307, -43244.948177927516, -187500.02235174447, -187500.02235174447, 6437.436513595166, -20086.88689313971, 0.61, -0.786, 0.186, 192.0, 0.0, 0.0, 0.0, 0.0, 0.0, 0.0, 0.0, 0.0, 0.0, 1.6635906671195695E9, 0.0, 2022-09-19 17:31:07.119
132.0, -1385.0258451731022, 20624.84867869004, -24375.180825612646, -43074.53847820026, -187500.02235174447, -187500.02235174447, 6550.938671939215, -20432.646028118852, 0.61, -0.786, 0.186, 192.0, 0.0, 0.0, 0.0, 0.0, 0.0, 0.0, 0.0, 0.0, 0.0, 1.6635906671245377E9, 0.0, 2022-09-19 17:31:07.124
133.0, -1670.0329387227225, 20583.028564814158, -25274.927946916574, -42940.07038355713, -187500.02235174447, -187500.02235174447, 6551.497465550598, -21278.88307319678, 0.61, -0.786, 0.186, 192.0, 0.0, 0.0, 0.0, 0.0, 0.0, 0.0, 0.0, 0.0, 0.0, 1.6635906671285264E9, 0.0, 2022-09-19 17:31:07.128
134.0, -1977.101204049731, 20505.110383642957, -25339.993875025975, -43067.47532695238, -187500.02235174447, -187500.02235174447, 6382.272408279468, -21399.42603104425, 0.61, -0.786, 0.186, 192.0, 0.0, 0.0, 0.0, 0.0, 0.0, 0.0, 0.0, 0.0, 0.0, 1.6635906671324797E9, 0.0, 2022-09-19 17:31:07.132
135.0, -1717.463340456884, 20540.090863715515, -24195.293986236335, -43306.974268791, -187500.02235174447, -187500.02235174447, 6312.0655789453485, -20347.687047444233, 0.61, -0.786, 0.186, 192.0, 0.0, 0.0, 0.0, 0.0, 0.0, 0.0, 0.0, 0.0, 0.0, 1.6635906671365156E9, 0.0, 2022-09-19 17:31:07.136
136.0, -1395.2405923891774, 20618.545486753643, -23978.817341186685, -43241.46130579249, -187500.02235174447, -187500.02235174447, 6452.680403313685, -20076.62744243472, 0.61, -0.786, 0.186, 192.0, 0.0, 0.0, 0.0, 0.0, 0.0, 0.0, 0.0, 0.0, 0.0, 1.6635906671405146E9, 0.0, 2022-09-19 17:31:07.140
137.0, -1379.706129992739, 20653.503615081743, -24414.274026664978, -43076.66189392351, -187500.02235174447, -187500.02235174447, 6556.973642942148, -20452.4273219618, 0.61, -0.786, 0.186, 192.0, 0.0, 0.0, 0.0, 0.0, 0.0, 0.0, 0.0, 0.0, 0.0, 1.663590667143515E9, 0.0, 2022-09-19 17:31:07.143
138.0, -1684.7850900632252, 20601.491105734243, -25327.6780638311, -42947.558217949656, -187500.02235174447, -187500.02235174447, 6545.551901525486, -21310.10846020084, 0.61, -0.786, 0.186, 192.0, 0.0, 0.0, 0.0, 0.0, 0.0, 0.0, 0.0, 0.0, 0.0, 1.6635906671475155E9, 0.0, 2022-09-19 17:31:07.147
139.0, -1983.6949686640464, 20529.25026765469, -25311.54010433437, -43091.570507475204, -187500.02235174447, -187500.02235174447, 6370.895370351716, -21373.676821431734, 0.604, -0.788, 0.19, 192.0, 18.0, 224.0, 231.0, 96.0, 5.0, 240.0, 0.0, 0.0, 0.0, 1.663590667151599E9, 0.0, 2022-09-19 17:31:07.151
140.0, -1710.24372699782, 20570.377477452457, -24162.54868060931, -43327.33670798978, -187500.02235174447, -187500.02235174447, 6313.496090590488, -20332.063178069973, 0.604, -0.788, 0.19, 192.0, 0.0, 0.0, 0.0, 0.0, 0.0, 0.0, 0.0, 0.0, 0.0, 1.663590667156658E9, 0.0, 2022-09-19 17:31:07.156
141.0, -1397.2969528790657, 20649.010914446226, -23989.255605847313, -43252.70423325351, -187500.02235174447, -187500.02235174447, 6461.889322029272, -20104.053032881384, 0.604, -0.788, 0.19, 192.0, 0.0, 0.0, 0.0, 0.0, 0.0, 0.0, 0.0, 0.0, 0.0, 1.6635906671605809E9, 0.0, 2022-09-19 17:31:07.160
142.0, -1393.899487721859, 20683.343193929577, -24440.962009544615, -43084.52970797178, -187500.02235174447, -187500.02235174447, 6558.270044120556, -20482.333956043, 0.604, -0.788, 0.19, 192.0, 0.0, 0.0, 0.0, 0.0, 0.0, 0.0, 0.0, 0.0, 0.0, 1.663590667163583E9, 0.0, 2022-09-19 17:31:07.163
143.0, -1698.5984681366049, 20633.141175882956, -25341.67025586012, -42953.68259593041, -187500.02235174447, -187500.02235174447, 6548.39057307131, -21333.644847112282, 0.604, -0.788, 0.19, 192.0, 0.0, 0.0, 0.0, 0.0, 0.0, 0.0, 0.0, 0.0, 0.0, 1.6635906671676514E9, 0.0, 2022-09-19 17:31:07.167
144.0, -1974.039015059354, 20563.694305860317, -25270.882281170165, -43105.540347759765, -187500.02235174447, -187500.02235174447, 6368.481381950543, -21339.32219020393, 0.604, -0.788, 0.19, 192.0, 0.0, 0.0, 0.0, 0.0, 0.0, 0.0, 0.0, 0.0, 0.0, 1.6635906671716375E9, 0.0, 2022-09-19 17:31:07.171
145.0, -1682.8404882956133, 20612.577570984075, -24132.10560466118, -43329.16955103511, -187500.02235174447, -187500.02235174447, 6315.4406923581, -20282.509360612556, 0.604, -0.788, 0.19, 192.0, 0.0, 0.0, 0.0, 0.0, 0.0, 0.0, 0.0, 0.0, 0.0, 1.66359066717564E9, 0.0, 2022-09-19 17:31:07.175
146.0, -1381.2484003601553, 20697.313034214145, -23991.736649481853, -43243.74118372693, -187500.02235174447, -187500.02235174447, 6465.331490675389, -20086.35045127278, 0.604, -0.788, 0.19, 192.0, 0.0, 0.0, 0.0, 0.0, 0.0, 0.0, 0.0, 0.0, 0.0, 1.6635906671796546E9, 0.0, 2022-09-19 17:31:07.179
147.0, -1384.13177539489, 20737.188546322413, -24450.729721871583, -43074.516126455805, -187500.02235174447, -187500.02235174447, 6567.277797136045, -20493.66629048184, 0.604, -0.788, 0.19, 192.0, 0.0, 0.0, 0.0, 0.0, 0.0, 0.0, 0.0, 0.0, 0.0, 1.6635906671846056E9, 0.0, 2022-09-19 17:31:07.184
148.0, -1708.209718252387, 20681.867978795526, -25366.078360805317, -42948.474639472326, -187500.02235174447, -187500.02235174447, 6547.720020737651, -21353.22497525513, 0.604, -0.788, 0.19, 192.0, 0.0, 0.0, 0.0, 0.0, 0.0, 0.0, 0.0, 0.0, 0.0, 1.6635906671886573E9, 0.0, 2022-09-19 17:31:07.188
149.0, -1976.9223900940885, 20607.660187203906, -25234.068958052274, -43116.045667653765, -187500.02235174447, -187500.02235174447, 6359.428925446145, -21293.29994837045, 0.608, -0.79, 0.186, 192.0, 19.0, 0.0, 231.0, 80.0, 5.0, 208.0, 0.0, 0.0, 0.0, 1.6635906671916087E9, 0.0, 2022-09-19 17:31:07.191
150.0, -1670.3235114006416, 20660.767932029717, -24109.217418338947, -43330.06362081333, -187500.02235174447, -187500.02235174447, 6317.921735992639, -20251.641601519776, 0.608, -0.79, 0.186, 192.0, 0.0, 0.0, 0.0, 0.0, 0.0, 0.0, 0.0, 0.0, 0.0, 1.6635906671955872E9, 0.0, 2022-09-19 17:31:07.195
151.0, -1371.9947781556582, 20744.654028970486, -24019.788088773264, -43236.58862550123, -187500.02235174447, -187500.02235174447, 6468.259569199035, -20094.084154854318, 0.608, -0.79, 0.186, 192.0, 0.0, 0.0, 0.0, 0.0, 0.0, 0.0, 0.0, 0.0, 0.0, 1.6635906671996653E9, 0.0, 2022-09-19 17:31:07.199
152.0, -1384.51175505063, 20774.024221184758, -24488.392411278775, -43072.23624852136, -187500.02235174447, -187500.02235174447, 6571.077593693447, -20521.471860584243, 0.608, -0.79, 0.186, 192.0, 0.0, 0.0, 0.0, 0.0, 0.0, 0.0, 0.0, 0.0, 0.0, 1.6635906672036412E9, 0.0, 2022-09-19 17:31:07.203
153.0, -1713.2612124992863, 20716.826107123627, -25399.494218766, -42953.704947674865, -187500.02235174447, -187500.02235174447, 6552.72681149564, -21384.673879703747, 0.608, -0.79, 0.186, 192.0, 0.0, 0.0, 0.0, 0.0, 0.0, 0.0, 0.0, 0.0, 0.0, 1.663590667207677E9, 0.0, 2022-09-19 17:31:07.207
154.0, -1961.0973550197311, 20647.736865012273, -25189.79015228631, -43130.19432189397, -187500.02235174447, -187500.02235174447, 6367.0061668164935, -21259.21353807611, 0.608, -0.79, 0.186, 192.0, 0.0, 0.0, 0.0, 0.0, 0.0, 0.0, 0.0, 0.0, 0.0, 1.6635906672126846E9, 0.0, 2022-09-19 17:31:07.212
155.0, -1648.5082088122617, 20701.559865660653, -24068.3807812191, -43334.712783660034, -187500.02235174447, -187500.02235174447, 6339.669983347653, -20230.094519864862, 0.608, -0.79, 0.186, 192.0, 0.0, 0.0, 0.0, 0.0, 0.0, 0.0, 0.0, 0.0, 0.0, 1.6635906672166524E9, 0.0, 2022-09-19 17:31:07.216
156.0, -1365.579827496985, 20783.322546878167, -24002.17491414248, -43232.05122137681, -187500.02235174447, -187500.02235174447, 6496.5568776794535, -20103.516591014457, 0.608, -0.79, 0.186, 192.0, 0.0, 0.0, 0.0, 0.0, 0.0, 0.0, 0.0, 0.0, 0.0, 1.6635906672197268E9, 0.0, 2022-09-19 17:31:07.219
157.0, -1391.776071998605, 20808.490611134843, -24502.317548074432, -43063.80964086171, -187500.02235174447, -187500.02235174447, 6586.746166556617, -20553.524262133153, 0.608, -0.79, 0.186, 192.0, 0.0, 0.0, 0.0, 0.0, 0.0, 0.0, 0.0, 0.0, 0.0, 1.663590667223658E9, 0.0, 2022-09-19 17:31:07.223
158.0, -1740.686802945948, 20739.20020332339, -25418.962588186576, -42953.772002908234, -187500.02235174447, -187500.02235174447, 6553.15149464029, -21426.941028468733, 0.608, -0.79, 0.186, 192.0, 0.0, 0.0, 0.0, 0.0, 0.0, 0.0, 0.0, 0.0, 0.0, 1.663590667227718E9, 0.0, 2022-09-19 17:31:07.227
159.0, -1963.5783986542701, 20671.295603668168, -25138.69406446148, -43139.00090920936, -187500.02235174447, -187500.02235174447, 6369.241341262024, -21218.06397653389, 0.606, -0.788, 0.188, 192.0, 18.0, 240.0, 231.0, 96.0, 5.0, 224.0, 0.0, 0.0, 0.0, 1.663590667231732E9, 0.0, 2022-09-19 17:31:07.231
160.0, -1633.1525603714658, 20725.20801129437, -24053.38276068959, -43334.04223132637, -187500.02235174447, -187500.02235174447, 6349.616509630265, -20201.685452662165, 0.606, -0.788, 0.188, 192.0, 0.0, 0.0, 0.0, 0.0, 0.0, 0.0, 0.0, 0.0, 0.0, 1.6635906672357285E9, 0.0, 2022-09-19 17:31:07.235
161.0, -1365.4010135413425, 20799.616968586084, -24032.059196479226, -43222.64113696112, -187500.02235174447, -187500.02235174447, 6502.435386471198, -20112.680806241133, 0.606, -0.788, 0.188, 192.0, 0.0, 0.0, 0.0, 0.0, 0.0, 0.0, 0.0, 0.0, 0.0, 1.663590667239732E9, 0.0, 2022-09-19 17:31:07.239
162.0, -1403.4436826042752, 20819.778242084773, -24552.877194032335, -43050.264483721796, -187500.02235174447, -187500.02235174447, 6591.305922425499, -20572.143265264425, 0.606, -0.788, 0.188, 192.0, 0.0, 0.0, 0.0, 0.0, 0.0, 0.0, 0.0, 0.0, 0.0, 1.6635906672448092E9, 0.0, 2022-09-19 17:31:07.244
163.0, -1753.6061112411155, 20746.620982482553, -25462.79435906343, -42946.35122374907, -187500.02235174447, -187500.02235174447, 6547.071820148447, -21438.04984546302, 0.606, -0.788, 0.188, 192.0, 0.0, 0.0, 0.0, 0.0, 0.0, 0.0, 0.0, 0.0, 0.0, 1.6635906672477136E9, 0.0, 2022-09-19 17:31:07.247
164.0, -1966.908808578111, 20681.040964250682, -25104.942930333964, -43146.44404011298, -187500.02235174447, -187500.02235174447, 6364.167495270669, -21195.980453012045, 0.606, -0.788, 0.188, 192.0, 0.0, 0.0, 0.0, 0.0, 0.0, 0.0, 0.0, 0.0, 0.0, 1.6635906672516966E9, 0.0, 2022-09-19 17:31:07.251
165.0, -1629.6433364919826, 20747.984438894324, -24031.76862380131, -43330.71182140253, -187500.02235174447, -187500.02235174447, 6356.076163777848, -20195.89635084824, 0.606, -0.788, 0.188, 192.0, 0.0, 0.0, 0.0, 0.0, 0.0, 0.0, 0.0, 0.0, 0.0, 1.6635906672557347E9, 0.0, 2022-09-19 17:31:07.255
166.0, -1375.3922433128648, 20831.64701839054, -24033.13208021308, -43211.48761647793, -187500.02235174447, -187500.02235174447, 6512.516023220543, -20142.520385088967, 0.606, -0.788, 0.188, 192.0, 0.0, 0.0, 0.0, 0.0, 0.0, 0.0, 0.0, 0.0, 0.0, 1.6635906672597928E9, 0.0, 2022-09-19 17:31:07.259
167.0, -1429.7963893170822, 20852.523547711797, -24569.395133184807, -43046.15176274202, -187500.02235174447, -187500.02235174447, 6594.368111415877, -20624.42399554539, 0.606, -0.788, 0.188, 192.0, 0.0, 0.0, 0.0, 0.0, 0.0, 0.0, 0.0, 0.0, 0.0, 1.6635906672637863E9, 0.0, 2022-09-19 17:31:07.263
168.0, -1784.652684289537, 20786.183570168447, -25465.4095131647, -42949.59222669509, -187500.02235174447, -187500.02235174447, 6549.843436460905, -21475.243148236652, 0.606, -0.788, 0.188, 192.0, 0.0, 0.0, 0.0, 0.0, 0.0, 0.0, 0.0, 0.0, 0.0, 1.6635906672677996E9, 0.0, 2022-09-19 17:31:07.267
169.0, -1969.7027766350243, 20734.64044745451, -25050.85170875212, -43161.01737749784, -187500.02235174447, -187500.02235174447, 6360.21123650208, -21160.150606650186, 0.612, -0.8, 0.182, 192.0, 19.0, 32.0, 231.0, 0.0, 5.0, 176.0, 0.0, 0.0, 0.0, 1.6635906672727349E9, 0.0, 2022-09-19 17:31:07.272
170.0, -1621.6414119769827, 20801.919198264983, -24006.555856055722, -43342.24532154147, -187500.02235174447, -187500.02235174447, 6358.713669623575, -20184.89929257623, 0.612, -0.8, 0.182, 192.0, 0.0, 0.0, 0.0, 0.0, 0.0, 0.0, 0.0, 0.0, 0.0, 1.6635906672758105E9, 0.0, 2022-09-19 17:31:07.275
171.0, -1375.772222968605, 20879.166827102523, -24061.116464271126, -43222.05999160528, -187500.02235174447, -187500.02235174447, 6510.549069708475, -20163.329859176858, 0.612, -0.8, 0.182, 192.0, 0.0, 0.0, 0.0, 0.0, 0.0, 0.0, 0.0, 0.0, 0.0, 1.6635906672798069E9, 0.0, 2022-09-19 17:31:07.279
172.0, -1436.0548777645681, 20897.89758895607, -24624.223962333675, -43055.15951575751, -187500.02235174447, -187500.02235174447, 6588.489602624131, -20655.381161615987, 0.612, -0.8, 0.182, 192.0, 0.0, 0.0, 0.0, 0.0, 0.0, 0.0, 0.0, 0.0, 0.0, 1.6635906672838128E9, 0.0, 2022-09-19 17:31:07.283
173.0, -1795.8285565171907, 20824.87443982058, -25494.489132701055, -42966.17722108093, -187500.02235174447, -187500.02235174447, 6539.494578778098, -21505.9767968627, 0.612, -0.8, 0.182, 192.0, 0.0, 0.0, 0.0, 0.0, 0.0, 0.0, 0.0, 0.0, 0.0, 1.6635906672878313E9, 0.0, 2022-09-19 17:31:07.287
174.0, -1953.2965962048288, 20771.140846150025, -25007.89165590902, -43186.40895919907, -187500.02235174447, -187500.02235174447, 6355.5620736553765, -21129.260495812952, 0.612, -0.8, 0.182, 192.0, 0.0, 0.0, 0.0, 0.0, 0.0, 0.0, 0.0, 0.0, 0.0, 1.6635906672918322E9, 0.0, 2022-09-19 17:31:07.291
175.0, -1591.9582953403349, 20843.649905163038, -24002.621949031585, -43348.32499603331, -187500.02235174447, -187500.02235174447, 6370.470687207066, -20175.511559905, 0.612, -0.8, 0.182, 192.0, 0.0, 0.0, 0.0, 0.0, 0.0, 0.0, 0.0, 0.0, 0.0, 1.6635906672958252E9, 0.0, 2022-09-19 17:31:07.295
176.0, -1359.0531181160354, 20923.311522401753, -24070.548900431266, -43215.108599079686, -187500.02235174447, -187500.02235174447, 6529.033962373014, -20168.962498779598, 0.612, -0.8, 0.182, 192.0, 0.0, 0.0, 0.0, 0.0, 0.0, 0.0, 0.0, 0.0, 0.0, 1.66359066730089E9, 0.0, 2022-09-19 17:31:07.300
177.0, -1428.6340986054063, 20941.215269710454, -24643.2676486096, -43044.296567952224, -187500.02235174447, -187500.02235174447, 6608.583820889452, -20691.546284144675, 0.612, -0.8, 0.182, 192.0, 0.0, 0.0, 0.0, 0.0, 0.0, 0.0, 0.0, 0.0, 0.0, 1.6635906673038375E9, 0.0, 2022-09-19 17:31:07.303
178.0, -1810.848928791157, 20860.950155371447, -25515.969159122607, -42964.41143326896, -187500.02235174447, -187500.02235174447, 6541.260366590067, -21523.74643370467, 0.612, -0.8, 0.182, 192.0, 0.0, 0.0, 0.0, 0.0, 0.0, 0.0, 0.0, 0.0, 0.0, 1.66359066730788E9, 0.0, 2022-09-19 17:31:07.307
179.0, -1958.8845323186556, 20808.937646023947, -24970.69835313539, -43193.986200569416, -187500.02235174447, -187500.02235174447, 6353.483361421033, -21079.438457422075, 0.612, -0.8, 0.182, 192.0, 0.0, 0.0, 0.0, 0.0, 0.0, 0.0, 0.0, 0.0, 0.0, 1.6635906673118544E9, 0.0, 2022-09-19 17:31:07.311
180.0, -1590.572487184106, 20880.910263170037, -23979.823169687174, -43343.11703957523, -187500.02235174447, -187500.02235174447, 6383.6805681801525, -20142.47568160006, 0.612, -0.798, 0.176, 192.0, 19.0, 32.0, 231.0, 16.0, 5.0, 128.0, 0.0, 0.0, 0.0, 1.6635906673158379E9, 0.0, 2022-09-19 17:31:07.315
181.0, -1370.2960455770549, 20953.70989486097, -24081.970641847925, -43206.61493618667, -187500.02235174447, -187500.02235174447, 6535.963003154159, -20177.478513417067, 0.612, -0.798, 0.176, 192.0, 0.0, 0.0, 0.0, 0.0, 0.0, 0.0, 0.0, 0.0, 0.0, 1.6635906673198445E9, 0.0, 2022-09-19 17:31:07.319
182.0, -1455.1432675294004, 20963.0976275322, -24675.78943679207, -43037.14400972653, -187500.02235174447, -187500.02235174447, 6612.696541869229, -20718.703653657874, 0.612, -0.798, 0.176, 192.0, 0.0, 0.0, 0.0, 0.0, 0.0, 0.0, 0.0, 0.0, 0.0, 1.66359066732386E9, 0.0, 2022-09-19 17:31:07.323
183.0, -1831.9489755569668, 20878.27275732431, -25513.108135832328, -42966.13251759202, -187500.02235174447, -187500.02235174447, 6545.373087569844, -21534.78819546559, 0.612, -0.798, 0.176, 192.0, 0.0, 0.0, 0.0, 0.0, 0.0, 0.0, 0.0, 0.0, 0.0, 1.6635906673288734E9, 0.0, 2022-09-19 17:31:07.328
184.0, -1945.2052647120076, 20829.680064878474, -24895.93176793239, -43203.88802336312, -187500.02235174447, -187500.02235174447, 6361.7311551250405, -21030.622247531683, 0.612, -0.798, 0.176, 192.0, 0.0, 0.0, 0.0, 0.0, 0.0, 0.0, 0.0, 0.0, 0.0, 1.6635906673318589E9, 0.0, 2022-09-19 17:31:07.331
185.0, -1565.9185130499022, 20907.955873960957, -23948.3519134941, -43340.948920363066, -187500.02235174447, -187500.02235174447, 6396.465766008588, -20130.13751866073, 0.612, -0.798, 0.176, 192.0, 0.0, 0.0, 0.0, 0.0, 0.0, 0.0, 0.0, 0.0, 0.0, 1.6635906673359046E9, 0.0, 2022-09-19 17:31:07.335
186.0, -1355.834466914471, 20982.610700441684, -24073.745199888373, -43202.03282857333, -187500.02235174447, -187500.02235174447, 6548.6811457492295, -20185.502789676524, 0.612, -0.798, 0.176, 192.0, 0.0, 0.0, 0.0, 0.0, 0.0, 0.0, 0.0, 0.0, 0.0, 1.66359066733995E9, 0.0, 2022-09-19 17:31:07.339
187.0, -1448.0801162815233, 20995.887636648135, -24690.005146265645, -43035.1100009811, -187500.02235174447, -187500.02235174447, 6622.352495473921, -20736.026255610737, 0.612, -0.798, 0.176, 192.0, 0.0, 0.0, 0.0, 0.0, 0.0, 0.0, 0.0, 0.0, 0.0, 1.6635906673439028E9, 0.0, 2022-09-19 17:31:07.343
188.0, -1833.8041703467572, 20914.46023159745, -25510.694147431153, -42974.4920700183, -187500.02235174447, -187500.02235174447, 6547.429448059732, -21541.896050202377, 0.612, -0.798, 0.176, 192.0, 0.0, 0.0, 0.0, 0.0, 0.0, 0.0, 0.0, 0.0, 0.0, 1.6635906673478627E9, 0.0, 2022-09-19 17:31:07.347
189.0, -1929.2014156820078, 20878.45157127995, -24840.186517260852, -43218.64017470362, -187500.02235174447, -187500.02235174447, 6365.30743423789, -20992.57957846875, 0.612, -0.798, 0.176, 192.0, 0.0, 0.0, 0.0, 0.0, 0.0, 0.0, 0.0, 0.0, 0.0, 1.6635906673518636E9, 0.0, 2022-09-19 17:31:07.351
190.0, -1549.1770564528772, 20964.662249644072, -23932.59393365311, -43342.49119073048, -187500.02235174447, -187500.02235174447, 6412.894298183239, -20120.235695867028, 0.61, -0.792, 0.178, 192.0, 19.0, 16.0, 231.0, 64.0, 5.0, 144.0, 0.0, 0.0, 0.0, 1.6635906673568914E9, 0.0, 2022-09-19 17:31:07.356
191.0, -1349.9559581227254, 21045.575564572286, -24083.62467093762, -43193.89679359159, -187500.02235174447, -187500.02235174447, 6567.121334924857, -20196.209275270616, 0.61, -0.792, 0.178, 192.0, 0.0, 0.0, 0.0, 0.0, 0.0, 0.0, 0.0, 0.0, 0.0, 1.6635906673598716E9, 0.0, 2022-09-19 17:31:07.359
192.0, -1458.8089536200707, 21056.97495424449, -24727.287856017098, -43026.214006687886, -187500.02235174447, -187500.02235174447, 6631.226138022678, -20783.791933511726, 0.61, -0.792, 0.178, 192.0, 0.0, 0.0, 0.0, 0.0, 0.0, 0.0, 0.0, 0.0, 0.0, 1.6635906673629153E9, 0.0, 2022-09-19 17:31:07.362
193.0, -1851.976138588922, 20969.087895046225, -25512.594045709855, -42975.07321537414, -187500.02235174447, -187500.02235174447, 6553.419715573754, -21560.246832400186, 0.61, -0.792, 0.178, 192.0, 0.0, 0.0, 0.0, 0.0, 0.0, 0.0, 0.0, 0.0, 0.0, 1.6635906673680375E9, 0.0, 2022-09-19 17:31:07.368
194.0, -1925.3122121467845, 20931.46990912794, -24788.777505013648, -43226.53034049635, -187500.02235174447, -187500.02235174447, 6371.655329663197, -20948.703104102984, 0.61, -0.792, 0.178, 192.0, 0.0, 0.0, 0.0, 0.0, 0.0, 0.0, 0.0, 0.0, 0.0, 1.663590667372022E9, 0.0, 2022-09-19 17:31:07.372
195.0, -1534.536663834651, 21019.558134026305, -23921.663930614464, -43335.31628076032, -187500.02235174447, -187500.02235174447, 6425.523033800488, -20100.07442236834, 0.61, -0.792, 0.178, 192.0, 0.0, 0.0, 0.0, 0.0, 0.0, 0.0, 0.0, 0.0, 0.0, 1.6635906673759449E9, 0.0, 2022-09-19 17:31:07.375
196.0, -1347.6984319327394, 21093.52005642892, -24097.438049010998, -43185.6937033765, -187500.02235174447, -187500.02235174447, 6575.637349562329, -20211.207295800126, 0.61, -0.792, 0.178, 192.0, 0.0, 0.0, 0.0, 0.0, 0.0, 0.0, 0.0, 0.0, 0.0, 1.6635906673799407E9, 0.0, 2022-09-19 17:31:07.379
197.0, -1460.6865001543165, 21091.731916872493, -24762.022466900646, -43020.536663596235, -187500.02235174447, -187500.02235174447, 6636.657611925318, -20816.470183905385, 0.61, -0.792, 0.178, 192.0, 0.0, 0.0, 0.0, 0.0, 0.0, 0.0, 0.0, 0.0, 0.0, 1.6635906673840027E9, 0.0, 2022-09-19 17:31:07.384
198.0, -1853.4737054674276, 21000.693261706027, -25521.422984769702, -42980.30352357668, -187500.02235174447, -187500.02235174447, 6546.088343392414, -21565.119512691443, 0.61, -0.792, 0.178, 192.0, 0.0, 0.0, 0.0, 0.0, 0.0, 0.0, 0.0, 0.0, 0.0, 1.663590667387103E9, 0.0, 2022-09-19 17:31:07.387
199.0, -1904.0557031697874, 20968.260880501377, -24732.249943286177, -43238.577930757754, -187500.02235174447, -187500.02235174447, 6373.890504108728, -20907.173562905024, 0.61, -0.792, 0.178, 192.0, 0.0, 0.0, 0.0, 0.0, 0.0, 0.0, 0.0, 0.0, 0.0, 1.6635906673910148E9, 0.0, 2022-09-19 17:31:07.391
200.0, -1518.7786839936596, 21050.828224519282, -23913.55024737719, -43337.506751716945, -187500.02235174447, -187500.02235174447, 6435.916594972205, -20090.239654808003, 0.606, -0.794, 0.18, 192.0, 18.0, 240.0, 231.0, 48.0, 5.0, 160.0, 0.0, 0.0, 0.0, 1.6635906673959868E9, 0.0, 2022-09-19 17:31:07.395
201.0, -1351.74409767915, 21116.162373562143, -24119.029834154826, -43184.73257836492, -187500.02235174447, -187500.02235174447, 6581.717024054173, -20222.092595349863, 0.606, -0.794, 0.18, 192.0, 0.0, 0.0, 0.0, 0.0, 0.0, 0.0, 0.0, 0.0, 0.0, 1.6635906674000983E9, 0.0, 2022-09-19 17:31:07.400
202.0, -1484.155831832389, 21110.0826990703, -24796.511208595184, -43021.095457207615, -187500.02235174447, -187500.02235174447, 6643.519597473097, -20848.3214197542, 0.606, -0.794, 0.18, 192.0, 0.0, 0.0, 0.0, 0.0, 0.0, 0.0, 0.0, 0.0, 0.0, 1.66359066740403E9, 0.0, 2022-09-19 17:31:07.404
203.0, -1877.1889063345084, 21014.68545373505, -25522.04883361445, -42991.79232022671, -187500.02235174447, -187500.02235174447, 6546.691840492706, -21555.30709687556, 0.606, -0.794, 0.18, 192.0, 0.0, 0.0, 0.0, 0.0, 0.0, 0.0, 0.0, 0.0, 0.0, 1.6635906674070723E9, 0.0, 2022-09-19 17:31:07.407
204.0, -1903.3404473472176, 20987.572787710764, -24673.397800135353, -43250.64787276362, -187500.02235174447, -187500.02235174447, 6377.958521599594, -20840.386550472565, 0.606, -0.794, 0.18, 192.0, 0.0, 0.0, 0.0, 0.0, 0.0, 0.0, 0.0, 0.0, 0.0, 1.6635906674120252E9, 0.0, 2022-09-19 17:31:07.412
205.0, -1514.084817658045, 21071.25771895143, -23897.501694858278, -43332.45525747004, -187500.02235174447, -187500.02235174447, 6444.834941009873, -20081.34366051479, 0.606, -0.794, 0.18, 192.0, 0.0, 0.0, 0.0, 0.0, 0.0, 0.0, 0.0, 0.0, 0.0, 1.6635906674160695E9, 0.0, 2022-09-19 17:31:07.416
206.0, -1349.9112546338147, 21132.814423181346, -24131.747976749895, -43177.66942711704, -187500.02235174447, -187500.02235174447, 6578.923055997259, -20245.919554939217, 0.606, -0.794, 0.18, 192.0, 0.0, 0.0, 0.0, 0.0, 0.0, 0.0, 0.0, 0.0, 0.0, 1.66359066742004E9, 0.0, 2022-09-19 17:31:07.420
207.0, -1496.538698260629, 21116.877629384715, -24840.879421338966, -43013.048829203704, -187500.02235174447, -187500.02235174447, 6633.841292123949, -20882.541940515275, 0.606, -0.794, 0.18, 192.0, 0.0, 0.0, 0.0, 0.0, 0.0, 0.0, 0.0, 0.0, 0.0, 1.6635906674240832E9, 0.0, 2022-09-19 17:31:07.424
208.0, -1890.6223047521478, 21016.920628180582, -25522.607627225832, -42996.7991109847, -187500.02235174447, -187500.02235174447, 6531.336192051911, -21575.624832585436, 0.606, -0.794, 0.18, 192.0, 0.0, 0.0, 0.0, 0.0, 0.0, 0.0, 0.0, 0.0, 0.0, 1.6635906674280908E9, 0.0, 2022-09-19 17:31:07.428
209.0, -1878.1500313460865, 20996.982872126446, -24632.9634944157, -43261.66728278009, -187500.02235174447, -187500.02235174447, 6368.25786450599, -20811.798669314227, 0.606, -0.794, 0.18, 192.0, 0.0, 0.0, 0.0, 0.0, 0.0, 0.0, 0.0, 0.0, 0.0, 1.663590667431148E9, 0.0, 2022-09-19 17:31:07.431
210.0, -1485.899267899903, 21082.187721990078, -23892.696069800386, -43325.59327192227, -187500.02235174447, -187500.02235174447, 6453.797990536451, -20072.98410808851, 0.608, -0.788, 0.18, 192.0, 19.0, 0.0, 231.0, 96.0, 5.0, 160.0, 0.0, 0.0, 0.0, 1.6635906674350705E9, 0.0, 2022-09-19 17:31:07.435
211.0, -1338.713030661706, 21136.301295316374, -24135.570125051752, -43166.00181651137, -187500.02235174447, -187500.02235174447, 6598.659646351296, -20253.25092712056, 0.608, -0.788, 0.18, 192.0, 0.0, 0.0, 0.0, 0.0, 0.0, 0.0, 0.0, 0.0, 0.0, 1.663590667440058E9, 0.0, 2022-09-19 17:31:07.440
212.0, -1500.7408262182269, 21111.647321182172, -24866.0698373401, -43006.74563726731, -187500.02235174447, -187500.02235174447, 6649.487513242664, -20933.23569693991, 0.608, -0.788, 0.18, 192.0, 0.0, 0.0, 0.0, 0.0, 0.0, 0.0, 0.0, 0.0, 0.0, 1.6635906674440768E9, 0.0, 2022-09-19 17:31:07.444
213.0, -1897.1266623886422, 21008.114040865188, -25508.39191775226, -43004.108131421584, -187500.02235174447, -187500.02235174447, 6534.599546742385, -21582.442114644306, 0.608, -0.788, 0.18, 192.0, 0.0, 0.0, 0.0, 0.0, 0.0, 0.0, 0.0, 0.0, 0.0, 1.663590667448094E9, 0.0, 2022-09-19 17:31:07.448
214.0, -1863.2190660499414, 20997.005223870903, -24582.336793224433, -43270.876201495674, -187500.02235174447, -187500.02235174447, 6373.532876197443, -20788.955186480904, 0.608, -0.788, 0.18, 192.0, 0.0, 0.0, 0.0, 0.0, 0.0, 0.0, 0.0, 0.0, 0.0, 1.6635906674520924E9, 0.0, 2022-09-19 17:31:07.452
215.0, -1471.638854937417, 21091.17312326111, -23900.96621524885, -43324.45333295505, -187500.02235174447, -187500.02235174447, 6463.588054607875, -20091.26783505295, 0.608, -0.788, 0.18, 192.0, 0.0, 0.0, 0.0, 0.0, 0.0, 0.0, 0.0, 0.0, 0.0, 1.6635906674551291E9, 0.0, 2022-09-19 17:31:07.455
216.0, -1342.7586964081165, 21152.41690306865, -24160.134692208136, -43168.616970612646, -187500.02235174447, -187500.02235174447, 6602.2582772086, -20288.901959526775, 0.608, -0.788, 0.18, 192.0, 0.0, 0.0, 0.0, 0.0, 0.0, 0.0, 0.0, 0.0, 0.0, 1.6635906674591496E9, 0.0, 2022-09-19 17:31:07.459
217.0, -1519.091608416034, 21133.842603426292, -24915.288378630685, -43009.18197741294, -187500.02235174447, -187500.02235174447, 6643.139617817356, -20979.280290517843, 0.608, -0.788, 0.18, 192.0, 0.0, 0.0, 0.0, 0.0, 0.0, 0.0, 0.0, 0.0, 0.0, 1.6635906674631584E9, 0.0, 2022-09-19 17:31:07.463
218.0, -1912.3482003627064, 21030.488137064953, -25504.05567932793, -43016.982736227845, -187500.02235174447, -187500.02235174447, 6524.72007569314, -21583.33618442252, 0.608, -0.788, 0.18, 192.0, 0.0, 0.0, 0.0, 0.0, 0.0, 0.0, 0.0, 0.0, 0.0, 1.6635906674681244E9, 0.0, 2022-09-19 17:31:07.468
219.0, -1857.0499845802767, 21022.329750338766, -24529.541972820996, -43285.3154284138, -187500.02235174447, -187500.02235174447, 6371.677681407653, -20732.96406662036, 0.608, -0.788, 0.18, 192.0, 0.0, 0.0, 0.0, 0.0, 0.0, 0.0, 0.0, 0.0, 0.0, 1.6635906674720817E9, 0.0, 2022-09-19 17:31:07.472
220.0, -1469.0013490916908, 21116.162373562143, -23892.38314537801, -43325.25799575543, -187500.02235174447, -187500.02235174447, 6469.354804677344, -20082.46124773756, 0.606, -0.794, 0.17400000000000002, 192.0, 18.0, 240.0, 231.0, 48.0, 5.0, 112.0, 0.0, 0.0, 0.0, 1.6635906674761572E9, 0.0, 2022-09-19 17:31:07.476
221.0, -1351.386469767865, 21166.453798586583, -24185.101590764712, -43164.07956648822, -187500.02235174447, -187500.02235174447, 6601.118338241379, -20306.82805857993, 0.606, -0.794, 0.17400000000000002, 192.0, 0.0, 0.0, 0.0, 0.0, 0.0, 0.0, 0.0, 0.0, 0.0, 1.6635906674791443E9, 0.0, 2022-09-19 17:31:07.479
222.0, -1536.9506522358242, 21137.173013350133, -24951.677018603925, -43003.23641338783, -187500.02235174447, -187500.02235174447, 6648.012298108613, -21020.29574159333, 0.606, -0.794, 0.17400000000000002, 192.0, 0.0, 0.0, 0.0, 0.0, 0.0, 0.0, 0.0, 0.0, 0.0, 1.6635906674831066E9, 0.0, 2022-09-19 17:31:07.483
223.0, -1919.970145221966, 21026.777747485372, -25501.552283948935, -43024.00118398681, -187500.02235174447, -187500.02235174447, 6520.294430290989, -21576.9435855083, 0.606, -0.794, 0.17400000000000002, 192.0, 0.0, 0.0, 0.0, 0.0, 0.0, 0.0, 0.0, 0.0, 0.0, 1.663590667487203E9, 0.0, 2022-09-19 17:31:07.487
224.0, -1831.5019406678607, 21024.54257303984, -24494.203864837156, -43294.792568062854, -187500.02235174447, -187500.02235174447, 6373.219951775069, -20684.930167785904, 0.606, -0.794, 0.17400000000000002, 192.0, 0.0, 0.0, 0.0, 0.0, 0.0, 0.0, 0.0, 0.0, 0.0, 1.663590667491227E9, 0.0, 2022-09-19 17:31:07.491
225.0, -1445.6884796248055, 21120.476260242016, -23894.931244245916, -43323.55926317683, -187500.02235174447, -187500.02235174447, 6485.313950218434, -20078.92967211362, 0.606, -0.794, 0.17400000000000002, 192.0, 0.0, 0.0, 0.0, 0.0, 0.0, 0.0, 0.0, 0.0, 0.0, 1.663590667495217E9, 0.0, 2022-09-19 17:31:07.495
226.0, -1337.2154637832002, 21174.61218531277, -24200.68075665006, -43162.11261297615, -187500.02235174447, -187500.02235174447, 6618.418588449787, -20319.523849430545, 0.606, -0.794, 0.17400000000000002, 192.0, 0.0, 0.0, 0.0, 0.0, 0.0, 0.0, 0.0, 0.0, 0.0, 1.6635906675001645E9, 0.0, 2022-09-19 17:31:07.500
227.0, -1533.3743731229752, 21140.972809907533, -24985.94224285391, -43003.9516692104, -187500.02235174447, -187500.02235174447, 6658.383507535877, -21045.083826194266, 0.606, -0.794, 0.17400000000000002, 192.0, 0.0, 0.0, 0.0, 0.0, 0.0, 0.0, 0.0, 0.0, 0.0, 1.6635906675041978E9, 0.0, 2022-09-19 17:31:07.504
228.0, -1915.2762788863515, 21035.226706889476, -25497.372507735792, -43041.88257955106, -187500.02235174447, -187500.02235174447, 6519.914450635249, -21570.685097060814, 0.606, -0.794, 0.17400000000000002, 192.0, 0.0, 0.0, 0.0, 0.0, 0.0, 0.0, 0.0, 0.0, 0.0, 1.6635906675072608E9, 0.0, 2022-09-19 17:31:07.507
229.0, -1814.4475596484615, 21035.9643144565, -24459.51395744252, -43310.79641709285, -187500.02235174447, -187500.02235174447, 6377.153858799203, -20653.257745892734, 0.606, -0.794, 0.17400000000000002, 192.0, 0.0, 0.0, 0.0, 0.0, 0.0, 0.0, 0.0, 0.0, 0.0, 1.6635906675111876E9, 0.0, 2022-09-19 17:31:07.511
230.0, -1432.2327294627107, 21131.3392080473, -23898.59693033659, -43319.08891428577, -187500.02235174447, -187500.02235174447, 6489.001988053559, -20087.93742512911, 0.606, -0.79, 0.176, 192.0, 18.0, 240.0, 231.0, 80.0, 5.0, 128.0, 0.0, 0.0, 0.0, 1.663590667515237E9, 0.0, 2022-09-19 17:31:07.515
231.0, -1337.9754230946808, 21186.36920289626, -24217.064585335804, -43154.96005475045, -187500.02235174447, -187500.02235174447, 6620.564355917497, -20349.02815211155, 0.606, -0.79, 0.176, 192.0, 0.0, 0.0, 0.0, 0.0, 0.0, 0.0, 0.0, 0.0, 0.0, 1.663590667519235E9, 0.0, 2022-09-19 17:31:07.519
232.0, -1552.0380797431565, 21152.819234468847, -25030.735138742348, -43000.86712847556, -187500.02235174447, -187500.02235174447, 6653.086144099969, -21102.147829788664, 0.606, -0.79, 0.176, 192.0, 0.0, 0.0, 0.0, 0.0, 0.0, 0.0, 0.0, 0.0, 0.0, 1.6635906675233655E9, 0.0, 2022-09-19 17:31:07.523
233.0, -1928.7320290484465, 21053.063398964812, -25479.893443571742, -43051.38207094456, -187500.02235174447, -187500.02235174447, 6505.944610350682, -21564.672477802334, 0.606, -0.79, 0.176, 192.0, 0.0, 0.0, 0.0, 0.0, 0.0, 0.0, 0.0, 0.0, 0.0, 1.6635906675282547E9, 0.0, 2022-09-19 17:31:07.528
234.0, -1802.3776176425956, 21072.040030007367, -24401.891160236737, -43322.50873118743, -187500.02235174447, -187500.02235174447, 6374.091669808826, -20615.237428574255, 0.606, -0.79, 0.176, 192.0, 0.0, 0.0, 0.0, 0.0, 0.0, 0.0, 0.0, 0.0, 0.0, 1.6635906675322783E9, 0.0, 2022-09-19 17:31:07.532
235.0, -1423.448493891775, 21172.824045756348, -23905.280101928725, -43320.6758881421, -187500.02235174447, -187500.02235174447, 6496.355711979355, -20088.697384440587, 0.606, -0.79, 0.176, 192.0, 0.0, 0.0, 0.0, 0.0, 0.0, 0.0, 0.0, 0.0, 0.0, 1.6635906675353012E9, 0.0, 2022-09-19 17:31:07.535
236.0, -1332.096914302935, 21221.997883558022, -24234.78951868886, -43152.99310123838, -187500.02235174447, -187500.02235174447, 6629.572108932985, -20368.295355832026, 0.606, -0.79, 0.176, 192.0, 0.0, 0.0, 0.0, 0.0, 0.0, 0.0, 0.0, 0.0, 0.0, 1.6635906675392792E9, 0.0, 2022-09-19 17:31:07.539
237.0, -1555.793172811648, 21174.343964379306, -25069.850691539134, -43000.53185230873, -187500.02235174447, -187500.02235174447, 6655.120152845401, -21141.41984479664, 0.606, -0.79, 0.176, 192.0, 0.0, 0.0, 0.0, 0.0, 0.0, 0.0, 0.0, 0.0, 0.0, 1.6635906675432434E9, 0.0, 2022-09-19 17:31:07.543
238.0, -1930.8330930272452, 21069.134303228177, -25456.98290550505, -43058.33346347016, -187500.02235174447, -187500.02235174447, 6506.52575570652, -21546.92519270482, 0.606, -0.79, 0.176, 192.0, 0.0, 0.0, 0.0, 0.0, 0.0, 0.0, 0.0, 0.0, 0.0, 1.6635906675472686E9, 0.0, 2022-09-19 17:31:07.547
239.0, -1788.4077773580286, 21096.403431463652, -24359.847528916303, -43323.51455968792, -187500.02235174447, -187500.02235174447, 6379.657254178197, -20570.98097455275, 0.606, -0.79, 0.176, 192.0, 0.0, 0.0, 0.0, 0.0, 0.0, 0.0, 0.0, 0.0, 0.0, 1.6635906675513704E9, 0.0, 2022-09-19 17:31:07.551
240.0, -1420.609822345951, 21203.512990893483, -23906.285930429214, -43311.221100237504, -187500.02235174447, -187500.02235174447, 6503.374159738321, -20096.431088022124, 0.61, -0.792, 0.184, 192.0, 19.0, 16.0, 231.0, 64.0, 5.0, 192.0, 0.0, 0.0, 0.0, 1.663590667556296E9, 0.0, 2022-09-19 17:31:07.556
241.0, -1340.7693911515942, 21261.806340432926, -24261.835129479783, -43140.74434527688, -187500.02235174447, -187500.02235174447, 6632.567242689996, -20396.346795123434, 0.61, -0.792, 0.184, 192.0, 0.0, 0.0, 0.0, 0.0, 0.0, 0.0, 0.0, 0.0, 0.0, 1.6635906675602632E9, 0.0, 2022-09-19 17:31:07.560
242.0, -1578.1672690114106, 21225.462403948593, -25113.30248276025, -42987.90311669149, -187500.02235174447, -187500.02235174447, 6658.830542424982, -21171.706458533583, 0.61, -0.792, 0.184, 192.0, 0.0, 0.0, 0.0, 0.0, 0.0, 0.0, 0.0, 0.0, 0.0, 1.6635906675632615E9, 0.0, 2022-09-19 17:31:07.563
243.0, -1940.5113983763933, 21129.21579232404, -25438.341550629324, -43064.34608272864, -187500.02235174447, -187500.02235174447, 6499.395549225277, -21538.54328853408, 0.61, -0.792, 0.184, 192.0, 0.0, 0.0, 0.0, 0.0, 0.0, 0.0, 0.0, 0.0, 0.0, 1.6635906675674434E9, 0.0, 2022-09-19 17:31:07.567
244.0, -1768.6711870039926, 21154.76383623646, -24326.006987810968, -43328.54370219036, -187500.02235174447, -187500.02235174447, 6382.540629212932, -20544.650619584398, 0.61, -0.792, 0.184, 192.0, 0.0, 0.0, 0.0, 0.0, 0.0, 0.0, 0.0, 0.0, 0.0, 1.6635906675713763E9, 0.0, 2022-09-19 17:31:07.571
245.0, -1405.7459122831717, 21255.793721174447, -23916.59008462311, -43305.02966702338, -187500.02235174447, -187500.02235174447, 6516.293468033489, -20110.467983540057, 0.61, -0.792, 0.184, 192.0, 0.0, 0.0, 0.0, 0.0, 0.0, 0.0, 0.0, 0.0, 0.0, 1.6635906675753348E9, 0.0, 2022-09-19 17:31:07.575
246.0, -1337.2154637832002, 21306.554532832448, -24293.686365328595, -43140.856103999155, -187500.02235174447, -187500.02235174447, 6634.131864801868, -20430.097929250947, 0.61, -0.792, 0.184, 192.0, 0.0, 0.0, 0.0, 0.0, 0.0, 0.0, 0.0, 0.0, 0.0, 1.6635906675793192E9, 0.0, 2022-09-19 17:31:07.579
247.0, -1584.403405714441, 21262.00750613302, -25157.625992015124, -42993.55810803868, -187500.02235174447, -187500.02235174447, 6655.857760412427, -21239.20872678861, 0.61, -0.792, 0.184, 192.0, 0.0, 0.0, 0.0, 0.0, 0.0, 0.0, 0.0, 0.0, 0.0, 1.6635906675843706E9, 0.0, 2022-09-19 17:31:07.584
248.0, -1938.7009070755134, 21157.84837697129, -25413.732279984033, -43078.89706836904, -187500.02235174447, -187500.02235174447, 6500.870764359327, -21543.706541503256, 0.61, -0.792, 0.184, 192.0, 0.0, 0.0, 0.0, 0.0, 0.0, 0.0, 0.0, 0.0, 0.0, 1.6635906675883904E9, 0.0, 2022-09-19 17:31:07.588
249.0, -1756.2659688312972, 21178.501388847995, -24289.90892051565, -43337.5291034614, -187500.02235174447, -187500.02235174447, 6389.849649649817, -20531.10546244448, 0.61, -0.792, 0.184, 192.0, 0.0, 0.0, 0.0, 0.0, 0.0, 0.0, 0.0, 0.0, 0.0, 1.66359066759137E9, 0.0, 2022-09-19 17:31:07.591
250.0, -1409.2998396515657, 21273.40689580523, -23932.21395399737, -43306.52723390189, -187500.02235174447, -187500.02235174447, 6522.931936136715, -20136.753635019497, 0.608, -0.796, 0.17400000000000002, 192.0, 19.0, 0.0, 231.0, 32.0, 5.0, 112.0, 0.0, 0.0, 0.0, 1.6635906675953734E9, 0.0, 2022-09-19 17:31:07.595
251.0, -1354.6051209694292, 21314.757623047546, -24309.891380058692, -43141.23608365489, -187500.02235174447, -187500.02235174447, 6643.296080028544, -20457.635278419886, 0.608, -0.796, 0.17400000000000002, 192.0, 0.0, 0.0, 0.0, 0.0, 0.0, 0.0, 0.0, 0.0, 0.0, 1.6635906675993764E9, 0.0, 2022-09-19 17:31:07.599
252.0, -1614.4888537512845, 21250.09402633834, -25183.956346983476, -43001.26945987576, -187500.02235174447, -187500.02235174447, 6656.371850534899, -21290.59538729136, 0.608, -0.796, 0.17400000000000002, 192.0, 0.0, 0.0, 0.0, 0.0, 0.0, 0.0, 0.0, 0.0, 0.0, 1.6635906676033401E9, 0.0, 2022-09-19 17:31:07.603
253.0, -1962.7513841094237, 21131.294504558387, -25393.995689629995, -43107.373190805105, -187500.02235174447, -187500.02235174447, 6486.275075230012, -21546.45580607126, 0.608, -0.796, 0.17400000000000002, 192.0, 0.0, 0.0, 0.0, 0.0, 0.0, 0.0, 0.0, 0.0, 0.0, 1.6635906676074307E9, 0.0, 2022-09-19 17:31:07.607
254.0, -1757.5400182652497, 21152.23808911301, -24252.045065408358, -43356.796307181874, -187500.02235174447, -187500.02235174447, 6389.626132205264, -20492.34753755898, 0.608, -0.796, 0.17400000000000002, 192.0, 0.0, 0.0, 0.0, 0.0, 0.0, 0.0, 0.0, 0.0, 0.0, 1.6635906676113312E9, 0.0, 2022-09-19 17:31:07.611
255.0, -1416.1841769438001, 21233.598438930327, -23943.322770991657, -43308.74005660297, -187500.02235174447, -187500.02235174447, 6530.509177507064, -20128.952876204596, 0.608, -0.796, 0.17400000000000002, 192.0, 0.0, 0.0, 0.0, 0.0, 0.0, 0.0, 0.0, 0.0, 0.0, 1.6635906676169183E9, 0.0, 2022-09-19 17:31:07.616
0.0, -1373.3358828229766, 21259.995849132043, -24341.04971182939, -43143.47125810043, -187500.02235174447, -187500.02235174447, 6644.704239929229, -20465.95012735726, 0.608, -0.796, 0.17400000000000002, 192.0, 0.0, 0.0, 0.0, 0.0, 0.0, 0.0, 0.0, 0.0, 0.0, 1.6635906676194308E9, 0.0, 2022-09-19 17:31:07.619
1.0, -1642.4285343204183, 21195.19814195611, -25235.99120807543, -43001.98471569833, -187500.02235174447, -187500.02235174447, 6655.321318545499, -21288.293157612465, 0.608, -0.796, 0.17400000000000002, 192.0, 0.0, 0.0, 0.0, 0.0, 0.0, 0.0, 0.0, 0.0, 0.0, 1.6635906676233938E9, 0.0, 2022-09-19 17:31:07.623
2.0, -1965.254779488418, 21091.910730828135, -25365.385456727203, -43112.58114726319, -187500.02235174447, -187500.02235174447, 6487.169145008224, -21484.742639630156, 0.608, -0.796, 0.17400000000000002, 192.0, 0.0, 0.0, 0.0, 0.0, 0.0, 0.0, 0.0, 0.0, 0.0, 1.6635906676274073E9, 0.0, 2022-09-19 17:31:07.627
3.0, -1736.5070267328058, 21124.857202155257, -24217.757489413918, -43358.562094993846, -187500.02235174447, -187500.02235174447, 6396.398710775222, -20450.080388793995, 0.608, -0.796, 0.17400000000000002, 192.0, 0.0, 0.0, 0.0, 0.0, 0.0, 0.0, 0.0, 0.0, 0.0, 1.6635906676313796E9, 0.0, 2022-09-19 17:31:07.631
4.0, -1396.4475865897641, 21217.594589900327, -23951.03412282874, -43299.77700707639, -187500.02235174447, -187500.02235174447, 6541.193311356701, -20132.283286128437, 0.61, -0.798, 0.178, 192.0, 19.0, 16.0, 231.0, 16.0, 5.0, 144.0, 0.0, 0.0, 0.0, 1.6635906676353815E9, 0.0, 2022-09-19 17:31:07.635
5.0, -1363.7022809627392, 21251.323372283387, -24361.546261494907, -43130.797818994266, -187500.02235174447, -187500.02235174447, 6651.074487098991, -20495.074450382526, 0.61, -0.798, 0.178, 192.0, 0.0, 0.0, 0.0, 0.0, 0.0, 0.0, 0.0, 0.0, 0.0, 1.6635906676394007E9, 0.0, 2022-09-19 17:31:07.639
6.0, -1648.37409834553, 21185.698650562605, -25272.42455153758, -42993.46870106086, -187500.02235174447, -187500.02235174447, 6649.040478353558, -21345.84889958488, 0.61, -0.798, 0.178, 192.0, 0.0, 0.0, 0.0, 0.0, 0.0, 0.0, 0.0, 0.0, 0.0, 1.6635906676444128E9, 0.0, 2022-09-19 17:31:07.644
7.0, -1959.8233055857786, 21089.675556382605, -25334.003607511953, -43121.410086323034, -187500.02235174447, -187500.02235174447, 6469.064231999426, -21477.545377915547, 0.61, -0.798, 0.178, 192.0, 0.0, 0.0, 0.0, 0.0, 0.0, 0.0, 0.0, 0.0, 0.0, 1.663590667647442E9, 0.0, 2022-09-19 17:31:07.647
8.0, -1709.2602502417865, 21130.13221384671, -24186.3085849653, -43364.775879952416, -187500.02235174447, -187500.02235174447, 6388.21797230458, -20438.01044678813, 0.61, -0.798, 0.178, 192.0, 0.0, 0.0, 0.0, 0.0, 0.0, 0.0, 0.0, 0.0, 0.0, 1.6635906676515164E9, 0.0, 2022-09-19 17:31:07.651
9.0, -1379.482612548186, 21219.270970734477, -23966.03214335825, -43303.8226728228, -187500.02235174447, -187500.02235174447, 6536.499445021087, -20174.058696515407, 0.61, -0.798, 0.178, 192.0, 0.0, 0.0, 0.0, 0.0, 0.0, 0.0, 0.0, 0.0, 0.0, 1.663590667655449E9, 0.0, 2022-09-19 17:31:07.655
10.0, -1357.9802343821807, 21247.25535479252, -24401.421773603175, -43141.45960109945, -187500.02235174447, -187500.02235174447, 6646.8276556524825, -20533.76532003466, 0.61, -0.798, 0.178, 192.0, 0.0, 0.0, 0.0, 0.0, 0.0, 0.0, 0.0, 0.0, 0.0, 1.6635906676594355E9, 0.0, 2022-09-19 17:31:07.659
11.0, -1654.6772902819266, 21175.752124279992, -25307.740307776967, -43009.71841927987, -187500.02235174447, -187500.02235174447, 6648.034649853069, -21385.61265297087, 0.61, -0.798, 0.178, 192.0, 0.0, 0.0, 0.0, 0.0, 0.0, 0.0, 0.0, 0.0, 0.0, 1.6635906676634731E9, 0.0, 2022-09-19 17:31:07.663
12.0, -1952.1343054931529, 21077.717373099014, -25312.456525857036, -43154.937703006, -187500.02235174447, -187500.02235174447, 6464.772697064006, -21457.182938716764, 0.61, -0.798, 0.178, 192.0, 0.0, 0.0, 0.0, 0.0, 0.0, 0.0, 0.0, 0.0, 0.0, 1.6635906676675024E9, 0.0, 2022-09-19 17:31:07.667
13.0, -1683.5557441181832, 21129.863992913248, -24174.238642959433, -43387.842880230295, -187500.02235174447, -187500.02235174447, 6393.001245618016, -20394.04456544454, 0.61, -0.798, 0.178, 192.0, 0.0, 0.0, 0.0, 0.0, 0.0, 0.0, 0.0, 0.0, 0.0, 1.6635906676715155E9, 0.0, 2022-09-19 17:31:07.671
14.0, -1366.160972852823, 21222.33315972485, -23992.720126237888, -43311.936356060076, -187500.02235174447, -187500.02235174447, 6538.622860744341, -20166.436751656147, 0.61, -0.798, 0.184, 192.0, 19.0, 16.0, 231.0, 16.0, 5.0, 192.0, 0.0, 0.0, 0.0, 1.6635906676745524E9, 0.0, 2022-09-19 17:31:07.674
15.0, -1354.6945279472504, 21244.550793713428, -24433.183602474168, -43148.276883158316, -187500.02235174447, -187500.02235174447, 6647.02882135258, -20560.11802674747, 0.61, -0.798, 0.184, 192.0, 0.0, 0.0, 0.0, 0.0, 0.0, 0.0, 0.0, 0.0, 0.0, 1.6635906676784956E9, 0.0, 2022-09-19 17:31:07.678
16.0, -1665.339072387108, 21167.370220109253, -25348.219316985527, -43019.5531868402, -187500.02235174447, -187500.02235174447, 6639.563338704507, -21420.213153387685, 0.61, -0.798, 0.184, 192.0, 0.0, 0.0, 0.0, 0.0, 0.0, 0.0, 0.0, 0.0, 0.0, 1.6635906676834977E9, 0.0, 2022-09-19 17:31:07.683
17.0, -1954.7047561055133, 21073.045858507856, -25283.555720276323, -43171.410938669556, -187500.02235174447, -187500.02235174447, 6449.797028278951, -21416.346301596917, 0.61, -0.798, 0.184, 192.0, 0.0, 0.0, 0.0, 0.0, 0.0, 0.0, 0.0, 0.0, 0.0, 1.6635906676875284E9, 0.0, 2022-09-19 17:31:07.687
18.0, -1672.2904649127086, 21132.635609225705, -24140.621619298654, -43392.179118654625, -187500.02235174447, -187500.02235174447, 6393.470632251577, -20360.293431317026, 0.61, -0.798, 0.184, 192.0, 0.0, 0.0, 0.0, 0.0, 0.0, 0.0, 0.0, 0.0, 0.0, 1.6635906676916144E9, 0.0, 2022-09-19 17:31:07.691
19.0, -1362.8752664178928, 21227.943447583133, -24002.08550716466, -43300.26874545441, -187500.02235174447, -187500.02235174447, 6545.373087569844, -20160.71470507559, 0.61, -0.798, 0.184, 192.0, 0.0, 0.0, 0.0, 0.0, 0.0, 0.0, 0.0, 0.0, 0.0, 1.6635906676955597E9, 0.0, 2022-09-19 17:31:07.695
20.0, -1355.7450599366498, 21254.38556127376, -24462.665553410716, -43131.714240516936, -187500.02235174447, -187500.02235174447, 6649.912196387315, -20568.835207085038, 0.61, -0.798, 0.184, 192.0, 0.0, 0.0, 0.0, 0.0, 0.0, 0.0, 0.0, 0.0, 0.0, 1.6635906676995356E9, 0.0, 2022-09-19 17:31:07.699
21.0, -1677.9678080043566, 21166.61026079777, -25382.193968557593, -43014.07700944865, -187500.02235174447, -187500.02235174447, 6636.612908436407, -21444.934182755256, 0.61, -0.798, 0.184, 192.0, 0.0, 0.0, 0.0, 0.0, 0.0, 0.0, 0.0, 0.0, 0.0, 1.6635906677026348E9, 0.0, 2022-09-19 17:31:07.702
22.0, -1953.676575860569, 21064.574547359294, -25245.66951342458, -43182.20683124147, -187500.02235174447, -187500.02235174447, 6445.304327643434, -21389.255987317087, 0.61, -0.798, 0.184, 192.0, 0.0, 0.0, 0.0, 0.0, 0.0, 0.0, 0.0, 0.0, 0.0, 1.6635906677067623E9, 0.0, 2022-09-19 17:31:07.706
23.0, -1649.1340576570103, 21119.872763141724, -24107.83161018272, -43394.5931070558, -187500.02235174447, -187500.02235174447, 6405.495870768532, -20335.81827113846, 0.61, -0.798, 0.184, 192.0, 0.0, 0.0, 0.0, 0.0, 0.0, 0.0, 0.0, 0.0, 0.0, 1.6635906677116532E9, 0.0, 2022-09-19 17:31:07.711
24.0, -1348.0113563551135, 21213.638331131737, -24001.54906529773, -43298.12297798669, -187500.02235174447, -187500.02235174447, 6561.82397148895, -20177.679679117166, 0.61, -0.798, 0.184, 192.0, 0.0, 0.0, 0.0, 0.0, 0.0, 0.0, 0.0, 0.0, 0.0, 1.663590667715579E9, 0.0, 2022-09-19 17:31:07.715
25.0, -1363.4340600292755, 21239.43224423316, -24480.03285885249, -43132.72006901742, -187500.02235174447, -187500.02235174447, 6661.021013381603, -20591.4104689849, 0.608, -0.79, 0.18, 192.0, 19.0, 0.0, 231.0, 80.0, 5.0, 160.0, 0.0, 0.0, 0.0, 1.6635906677196193E9, 0.0, 2022-09-19 17:31:07.719
26.0, -1698.2631919697753, 21156.931955448625, -25406.93734966962, -43019.352021140105, -187500.02235174447, -187500.02235174447, 6635.338859002454, -21455.48420613816, 0.608, -0.79, 0.18, 192.0, 0.0, 0.0, 0.0, 0.0, 0.0, 0.0, 0.0, 0.0, 0.0, 1.6635906677236784E9, 0.0, 2022-09-19 17:31:07.723
27.0, -1944.7582298229015, 21076.8233033208, -25194.50637036638, -43193.494462191404, -187500.02235174447, -187500.02235174447, 6445.75136253254, -21335.388283179796, 0.608, -0.79, 0.18, 192.0, 0.0, 0.0, 0.0, 0.0, 0.0, 0.0, 0.0, 0.0, 0.0, 1.663590667726615E9, 0.0, 2022-09-19 17:31:07.726
28.0, -1623.496606766773, 21145.66667624315, -24070.23597600889, -43392.42498784363, -187500.02235174447, -187500.02235174447, 6416.425873807178, -20289.885436282806, 0.608, -0.79, 0.18, 192.0, 0.0, 0.0, 0.0, 0.0, 0.0, 0.0, 0.0, 0.0, 0.0, 1.6635906677305827E9, 0.0, 2022-09-19 17:31:07.730
29.0, -1343.7645249086054, 21229.32925573936, -24006.84642873364, -43290.99277150545, -187500.02235174447, -187500.02235174447, 6572.597512316408, -20158.61364109679, 0.608, -0.79, 0.18, 192.0, 0.0, 0.0, 0.0, 0.0, 0.0, 0.0, 0.0, 0.0, 0.0, 1.6635906677346325E9, 0.0, 2022-09-19 17:31:07.734
30.0, -1372.8888479338705, 21246.785968158958, -24501.267016085032, -43125.478103813904, -187500.02235174447, -187500.02235174447, 6667.324205317999, -20603.592169713043, 0.608, -0.79, 0.18, 192.0, 0.0, 0.0, 0.0, 0.0, 0.0, 0.0, 0.0, 0.0, 0.0, 1.6635906677395911E9, 0.0, 2022-09-19 17:31:07.739
31.0, -1713.4623781993841, 21159.70357176108, -25417.912056197176, -43015.32870713815, -187500.02235174447, -187500.02235174447, 6635.540024702553, -21475.690183125756, 0.608, -0.79, 0.18, 192.0, 0.0, 0.0, 0.0, 0.0, 0.0, 0.0, 0.0, 0.0, 0.0, 1.6635906677436502E9, 0.0, 2022-09-19 17:31:07.743
32.0, -1938.9914797534325, 21081.11483825622, -25144.282000575306, -43199.998819827895, -187500.02235174447, -187500.02235174447, 6439.381115362778, -21285.521541300004, 0.608, -0.79, 0.18, 192.0, 0.0, 0.0, 0.0, 0.0, 0.0, 0.0, 0.0, 0.0, 0.0, 1.663590667747636E9, 0.0, 2022-09-19 17:31:07.747
33.0, -1606.5763362141058, 21161.692877017605, -24041.737501828375, -43388.468729075044, -187500.02235174447, -187500.02235174447, 6421.052684909426, -20244.019656660515, 0.608, -0.79, 0.18, 192.0, 0.0, 0.0, 0.0, 0.0, 0.0, 0.0, 0.0, 0.0, 0.0, 1.66359066775164E9, 0.0, 2022-09-19 17:31:07.751
34.0, -1336.5672631939965, 21256.196052574644, -24013.373138114588, -43276.531192842864, -187500.02235174447, -187500.02235174447, 6581.806431031994, -20158.993620752528, 0.608, -0.79, 0.18, 192.0, 0.0, 0.0, 0.0, 0.0, 0.0, 0.0, 0.0, 0.0, 0.0, 1.6635906677547543E9, 0.0, 2022-09-19 17:31:07.754
35.0, -1377.8956386918592, 21275.44090455066, -24536.04633045749, -43112.06705714072, -187500.02235174447, -187500.02235174447, 6672.286292587077, -20629.117861881, 0.608, -0.786, 0.18, 192.0, 19.0, 0.0, 231.0, 112.0, 5.0, 160.0, 0.0, 0.0, 0.0, 1.663590667758688E9, 0.0, 2022-09-19 17:31:07.758
36.0, -1728.4827504733505, 21189.118467464265, -25440.3532076303, -43014.74756178231, -187500.02235174447, -187500.02235174447, 6640.546815460541, -21497.997224092152, 0.608, -0.786, 0.18, 192.0, 0.0, 0.0, 0.0, 0.0, 0.0, 0.0, 0.0, 0.0, 0.0, 1.6635906677627115E9, 0.0, 2022-09-19 17:31:07.762
37.0, -1937.3374506637397, 21119.55983871935, -25096.136343018574, -43217.12025608066, -187500.02235174447, -187500.02235174447, 6447.785371277973, -21249.892860638247, 0.608, -0.786, 0.18, 192.0, 0.0, 0.0, 0.0, 0.0, 0.0, 0.0, 0.0, 0.0, 0.0, 1.663590667767789E9, 0.0, 2022-09-19 17:31:07.767
38.0, -1594.7075599083378, 21197.746240824014, -24024.66076906452, -43398.86229024676, -187500.02235174447, -187500.02235174447, 6432.027391436982, -20235.749511212052, 0.608, -0.786, 0.18, 192.0, 0.0, 0.0, 0.0, 0.0, 0.0, 0.0, 0.0, 0.0, 0.0, 1.6635906677717905E9, 0.0, 2022-09-19 17:31:07.771
39.0, -1333.035687570058, 21281.945262187157, -24026.761833043318, -43280.33098940027, -187500.02235174447, -187500.02235174447, 6589.87541078036, -20176.09270526084, 0.608, -0.786, 0.18, 192.0, 0.0, 0.0, 0.0, 0.0, 0.0, 0.0, 0.0, 0.0, 0.0, 1.6635906677756677E9, 0.0, 2022-09-19 17:31:07.775
40.0, -1381.1366416378787, 21296.026861194, -24553.01130449907, -43112.24587109636, -187500.02235174447, -187500.02235174447, 6684.490345059675, -20644.94289695536, 0.608, -0.786, 0.18, 192.0, 0.0, 0.0, 0.0, 0.0, 0.0, 0.0, 0.0, 0.0, 0.0, 1.6635906677796795E9, 0.0, 2022-09-19 17:31:07.779
41.0, -1734.9871081098447, 21216.119374766276, -25451.238507180038, -43014.099361193104, -187500.02235174447, -187500.02235174447, 6646.715896930206, -21508.346081774962, 0.608, -0.786, 0.18, 192.0, 0.0, 0.0, 0.0, 0.0, 0.0, 0.0, 0.0, 0.0, 0.0, 1.663590667783707E9, 0.0, 2022-09-19 17:31:07.783
42.0, -1921.4453603560164, 21154.9426501921, -25051.969295974886, -43221.34473578272, -187500.02235174447, -187500.02235174447, 6448.053592211437, -21195.62282510076, 0.608, -0.786, 0.18, 192.0, 0.0, 0.0, 0.0, 0.0, 0.0, 0.0, 0.0, 0.0, 0.0, 1.6635906677867289E9, 0.0, 2022-09-19 17:31:07.786
43.0, -1564.5550566381285, 21237.644104676736, -23986.84161744614, -43392.15676691017, -187500.02235174447, -187500.02235174447, 6445.438438110165, -20203.42888872968, 0.608, -0.786, 0.18, 192.0, 0.0, 0.0, 0.0, 0.0, 0.0, 0.0, 0.0, 0.0, 0.0, 1.6635906677907293E9, 0.0, 2022-09-19 17:31:07.790
44.0, -1310.7957018370273, 21319.563248105438, -24027.812365032718, -43270.876201495674, -187500.02235174447, -187500.02235174447, 6599.509012640598, -20175.7127256051, 0.608, -0.786, 0.18, 192.0, 0.0, 0.0, 0.0, 0.0, 0.0, 0.0, 0.0, 0.0, 0.0, 1.6635906677957418E9, 0.0, 2022-09-19 17:31:07.795
45.0, -1374.2076008567335, 21321.50784987305, -24593.222092774166, -43110.74830421786, -187500.02235174447, -187500.02235174447, 6676.600179266951, -20680.169246216923, 0.612, -0.788, 0.18, 192.0, 19.0, 32.0, 231.0, 96.0, 5.0, 160.0, 0.0, 0.0, 0.0, 1.6635906677997415E9, 0.0, 2022-09-19 17:31:07.799
46.0, -1745.91711114849, 21220.05328179041, -25477.74767610403, -43026.683393321444, -187500.02235174447, -187500.02235174447, 6626.733437387162, -21520.371320291917, 0.612, -0.788, 0.18, 192.0, 0.0, 0.0, 0.0, 0.0, 0.0, 0.0, 0.0, 0.0, 0.0, 1.663590667803749E9, 0.0, 2022-09-19 17:31:07.803
47.0, -1916.6397352981253, 21156.887251959713, -25003.242493062316, -43245.730488983456, -187500.02235174447, -187500.02235174447, 6432.876757726283, -21146.583097765815, 0.612, -0.788, 0.18, 192.0, 0.0, 0.0, 0.0, 0.0, 0.0, 0.0, 0.0, 0.0, 0.0, 1.6635906678077672E9, 0.0, 2022-09-19 17:31:07.807
48.0, -1553.8038675551259, 21246.62950594777, -23976.001021385317, -43402.50562459298, -187500.02235174447, -187500.02235174447, 6446.377211377288, -20178.41728668419, 0.612, -0.788, 0.18, 192.0, 0.0, 0.0, 0.0, 0.0, 0.0, 0.0, 0.0, 0.0, 0.0, 1.6635906678107593E9, 0.0, 2022-09-19 17:31:07.810
49.0, -1316.5624519064966, 21329.800347065968, -24033.087376724172, -43273.960742230505, -187500.02235174447, -187500.02235174447, 6611.623658135374, -20185.681603632165, 0.612, -0.788, 0.18, 192.0, 0.0, 0.0, 0.0, 0.0, 0.0, 0.0, 0.0, 0.0, 0.0, 1.6635906678148215E9, 0.0, 2022-09-19 17:31:07.814
50.0, -1385.0705486620127, 21333.644847112282, -24615.73029944066, -43112.55879551874, -187500.02235174447, -187500.02235174447, 6690.190039895778, -20727.465537484353, 0.612, -0.788, 0.18, 192.0, 0.0, 0.0, 0.0, 0.0, 0.0, 0.0, 0.0, 0.0, 0.0, 1.663590667818838E9, 0.0, 2022-09-19 17:31:07.818
51.0, -1760.6692624889927, 21231.564430184895, -25489.258824498516, -43037.07695449316, -187500.02235174447, -187500.02235174447, 6628.07454205448, -21537.939791433786, 0.612, -0.788, 0.18, 192.0, 0.0, 0.0, 0.0, 0.0, 0.0, 0.0, 0.0, 0.0, 0.0, 1.6635906678227725E9, 0.0, 2022-09-19 17:31:07.822
52.0, -1909.263659627874, 21173.315784134364, -24940.791719054192, -43263.43307059206, -187500.02235174447, -187500.02235174447, 6440.8563304968275, -21096.291672741376, 0.612, -0.788, 0.18, 192.0, 0.0, 0.0, 0.0, 0.0, 0.0, 0.0, 0.0, 0.0, 0.0, 1.6635906678277557E9, 0.0, 2022-09-19 17:31:07.827
53.0, -1536.8388935135476, 21266.9695934021, -23942.36164598008, -43405.90308975019, -187500.02235174447, -187500.02235174447, 6467.521961632009, -20151.774007293465, 0.612, -0.788, 0.18, 192.0, 0.0, 0.0, 0.0, 0.0, 0.0, 0.0, 0.0, 0.0, 0.0, 1.6635906678317652E9, 0.0, 2022-09-19 17:31:07.831
54.0, -1314.7072571167062, 21351.41448395425, -24040.061120994225, -43270.049186950826, -187500.02235174447, -187500.02235174447, 6624.78883561955, -20177.411458183702, 0.612, -0.788, 0.18, 192.0, 0.0, 0.0, 0.0, 0.0, 0.0, 0.0, 0.0, 0.0, 0.0, 1.6635906678357716E9, 0.0, 2022-09-19 17:31:07.835
55.0, -1398.995685457669, 21355.862481100856, -24644.586401532462, -43110.39067630657, -187500.02235174447, -187500.02235174447, 6701.902353990359, -20730.86300264156, 0.61, -0.792, 0.182, 192.0, 19.0, 16.0, 231.0, 64.0, 5.0, 176.0, 0.0, 0.0, 0.0, 1.6635906678388278E9, 0.0, 2022-09-19 17:31:07.838
56.0, -1778.4388993309617, 21246.763616414504, -25508.458972985623, -43044.296567952224, -187500.02235174447, -187500.02235174447, 6635.651783424829, -21555.97764920922, 0.61, -0.792, 0.182, 192.0, 0.0, 0.0, 0.0, 0.0, 0.0, 0.0, 0.0, 0.0, 0.0, 1.6635906678427756E9, 0.0, 2022-09-19 17:31:07.842
57.0, -1900.6582380125808, 21193.34294716632, -24886.141703860965, -43277.80524227682, -187500.02235174447, -187500.02235174447, 6447.56185383342, -21057.623154833695, 0.61, -0.792, 0.182, 192.0, 0.0, 0.0, 0.0, 0.0, 0.0, 0.0, 0.0, 0.0, 0.0, 1.6635906678468044E9, 0.0, 2022-09-19 17:31:07.846
58.0, -1525.931242219358, 21284.605119777338, -23932.616285397566, -43409.233499674025, -187500.02235174447, -187500.02235174447, 6478.720185604118, -20138.631181553745, 0.61, -0.792, 0.182, 192.0, 0.0, 0.0, 0.0, 0.0, 0.0, 0.0, 0.0, 0.0, 0.0, 1.6635906678508828E9, 0.0, 2022-09-19 17:31:07.850
59.0, -1312.2485652266223, 21360.958678836665, -24050.43233042149, -43267.65755029411, -187500.02235174447, -187500.02235174447, 6643.139617817356, -20191.537760679457, 0.61, -0.792, 0.182, 192.0, 0.0, 0.0, 0.0, 0.0, 0.0, 0.0, 0.0, 0.0, 0.0, 1.6635906678558092E9, 0.0, 2022-09-19 17:31:07.855
60.0, -1403.354275626454, 21358.678800902224, -24665.284116898074, -43101.24881282435, -187500.02235174447, -187500.02235174447, 6720.364894910443, -20756.656915742984, 0.61, -0.792, 0.182, 192.0, 0.0, 0.0, 0.0, 0.0, 0.0, 0.0, 0.0, 0.0, 0.0, 1.6635906678598304E9, 0.0, 2022-09-19 17:31:07.859
61.0, -1787.2901901352634, 21250.228136805075, -25497.90894960272, -43041.167323728485, -187500.02235174447, -187500.02235174447, 6647.609966708418, -21562.034971956607, 0.61, -0.792, 0.182, 192.0, 0.0, 0.0, 0.0, 0.0, 0.0, 0.0, 0.0, 0.0, 0.0, 1.6635906678628192E9, 0.0, 2022-09-19 17:31:07.862
62.0, -1888.6329994956257, 21196.24867394551, -24830.329397956062, -43281.292114411845, -187500.02235174447, -187500.02235174447, 6455.474371370598, -21010.617436244185, 0.61, -0.792, 0.182, 192.0, 0.0, 0.0, 0.0, 0.0, 0.0, 0.0, 0.0, 0.0, 0.0, 1.663590667866815E9, 0.0, 2022-09-19 17:31:07.866
63.0, -1509.2791926001541, 21283.465180810115, -23916.50067764529, -43402.48327284852, -187500.02235174447, -187500.02235174447, 6491.8630113438385, -20122.761442990475, 0.61, -0.792, 0.182, 192.0, 0.0, 0.0, 0.0, 0.0, 0.0, 0.0, 0.0, 0.0, 0.0, 1.663590667870876E9, 0.0, 2022-09-19 17:31:07.870
64.0, -1307.711161102195, 21360.533995692014, -24063.709266627942, -43256.414622833094, -187500.02235174447, -187500.02235174447, 6647.051173097036, -20190.420173456692, 0.61, -0.792, 0.182, 192.0, 0.0, 0.0, 0.0, 0.0, 0.0, 0.0, 0.0, 0.0, 0.0, 1.663590667874812E9, 0.0, 2022-09-19 17:31:07.874
65.0, -1416.675915321817, 21355.03546655601, -24703.796172594568, -43095.14678658805, -187500.02235174447, -187500.02235174447, 6720.074322232524, -20782.74140152233, 0.602, -0.788, 0.176, 192.0, 18.0, 208.0, 231.0, 96.0, 5.0, 128.0, 0.0, 0.0, 0.0, 1.663590667878954E9, 0.0, 2022-09-19 17:31:07.878
66.0, -1810.0666177352211, 21248.887032137758, -25517.891409145763, -43053.41607968999, -187500.02235174447, -187500.02235174447, 6630.399123477831, -21565.432437113817, 0.602, -0.788, 0.176, 192.0, 0.0, 0.0, 0.0, 0.0, 0.0, 0.0, 0.0, 0.0, 0.0, 1.663590667883928E9, 0.0, 2022-09-19 17:31:07.883
67.0, -1888.007150650877, 21216.901685822213, -24791.415010859375, -43305.02966702338, -187500.02235174447, -187500.02235174447, 6439.716391529607, -20956.906194318082, 0.602, -0.788, 0.176, 192.0, 0.0, 0.0, 0.0, 0.0, 0.0, 0.0, 0.0, 0.0, 0.0, 1.663590667887897E9, 0.0, 2022-09-19 17:31:07.887
68.0, -1511.6484775124165, 21314.131774202797, -23918.758203835274, -43419.18002595664, -187500.02235174447, -187500.02235174447, 6492.578267166408, -20117.486431299025, 0.602, -0.788, 0.176, 192.0, 0.0, 0.0, 0.0, 0.0, 0.0, 0.0, 0.0, 0.0, 0.0, 1.6635906678908443E9, 0.0, 2022-09-19 17:31:07.890
69.0, -1324.2514519991223, 21390.418278028763, -24084.250519782367, -43271.032663706865, -187500.02235174447, -187500.02235174447, 6651.432115010276, -20227.34525529686, 0.602, -0.788, 0.176, 192.0, 0.0, 0.0, 0.0, 0.0, 0.0, 0.0, 0.0, 0.0, 0.0, 1.6635906678949363E9, 0.0, 2022-09-19 17:31:07.894
70.0, -1444.7720581021379, 21386.059687859975, -24758.13326336542, -43104.48981577037, -187500.02235174447, -187500.02235174447, 6717.6156303424395, -20834.709207380918, 0.602, -0.788, 0.176, 192.0, 0.0, 0.0, 0.0, 0.0, 0.0, 0.0, 0.0, 0.0, 0.0, 1.663590667898912E9, 0.0, 2022-09-19 17:31:07.898
71.0, -1841.1131907836427, 21279.285404596976, -25530.18486859618, -43067.05064380773, -187500.02235174447, -187500.02235174447, 6622.799530363028, -21584.56553036756, 0.602, -0.788, 0.176, 192.0, 0.0, 0.0, 0.0, 0.0, 0.0, 0.0, 0.0, 0.0, 0.0, 1.6635906679029155E9, 0.0, 2022-09-19 17:31:07.902
72.0, -1886.129604116631, 21246.987133859056, -24741.302399790577, -43321.48055094249, -187500.02235174447, -187500.02235174447, 6436.944775217149, -20912.85090599667, 0.602, -0.788, 0.176, 192.0, 0.0, 0.0, 0.0, 0.0, 0.0, 0.0, 0.0, 0.0, 0.0, 1.6635906679069097E9, 0.0, 2022-09-19 17:31:07.906
73.0, -1496.0693116270677, 21343.36785595034, -23910.599817109087, -43416.67663057764, -187500.02235174447, -187500.02235174447, 6497.249781757568, -20107.472849783047, 0.602, -0.788, 0.176, 192.0, 0.0, 0.0, 0.0, 0.0, 0.0, 0.0, 0.0, 0.0, 0.0, 1.6635906679109545E9, 0.0, 2022-09-19 17:31:07.910
74.0, -1314.8860710723486, 21421.040167932533, -24104.72471770343, -43262.69546302503, -187500.02235174447, -187500.02235174447, 6652.527350488585, -20239.035217646982, 0.602, -0.788, 0.176, 192.0, 0.0, 0.0, 0.0, 0.0, 0.0, 0.0, 0.0, 0.0, 0.0, 1.6635906679159544E9, 0.0, 2022-09-19 17:31:07.915
75.0, -1443.609767390462, 21408.903170693302, -24783.770714255657, -43097.76194068932, -187500.02235174447, -187500.02235174447, 6720.878985032915, -20876.17169334551, 0.604, -0.79, 0.17400000000000002, 192.0, 18.0, 224.0, 231.0, 80.0, 5.0, 112.0, 0.0, 0.0, 0.0, 1.663590667918952E9, 0.0, 2022-09-19 17:31:07.918
76.0, -1843.8401036071903, 21293.21054139263, -25524.99926388255, -43076.326617756684, -187500.02235174447, -187500.02235174447, 6615.8928413263375, -21611.588789414025, 0.604, -0.79, 0.17400000000000002, 192.0, 0.0, 0.0, 0.0, 0.0, 0.0, 0.0, 0.0, 0.0, 0.0, 1.6635906679229686E9, 0.0, 2022-09-19 17:31:07.922
77.0, -1872.0927085986984, 21263.192148589154, -24689.64751835436, -43339.183132551094, -187500.02235174447, -187500.02235174447, 6434.441379838155, -20878.853902680148, 0.604, -0.79, 0.17400000000000002, 192.0, 0.0, 0.0, 0.0, 0.0, 0.0, 0.0, 0.0, 0.0, 0.0, 1.6635906679270012E9, 0.0, 2022-09-19 17:31:07.927
78.0, -1479.8866486414254, 21351.302725231973, -23892.5396075892, -43419.850578290294, -187500.02235174447, -187500.02235174447, 6510.236145286101, -20100.767326446454, 0.604, -0.79, 0.17400000000000002, 192.0, 0.0, 0.0, 0.0, 0.0, 0.0, 0.0, 0.0, 0.0, 0.0, 1.6635906679309785E9, 0.0, 2022-09-19 17:31:07.930
79.0, -1319.1552542633121, 21409.976054427156, -24118.06870914325, -43264.461250837005, -187500.02235174447, -187500.02235174447, 6657.645899968851, -20250.747531741566, 0.604, -0.79, 0.17400000000000002, 192.0, 0.0, 0.0, 0.0, 0.0, 0.0, 0.0, 0.0, 0.0, 0.0, 1.6635906679350176E9, 0.0, 2022-09-19 17:31:07.935
80.0, -1466.028567079135, 21387.289033805017, -24832.050482279123, -43103.9757256479, -187500.02235174447, -187500.02235174447, 6712.51943260663, -20899.4845628124, 0.604, -0.79, 0.17400000000000002, 192.0, 0.0, 0.0, 0.0, 0.0, 0.0, 0.0, 0.0, 0.0, 0.0, 1.663590667938975E9, 0.0, 2022-09-19 17:31:07.938
81.0, -1861.4309264935168, 21270.83644519287, -25529.491964518067, -43089.49179524086, -187500.02235174447, -187500.02235174447, 6607.35447494441, -21589.25939670317, 0.604, -0.79, 0.17400000000000002, 192.0, 0.0, 0.0, 0.0, 0.0, 0.0, 0.0, 0.0, 0.0, 0.0, 1.6635906679440353E9, 0.0, 2022-09-19 17:31:07.944
82.0, -1860.3133392707516, 21248.283535037463, -24639.17727937428, -43350.69428094558, -187500.02235174447, -187500.02235174447, 6436.318926372401, -20825.388529943055, 0.604, -0.79, 0.17400000000000002, 192.0, 0.0, 0.0, 0.0, 0.0, 0.0, 0.0, 0.0, 0.0, 0.0, 1.6635906679470012E9, 0.0, 2022-09-19 17:31:07.947
83.0, -1469.7613084031711, 21346.027713540523, -23895.646500068488, -43419.850578290294, -187500.02235174447, -187500.02235174447, 6515.488805233098, -20090.865503652753, 0.604, -0.79, 0.17400000000000002, 192.0, 0.0, 0.0, 0.0, 0.0, 0.0, 0.0, 0.0, 0.0, 0.0, 1.6635906679499655E9, 0.0, 2022-09-19 17:31:07.949
84.0, -1320.5857659084518, 21413.060595161987, -24136.553601807787, -43266.29409388234, -187500.02235174447, -187500.02235174447, 6663.680870971784, -20270.86410175134, 0.604, -0.79, 0.17400000000000002, 192.0, 0.0, 0.0, 0.0, 0.0, 0.0, 0.0, 0.0, 0.0, 0.0, 1.6635906679550636E9, 0.0, 2022-09-19 17:31:07.955
85.0, -1477.5844189625286, 21385.769115182058, -24865.44398849535, -43108.66959198351, -187500.02235174447, -187500.02235174447, 6720.454301888264, -20952.078217515733, 0.608, -0.788, 0.178, 192.0, 19.0, 0.0, 231.0, 96.0, 5.0, 144.0, 0.0, 0.0, 0.0, 1.6635906679590096E9, 0.0, 2022-09-19 17:31:07.959
86.0, -1872.3385777877068, 21265.29321256795, -25511.387051509268, -43106.032086137784, -187500.02235174447, -187500.02235174447, 6611.601306390919, -21601.306986964584, 0.608, -0.788, 0.178, 192.0, 0.0, 0.0, 0.0, 0.0, 0.0, 0.0, 0.0, 0.0, 0.0, 1.6635906679630313E9, 0.0, 2022-09-19 17:31:07.963
87.0, -1843.3483652291734, 21249.021142604488, -24583.47673219165, -43370.989664910994, -187500.02235174447, -187500.02235174447, 6443.695002042652, -20778.561625309187, 0.608, -0.788, 0.178, 192.0, 0.0, 0.0, 0.0, 0.0, 0.0, 0.0, 0.0, 0.0, 0.0, 1.66359066796699E9, 0.0, 2022-09-19 17:31:07.966
88.0, -1450.8740843384367, 21348.50875717506, -23890.39384012149, -43421.79518005791, -187500.02235174447, -187500.02235174447, 6530.0174391290475, -20086.328099528328, 0.608, -0.788, 0.178, 192.0, 0.0, 0.0, 0.0, 0.0, 0.0, 0.0, 0.0, 0.0, 0.0, 1.6635906679719918E9, 0.0, 2022-09-19 17:31:07.971
89.0, -1317.54592866253, 21408.970225926667, -24157.676000318053, -43262.38253860266, -187500.02235174447, -187500.02235174447, 6672.12983037589, -20301.173067232736, 0.608, -0.788, 0.178, 192.0, 0.0, 0.0, 0.0, 0.0, 0.0, 0.0, 0.0, 0.0, 0.0, 1.6635906679750657E9, 0.0, 2022-09-19 17:31:07.975
90.0, -1493.0071226366906, 21384.8973971483, -24911.846209984567, -43103.34987680315, -187500.02235174447, -187500.02235174447, 6721.2366129442, -20973.893520104113, 0.608, -0.788, 0.178, 192.0, 0.0, 0.0, 0.0, 0.0, 0.0, 0.0, 0.0, 0.0, 0.0, 1.6635906679790487E9, 0.0, 2022-09-19 17:31:07.979
91.0, -1892.7680722198575, 21271.216424848608, -25514.71746143311, -43114.03401065279, -187500.02235174447, -187500.02235174447, 6600.179564974256, -21587.448905402292, 0.608, -0.788, 0.178, 192.0, 0.0, 0.0, 0.0, 0.0, 0.0, 0.0, 0.0, 0.0, 0.0, 1.6635906679830706E9, 0.0, 2022-09-19 17:31:07.983
92.0, -1846.0529263082656, 21257.090122352856, -24537.722711291637, -43379.326865592826, -187500.02235174447, -187500.02235174447, 6438.397638606744, -20737.367360278055, 0.608, -0.788, 0.178, 192.0, 0.0, 0.0, 0.0, 0.0, 0.0, 0.0, 0.0, 0.0, 0.0, 1.6635906679870255E9, 0.0, 2022-09-19 17:31:07.987
93.0, -1450.3376424715093, 21353.76141712206, -23882.369563862034, -43419.247081190006, -187500.02235174447, -187500.02235174447, 6542.690878235207, -20083.556483215867, 0.608, -0.788, 0.178, 192.0, 0.0, 0.0, 0.0, 0.0, 0.0, 0.0, 0.0, 0.0, 0.0, 1.6635906679911911E9, 0.0, 2022-09-19 17:31:07.991
94.0, -1319.6022891524183, 21410.311330593984, -24166.84021554473, -43257.7110240115, -187500.02235174447, -187500.02235174447, 6684.356234592943, -20313.153602260783, 0.608, -0.788, 0.178, 192.0, 0.0, 0.0, 0.0, 0.0, 0.0, 0.0, 0.0, 0.0, 0.0, 1.6635906679951017E9, 0.0, 2022-09-19 17:31:07.995
95.0, -1500.025570395657, 21374.146208065296, -24939.182393453408, -43099.03599012327, -187500.02235174447, -187500.02235174447, 6734.535900895107, -21037.35012261273, 0.608, -0.792, 0.17, 192.0, 19.0, 0.0, 231.0, 64.0, 5.0, 80.0, 0.0, 0.0, 0.0, 1.6635906680000756E9, 0.0, 2022-09-19 17:31:08.000
96.0, -1887.3813018061285, 21251.613944961304, -25505.374432250792, -43118.34789733266, -187500.02235174447, -187500.02235174447, 6603.621733620374, -21607.11844052296, 0.608, -0.792, 0.17, 192.0, 0.0, 0.0, 0.0, 0.0, 0.0, 0.0, 0.0, 0.0, 0.0, 1.6635906680031E9, 0.0, 2022-09-19 17:31:08.003
97.0, -1813.9781730149, 21248.30588678192, -24494.807361937448, -43380.10917664876, -187500.02235174447, -187500.02235174447, 6448.612385822819, -20715.61911292304, 0.608, -0.792, 0.17, 192.0, 0.0, 0.0, 0.0, 0.0, 0.0, 0.0, 0.0, 0.0, 0.0, 1.6635906680060759E9, 0.0, 2022-09-19 17:31:08.006
98.0, -1428.410581160853, 21346.877079829825, -23884.716497029844, -43405.09842694979, -187500.02235174447, -187500.02235174447, 6555.118448152358, -20097.816896178352, 0.608, -0.792, 0.17, 192.0, 0.0, 0.0, 0.0, 0.0, 0.0, 0.0, 0.0, 0.0, 0.0, 1.6635906680110905E9, 0.0, 2022-09-19 17:31:08.011
99.0, -1319.490530430142, 21395.8497519314, -24195.852779847715, -43244.05410814931, -187500.02235174447, -187500.02235174447, 6685.138545648879, -20345.49657648761, 0.608, -0.792, 0.17, 192.0, 0.0, 0.0, 0.0, 0.0, 0.0, 0.0, 0.0, 0.0, 0.0, 1.663590668015087E9, 0.0, 2022-09-19 17:31:08.015
100.0, -1519.5609950495952, 21354.297858988986, -24993.47478073535, -43091.05641735273, -187500.02235174447, -187500.02235174447, 6723.829415301016, -21106.41701297963, 0.608, -0.792, 0.17, 192.0, 0.0, 0.0, 0.0, 0.0, 0.0, 0.0, 0.0, 0.0, 0.0, 1.6635906680191205E9, 0.0, 2022-09-19 17:31:08.019
101.0, -1900.5017758013937, 21242.67324717918, -25498.15481879173, -43125.76867649182, -187500.02235174447, -187500.02235174447, 6588.646064835319, -21628.15143205541, 0.608, -0.792, 0.17, 192.0, 0.0, 0.0, 0.0, 0.0, 0.0, 0.0, 0.0, 0.0, 0.0, 1.6635906680230904E9, 0.0, 2022-09-19 17:31:08.023
102.0, -1805.395103144062, 21247.43416874816, -24459.69277139816, -43388.91576396415, -187500.02235174447, -187500.02235174447, 6438.7999700069395, -20677.643499093476, 0.608, -0.792, 0.17, 192.0, 0.0, 0.0, 0.0, 0.0, 0.0, 0.0, 0.0, 0.0, 0.0, 1.6635906680282345E9, 0.0, 2022-09-19 17:31:08.028
103.0, -1425.2813369371102, 21341.691475116193, -23919.004073024284, -43401.36568562576, -187500.02235174447, -187500.02235174447, 6547.34004108191, -20113.194896363606, 0.608, -0.792, 0.17, 192.0, 0.0, 0.0, 0.0, 0.0, 0.0, 0.0, 0.0, 0.0, 0.0, 1.663590668031164E9, 0.0, 2022-09-19 17:31:08.031
104.0, -1321.457483942209, 21387.892530905312, -24231.637922720663, -43234.57696850025, -187500.02235174447, -187500.02235174447, 6685.9208567048145, -20357.119483604372, 0.608, -0.792, 0.17, 192.0, 0.0, 0.0, 0.0, 0.0, 0.0, 0.0, 0.0, 0.0, 0.0, 1.6635906680342195E9, 0.0, 2022-09-19 17:31:08.034
105.0, -1524.478378829763, 21338.785748337003, -25029.72931024186, -43079.94760035844, -187500.02235174447, -187500.02235174447, 6729.260889203655, -21108.89805661417, 0.61, -0.798, 0.17200000000000001, 192.0, 19.0, 16.0, 231.0, 16.0, 5.0, 96.0, 0.0, 0.0, 0.0, 1.6635906680391746E9, 0.0, 2022-09-19 17:31:08.039
106.0, -1907.2520026268965, 21210.933770052645, -25482.821522095386, -43131.20015039446, -187500.02235174447, -187500.02235174447, 6588.042567735025, -21580.65397508788, 0.61, -0.798, 0.17200000000000001, 192.0, 0.0, 0.0, 0.0, 0.0, 0.0, 0.0, 0.0, 0.0, 0.0, 1.6635906680431876E9, 0.0, 2022-09-19 17:31:08.043
107.0, -1790.6429518035593, 21214.890028821235, -24416.620959832784, -43394.3919413557, -187500.02235174447, -187500.02235174447, 6445.304327643434, -20629.14021362546, 0.61, -0.798, 0.17200000000000001, 192.0, 0.0, 0.0, 0.0, 0.0, 0.0, 0.0, 0.0, 0.0, 0.0, 1.6635906680471914E9, 0.0, 2022-09-19 17:31:08.047
108.0, -1417.480578122208, 21316.54576260397, -23913.192619465903, -43393.095540177295, -187500.02235174447, -187500.02235174447, 6566.8754657358495, -20102.577817747333, 0.61, -0.798, 0.17200000000000001, 192.0, 0.0, 0.0, 0.0, 0.0, 0.0, 0.0, 0.0, 0.0, 0.0, 1.663590668051242E9, 0.0, 2022-09-19 17:31:08.051
109.0, -1330.934623591259, 21370.636984185814, -24248.871117695704, -43225.569215484764, -187500.02235174447, -187500.02235174447, 6697.320246377021, -20379.672393759774, 0.61, -0.798, 0.17200000000000001, 192.0, 0.0, 0.0, 0.0, 0.0, 0.0, 0.0, 0.0, 0.0, 0.0, 1.6635906680552025E9, 0.0, 2022-09-19 17:31:08.055
110.0, -1557.9165885349023, 21322.781899307003, -25067.615517093604, -43072.01273107681, -187500.02235174447, -187500.02235174447, 6732.121912493934, -21151.52283329044, 0.61, -0.798, 0.17200000000000001, 192.0, 0.0, 0.0, 0.0, 0.0, 0.0, 0.0, 0.0, 0.0, 0.0, 1.6635906680593028E9, 0.0, 2022-09-19 17:31:08.059
111.0, -1929.2461191709185, 21203.62474961576, -25462.257917196504, -43134.418801596024, -187500.02235174447, -187500.02235174447, 6581.672320565262, -21583.17972221133, 0.61, -0.798, 0.17200000000000001, 192.0, 0.0, 0.0, 0.0, 0.0, 0.0, 0.0, 0.0, 0.0, 0.0, 1.6635906680622325E9, 0.0, 2022-09-19 17:31:08.062
112.0, -1781.366977854607, 21220.813241101892, -24362.641496973218, -43397.275316390434, -187500.02235174447, -187500.02235174447, 6448.411220122722, -20620.73595771026, 0.61, -0.798, 0.17200000000000001, 192.0, 0.0, 0.0, 0.0, 0.0, 0.0, 0.0, 0.0, 0.0, 0.0, 1.6635906680671792E9, 0.0, 2022-09-19 17:31:08.067
113.0, -1408.3610663844427, 21327.073434242422, -23903.000223994284, -43383.081958661314, -187500.02235174447, -187500.02235174447, 6575.0338524620365, -20108.433974794625, 0.61, -0.798, 0.17200000000000001, 192.0, 0.0, 0.0, 0.0, 0.0, 0.0, 0.0, 0.0, 0.0, 0.0, 1.6635906680711927E9, 0.0, 2022-09-19 17:31:08.071
114.0, -1326.9336613337591, 21377.70013543369, -24256.314248599323, -43215.77915141334, -187500.02235174447, -187500.02235174447, 6704.472804602719, -20403.61111207141, 0.61, -0.798, 0.17200000000000001, 192.0, 0.0, 0.0, 0.0, 0.0, 0.0, 0.0, 0.0, 0.0, 0.0, 1.663590668075288E9, 0.0, 2022-09-19 17:31:08.075
115.0, -1558.028347257179, 21323.675969085216, -25105.009985567332, -43067.92236184148, -187500.02235174447, -187500.02235174447, 6735.362915439954, -21200.115525736277, 0.606, -0.8, 0.17, 192.0, 18.0, 240.0, 231.0, 0.0, 5.0, 80.0, 0.0, 0.0, 0.0, 1.6635906680791893E9, 0.0, 2022-09-19 17:31:08.079
116.0, -1924.3063836462957, 21205.658758361194, -25442.78954777593, -43143.04657495577, -187500.02235174447, -187500.02235174447, 6580.308864153489, -21571.266242416652, 0.606, -0.8, 0.17, 192.0, 0.0, 0.0, 0.0, 0.0, 0.0, 0.0, 0.0, 0.0, 0.0, 1.663590668082186E9, 0.0, 2022-09-19 17:31:08.082
117.0, -1757.495314776339, 21227.027026060467, -24321.13430751971, -43400.62807805873, -187500.02235174447, -187500.02235174447, 6459.967072006116, -20567.851730329006, 0.606, -0.8, 0.17, 192.0, 0.0, 0.0, 0.0, 0.0, 0.0, 0.0, 0.0, 0.0, 0.0, 1.6635906680862236E9, 0.0, 2022-09-19 17:31:08.086
118.0, -1394.3241708665098, 21325.866440041835, -23901.323843160135, -43378.56690628135, -187500.02235174447, -187500.02235174447, 6595.68686433874, -20125.533059302936, 0.606, -0.8, 0.17, 192.0, 0.0, 0.0, 0.0, 0.0, 0.0, 0.0, 0.0, 0.0, 0.0, 1.6635906680902183E9, 0.0, 2022-09-19 17:31:08.090
119.0, -1324.5867281659519, 21369.117065562852, -24271.111103428735, -43213.38751475662, -187500.02235174447, -187500.02235174447, 6720.342543165987, -20427.14749898285, 0.606, -0.8, 0.17, 192.0, 0.0, 0.0, 0.0, 0.0, 0.0, 0.0, 0.0, 0.0, 0.0, 1.6635906680953772E9, 0.0, 2022-09-19 17:31:08.095
120.0, -1567.21491422831, 21311.1813439347, -25143.20911684145, -43067.9670653304, -187500.02235174447, -187500.02235174447, 6735.184101484311, -21242.449729734628, 0.606, -0.8, 0.17, 192.0, 0.0, 0.0, 0.0, 0.0, 0.0, 0.0, 0.0, 0.0, 0.0, 1.6635906680992332E9, 0.0, 2022-09-19 17:31:08.099
121.0, -1922.8311685122453, 21199.601435613804, -25404.188085101618, -43156.524676862326, -187500.02235174447, -187500.02235174447, 6573.782154772539, -21559.196300410786, 0.606, -0.8, 0.17, 192.0, 0.0, 0.0, 0.0, 0.0, 0.0, 0.0, 0.0, 0.0, 0.0, 1.66359066810326E9, 0.0, 2022-09-19 17:31:08.103
122.0, -1734.4730179873727, 21234.58191568636, -24271.3793243622, -43411.02163923045, -187500.02235174447, -187500.02235174447, 6464.839752297373, -20533.16182293437, 0.606, -0.8, 0.17, 192.0, 0.0, 0.0, 0.0, 0.0, 0.0, 0.0, 0.0, 0.0, 0.0, 1.663590668107264E9, 0.0, 2022-09-19 17:31:08.107
123.0, -1375.8616299464263, 21337.668161114238, -23906.800020551687, -43372.040196900394, -187500.02235174447, -187500.02235174447, 6602.727663842162, -20141.760425777487, 0.606, -0.8, 0.17, 192.0, 0.0, 0.0, 0.0, 0.0, 0.0, 0.0, 0.0, 0.0, 0.0, 1.6635906681102722E9, 0.0, 2022-09-19 17:31:08.110
124.0, -1318.328239718466, 21375.353202265884, -24293.485199628496, -43204.55857569678, -187500.02235174447, -187500.02235174447, 6723.784711812104, -20465.078409323505, 0.606, -0.8, 0.17, 192.0, 0.0, 0.0, 0.0, 0.0, 0.0, 0.0, 0.0, 0.0, 0.0, 1.6635906681143737E9, 0.0, 2022-09-19 17:31:08.114
125.0, -1579.3966149564524, 21302.93355023069, -25176.759085268866, -43061.663873394, -187500.02235174447, -187500.02235174447, 6742.202549243278, -21279.330108085884, 0.606, -0.8, 0.17, 192.0, 0.0, 0.0, 0.0, 0.0, 0.0, 0.0, 0.0, 0.0, 0.0, 1.663590668118343E9, 0.0, 2022-09-19 17:31:08.118
126.0, -1924.5969563242147, 21183.66464181717, -25381.948099368587, -43160.6373978421, -187500.02235174447, -187500.02235174447, 6573.089250694425, -21518.516125502127, 0.604, -0.798, 0.17, 192.0, 18.0, 224.0, 231.0, 16.0, 5.0, 80.0, 0.0, 0.0, 0.0, 1.6635906681222997E9, 0.0, 2022-09-19 17:31:08.122
127.0, -1712.8365293546356, 21217.594589900327, -24228.70984419702, -43406.55129033939, -187500.02235174447, -187500.02235174447, 6469.7347843330845, -20480.00937461965, 0.604, -0.798, 0.17, 192.0, 0.0, 0.0, 0.0, 0.0, 0.0, 0.0, 0.0, 0.0, 0.0, 1.663590668127274E9, 0.0, 2022-09-19 17:31:08.127
128.0, -1359.3436907939542, 21321.776070806514, -23913.103212488084, -43357.735080449, -187500.02235174447, -187500.02235174447, 6612.562431402497, -20125.197783136104, 0.604, -0.798, 0.17, 192.0, 0.0, 0.0, 0.0, 0.0, 0.0, 0.0, 0.0, 0.0, 0.0, 1.6635906681313765E9, 0.0, 2022-09-19 17:31:08.131
129.0, -1320.7869316085496, 21359.014077069056, -24311.47835391502, -43191.10282553468, -187500.02235174447, -187500.02235174447, 6729.506758392663, -20475.516673984133, 0.604, -0.798, 0.17, 192.0, 0.0, 0.0, 0.0, 0.0, 0.0, 0.0, 0.0, 0.0, 0.0, 1.663590668135323E9, 0.0, 2022-09-19 17:31:08.135
130.0, -1606.5092809807397, 21281.051192408944, -25205.592835616215, -43059.339291970646, -187500.02235174447, -187500.02235174447, 6731.4066566713645, -21319.071509727422, 0.604, -0.798, 0.17, 192.0, 0.0, 0.0, 0.0, 0.0, 0.0, 0.0, 0.0, 0.0, 0.0, 1.6635906681382864E9, 0.0, 2022-09-19 17:31:08.138
131.0, -1932.6882878170359, 21172.891100989713, -25351.370912953727, -43178.51879340634, -187500.02235174447, -187500.02235174447, 6556.280738864034, -21510.35773877594, 0.604, -0.798, 0.17, 192.0, 0.0, 0.0, 0.0, 0.0, 0.0, 0.0, 0.0, 0.0, 0.0, 1.6635906681423116E9, 0.0, 2022-09-19 17:31:08.142
132.0, -1692.0047035222894, 21225.19418301513, -24188.946090811027, -43420.02939224594, -187500.02235174447, -187500.02235174447, 6473.288711701479, -20462.66442092233, 0.604, -0.798, 0.17, 192.0, 0.0, 0.0, 0.0, 0.0, 0.0, 0.0, 0.0, 0.0, 0.0, 1.6635906681462927E9, 0.0, 2022-09-19 17:31:08.146
133.0, -1352.7499261796388, 21330.850879055368, -23904.073107728138, -43358.1821153381, -187500.02235174447, -187500.02235174447, 6625.057056553013, -20130.003408193996, 0.604, -0.798, 0.17, 192.0, 0.0, 0.0, 0.0, 0.0, 0.0, 0.0, 0.0, 0.0, 0.0, 1.6635906681503296E9, 0.0, 2022-09-19 17:31:08.150
134.0, -1322.9774025651698, 21368.51356846256, -24318.96618830755, -43189.873479589645, -187500.02235174447, -187500.02235174447, 6739.788560842105, -20498.67308123983, 0.604, -0.798, 0.17, 192.0, 0.0, 0.0, 0.0, 0.0, 0.0, 0.0, 0.0, 0.0, 0.0, 1.6635906681553113E9, 0.0, 2022-09-19 17:31:08.155
135.0, -1608.8785658930024, 21302.844143252867, -25222.42369919106, -43053.885466323554, -187500.02235174447, -187500.02235174447, 6749.422162702342, -21339.07632101492, 0.604, -0.798, 0.17, 192.0, 0.0, 0.0, 0.0, 0.0, 0.0, 0.0, 0.0, 0.0, 0.0, 1.6635906681593099E9, 0.0, 2022-09-19 17:31:08.159
136.0, -1923.1440929346197, 21206.798697328413, -25297.34674660525, -43176.73065384992, -187500.02235174447, -187500.02235174447, 6571.994015216114, -21460.736866085157, 0.61, -0.798, 0.168, 192.0, 19.0, 16.0, 231.0, 16.0, 5.0, 64.0, 0.0, 0.0, 0.0, 1.6635906681633487E9, 0.0, 2022-09-19 17:31:08.163
137.0, -1676.0232062367447, 21258.654744464726, -24145.2484304009, -43414.3967526432, -187500.02235174447, -187500.02235174447, 6489.449022942666, -20408.84142027395, 0.61, -0.798, 0.168, 192.0, 0.0, 0.0, 0.0, 0.0, 0.0, 0.0, 0.0, 0.0, 0.0, 1.663590668166347E9, 0.0, 2022-09-19 17:31:08.166
138.0, -1349.5759784669851, 21354.722542133637, -23911.829163054128, -43348.906141389154, -187500.02235174447, -187500.02235174447, 6640.099780571435, -20130.405739594193, 0.61, -0.798, 0.168, 192.0, 0.0, 0.0, 0.0, 0.0, 0.0, 0.0, 0.0, 0.0, 0.0, 1.663590668170369E9, 0.0, 2022-09-19 17:31:08.170
139.0, -1324.6537833993177, 21390.865312917867, -24338.903944361682, -43177.20004048348, -187500.02235174447, -187500.02235174447, 6750.8973778363925, -20500.14829637388, 0.61, -0.798, 0.168, 192.0, 0.0, 0.0, 0.0, 0.0, 0.0, 0.0, 0.0, 0.0, 0.0, 1.663590668174372E9, 0.0, 2022-09-19 17:31:08.174
140.0, -1623.8989381669687, 21310.55549508995, -25258.946449631032, -43045.145934241526, -187500.02235174447, -187500.02235174447, 6744.482427177719, -21362.925632348735, 0.61, -0.798, 0.168, 192.0, 0.0, 0.0, 0.0, 0.0, 0.0, 0.0, 0.0, 0.0, 0.0, 1.6635906681783965E9, 0.0, 2022-09-19 17:31:08.178
141.0, -1928.0391249703318, 21208.005691529, -25267.90949915761, -43183.704398119975, -187500.02235174447, -187500.02235174447, 6552.480942306632, -21429.310313380996, 0.61, -0.798, 0.168, 192.0, 0.0, 0.0, 0.0, 0.0, 0.0, 0.0, 0.0, 0.0, 0.0, 1.6635906681823783E9, 0.0, 2022-09-19 17:31:08.182
142.0, -1658.8123630061584, 21266.768427702, -24115.520610275344, -43412.653316575685, -187500.02235174447, -187500.02235174447, 6480.3295112049, -20373.860940201397, 0.61, -0.798, 0.168, 192.0, 0.0, 0.0, 0.0, 0.0, 0.0, 0.0, 0.0, 0.0, 0.0, 1.6635906681874192E9, 0.0, 2022-09-19 17:31:08.187
143.0, -1338.578920194974, 21363.03739107101, -23921.865096314563, -43336.21035053854, -187500.02235174447, -187500.02235174447, 6637.037591581058, -20145.89549850172, 0.61, -0.798, 0.168, 192.0, 0.0, 0.0, 0.0, 0.0, 0.0, 0.0, 0.0, 0.0, 0.0, 1.6635906681914227E9, 0.0, 2022-09-19 17:31:08.191
144.0, -1330.0405538130467, 21391.222940829153, -24363.334401051332, -43172.796746825785, -187500.02235174447, -187500.02235174447, 6749.422162702342, -20541.02963698264, 0.61, -0.798, 0.168, 192.0, 0.0, 0.0, 0.0, 0.0, 0.0, 0.0, 0.0, 0.0, 0.0, 1.6635906681944191E9, 0.0, 2022-09-19 17:31:08.194
145.0, -1639.947490685879, 21307.850934010858, -25284.270976098895, -43049.99626278833, -187500.02235174447, -187500.02235174447, 6744.929462066825, -21404.343414824416, 0.61, -0.798, 0.168, 192.0, 0.0, 0.0, 0.0, 0.0, 0.0, 0.0, 0.0, 0.0, 0.0, 1.663590668198402E9, 0.0, 2022-09-19 17:31:08.198
