%OpenBCI Raw EEG Data
%Number of channels = 8
%Sample Rate = 250 Hz
%Board = OpenBCI_GUI$BoardCytonSerial
Sample Index, EXG Channel 0, EXG Channel 1, EXG Channel 2, EXG Channel 3, EXG Channel 4, EXG Channel 5, EXG Channel 6, EXG Channel 7, Accel Channel 0, Accel Channel 1, Accel Channel 2, Other, Other, Other, Other, Other, Other, Other, Analog Channel 0, Analog Channel 1, Analog Channel 2, Timestamp, Other, Timestamp (Formatted)
7.0, -27903.493094860685, -20959.968383308456, -67431.54733557074, -21009.946883910525, -40447.85087679039, 187500.0, -55878.10944057816, -17763.735981432914, 0.0, 0.0, 0.0, 192.0, 0.0, 0.0, 0.0, 0.0, 0.0, 0.0, 0.0, 0.0, 0.0, 1.6635930246993012E9, 0.0, 2022-09-19 18:10:24.699
8.0, -27819.36112873091, -20940.365903421152, -67474.95442330294, -21020.318093337788, -40415.06086767446, 187500.0, -55855.44477170048, -17762.059600598765, 0.0, 0.0, 0.0, 192.0, 0.0, 0.0, 0.0, 0.0, 0.0, 0.0, 0.0, 0.0, 0.0, 1.663593024699326E9, 0.0, 2022-09-19 18:10:24.699
9.0, -27553.5541836684, -20922.819784023737, -67549.31867710575, -21059.21012869002, -40315.97558450408, 187500.0, -55878.84704814519, -17771.782609436825, 0.0, 0.0, 0.0, 192.0, 0.0, 0.0, 0.0, 0.0, 0.0, 0.0, 0.0, 0.0, 0.0, 1.66359302469934E9, 0.0, 2022-09-19 18:10:24.699
0.0, 0.0, 0.0, 0.0, 0.0, 0.0, 0.0, 0.0, 0.0, 0.64, -0.5700000000000001, 0.552, 192.0, 20.0, 0.0, 238.0, 48.0, 17.0, 64.0, 0.0, 0.0, 0.0, 1.6635930247696705E9, 0.0, 2022-09-19 18:10:24.769
1.0, -34029.81567738243, -20664.94770824286, -67788.68350847764, -21114.26247528344, -32828.051784998395, 187500.0, -57214.14026190523, -18487.70898434031, 0.64, -0.5700000000000001, 0.552, 192.0, 0.0, 0.0, 0.0, 0.0, 0.0, 0.0, 0.0, 0.0, 0.0, 1.6635930247877762E9, 0.0, 2022-09-19 18:10:24.787
2.0, -34399.602937651034, -20699.995243548783, -67670.86746345372, -21058.40546588963, -32963.90568779775, 187500.0, -57179.67387195514, -18478.500065624725, 0.64, -0.5700000000000001, 0.552, 192.0, 0.0, 0.0, 0.0, 0.0, 0.0, 0.0, 0.0, 0.0, 0.0, 1.663593024790693E9, 0.0, 2022-09-19 18:10:24.790
3.0, -34552.04183483623, -20676.503560126253, -67673.10263789924, -21036.277238878876, -33014.62179596684, 187500.0, -57095.653664547644, -18464.686687551344, 0.64, -0.5700000000000001, 0.552, 192.0, 0.0, 0.0, 0.0, 0.0, 0.0, 0.0, 0.0, 0.0, 0.0, 1.6635930247937293E9, 0.0, 2022-09-19 18:10:24.793
4.0, -34475.0847786766, -20642.238335876267, -67727.41737692563, -21047.184890173066, -32967.54902214396, 187500.0, -57058.50506526293, -18452.08030367855, 0.64, -0.5700000000000001, 0.552, 192.0, 0.0, 0.0, 0.0, 0.0, 0.0, 0.0, 0.0, 0.0, 0.0, 1.663593024796697E9, 0.0, 2022-09-19 18:10:24.796
5.0, -34189.56359500451, -20613.538695995652, -67824.28983739494, -21089.40733544914, -32829.19172396562, 187500.0, -57084.880123720184, -18456.12596942496, 0.64, -0.5700000000000001, 0.552, 192.0, 0.0, 0.0, 0.0, 0.0, 0.0, 0.0, 0.0, 0.0, 0.0, 1.6635930248007245E9, 0.0, 2022-09-19 18:10:24.800
6.0, -34238.7821362951, -20661.974926230305, -67792.7515259685, -21104.047728067366, -32833.59501762331, 187500.0, -57217.49302357352, -18482.85865579351, 0.64, -0.5700000000000001, 0.552, 192.0, 0.0, 0.0, 0.0, 0.0, 0.0, 0.0, 0.0, 0.0, 0.0, 1.663593024803729E9, 0.0, 2022-09-19 18:10:24.803
7.0, -34598.220538880894, -20697.3353859586, -67683.51855081541, -21054.985648987968, -32972.77933034651, 187500.0, -57190.93915116062, -18478.097734224528, 0.64, -0.5700000000000001, 0.552, 192.0, 0.0, 0.0, 0.0, 0.0, 0.0, 0.0, 0.0, 0.0, 0.0, 1.663593024807721E9, 0.0, 2022-09-19 18:10:24.807
8.0, -34731.034604434324, -20677.91172002694, -67687.13953341717, -21033.103291166222, -33024.68008097173, 187500.0, -57110.405815888145, -18463.189120672836, 0.648, -0.5700000000000001, 0.55, 192.0, 20.0, 64.0, 238.0, 48.0, 17.0, 48.0, 0.0, 0.0, 0.0, 1.663593024812776E9, 0.0, 2022-09-19 18:10:24.812
9.0, -34644.846277814664, -20640.4725480643, -67748.89740334719, -21050.98468673047, -32982.256469995555, 187500.0, -57082.89081846367, -18457.13179792545, 0.648, -0.5700000000000001, 0.55, 192.0, 0.0, 0.0, 0.0, 0.0, 0.0, 0.0, 0.0, 0.0, 0.0, 1.663593024816752E9, 0.0, 2022-09-19 18:10:24.816
10.0, -34323.15997161388, -20618.50078326473, -67844.62992484927, -21097.99040531998, -32841.23931422702, 187500.0, -57103.94616174056, -18459.568138071078, 0.648, -0.5700000000000001, 0.55, 192.0, 0.0, 0.0, 0.0, 0.0, 0.0, 0.0, 0.0, 0.0, 0.0, 1.66359302482073E9, 0.0, 2022-09-19 18:10:24.820
11.0, -34331.11719263997, -20671.76499030173, -67805.93905519713, -21108.719242658528, -32841.73105260504, 187500.0, -57222.410407353695, -18479.103562725017, 0.648, -0.5700000000000001, 0.55, 192.0, 0.0, 0.0, 0.0, 0.0, 0.0, 0.0, 0.0, 0.0, 0.0, 1.663593024824795E9, 0.0, 2022-09-19 18:10:24.824
12.0, -34670.997818827374, -20701.001072049272, -67695.45438235455, -21055.320925154796, -32978.635487393796, 187500.0, -57196.70590123009, -18473.023888233172, 0.648, -0.5700000000000001, 0.55, 192.0, 0.0, 0.0, 0.0, 0.0, 0.0, 0.0, 0.0, 0.0, 0.0, 1.6635930248288624E9, 0.0, 2022-09-19 18:10:24.828
13.0, -34803.52131170289, -20662.22079541931, -67690.1793706631, -21027.336541096753, -33026.311758316966, 187500.0, -57104.34849314076, -18456.282431636148, 0.648, -0.5700000000000001, 0.55, 192.0, 0.0, 0.0, 0.0, 0.0, 0.0, 0.0, 0.0, 0.0, 0.0, 1.6635930248318093E9, 0.0, 2022-09-19 18:10:24.831
14.0, -34719.523456039846, -20615.37153904099, -67741.92365907713, -21037.484233079464, -32978.68019088271, 187500.0, -57066.28347233337, -18445.26302161968, 0.648, -0.5700000000000001, 0.55, 192.0, 0.0, 0.0, 0.0, 0.0, 0.0, 0.0, 0.0, 0.0, 0.0, 1.663593024835803E9, 0.0, 2022-09-19 18:10:24.835
15.0, -34412.70105990184, -20588.013003827695, -67847.78152081747, -21092.111896528233, -32838.26653221447, 187500.0, -57094.35726336924, -18453.46611183478, 0.648, -0.5700000000000001, 0.55, 192.0, 0.0, 0.0, 0.0, 0.0, 0.0, 0.0, 0.0, 0.0, 0.0, 1.6635930248408003E9, 0.0, 2022-09-19 18:10:24.840
16.0, -34441.51245850473, -20637.94680094085, -67811.77286049997, -21109.590960692283, -32839.853506070795, 187500.0, -57218.99059045203, -18481.60695810401, 0.648, -0.5700000000000001, 0.55, 192.0, 0.0, 0.0, 0.0, 0.0, 0.0, 0.0, 0.0, 0.0, 0.0, 1.6635930248447914E9, 0.0, 2022-09-19 18:10:24.844
17.0, -34811.76910540689, -20680.52687412821, -67691.76634451942, -21058.9195560121, -32984.648106652276, 187500.0, -57188.301645314896, -18480.84699879253, 0.648, -0.5700000000000001, 0.55, 192.0, 0.0, 0.0, 0.0, 0.0, 0.0, 0.0, 0.0, 0.0, 0.0, 1.663593024848822E9, 0.0, 2022-09-19 18:10:24.848
18.0, -34962.39751129121, -20660.633821562984, -67682.69153627056, -21033.572677799784, -33038.78403172303, 187500.0, -57099.25229540495, -18467.882987008452, 0.646, -0.5740000000000001, 0.546, 192.0, 20.0, 48.0, 238.0, 16.0, 17.0, 16.0, 0.0, 0.0, 0.0, 1.6635930248528113E9, 0.0, 2022-09-19 18:10:24.852
19.0, -34883.67466731962, -20622.434690288865, -67736.64864738568, -21044.279163393876, -32991.44303696669, 187500.0, -57064.24946358794, -18459.098751437516, 0.646, -0.5740000000000001, 0.546, 192.0, 0.0, 0.0, 0.0, 0.0, 0.0, 0.0, 0.0, 0.0, 0.0, 1.6635930248558235E9, 0.0, 2022-09-19 18:10:24.855
20.0, -34583.08840788465, -20599.390041755443, -67842.48415738156, -21094.637643651684, -32851.90109633221, 187500.0, -57096.234809903486, -18467.771228286176, 0.646, -0.5740000000000001, 0.546, 192.0, 0.0, 0.0, 0.0, 0.0, 0.0, 0.0, 0.0, 0.0, 0.0, 1.6635930248598251E9, 0.0, 2022-09-19 18:10:24.859
21.0, -34613.95616697743, -20641.545431798153, -67803.14508714022, -21105.79116413488, -32849.375349208756, 187500.0, -57217.4036165957, -18482.925711026874, 0.646, -0.5740000000000001, 0.546, 192.0, 0.0, 0.0, 0.0, 0.0, 0.0, 0.0, 0.0, 0.0, 0.0, 1.663593024863812E9, 0.0, 2022-09-19 18:10:24.863
22.0, -34994.24874714002, -20681.778571817707, -67687.96654796202, -21057.153768200133, -32991.04070556649, 187500.0, -57189.26277032647, -18480.62348134798, 0.646, -0.5740000000000001, 0.546, 192.0, 0.0, 0.0, 0.0, 0.0, 0.0, 0.0, 0.0, 0.0, 0.0, 1.663593024868912E9, 0.0, 2022-09-19 18:10:24.868
23.0, -35157.9976270196, -20662.66783030842, -67685.61961479421, -21033.595029544238, -33045.73542424863, 187500.0, -57100.25812390544, -18466.765399785687, 0.646, -0.5740000000000001, 0.546, 192.0, 0.0, 0.0, 0.0, 0.0, 0.0, 0.0, 0.0, 0.0, 0.0, 1.6635930248729165E9, 0.0, 2022-09-19 18:10:24.872
24.0, -35092.32820180991, -20628.76023396972, -67743.98001956703, -21047.229593661978, -33000.83076963792, 187500.0, -57063.377745554186, -18458.718771781776, 0.646, -0.5740000000000001, 0.546, 192.0, 0.0, 0.0, 0.0, 0.0, 0.0, 0.0, 0.0, 0.0, 0.0, 1.6635930248768141E9, 0.0, 2022-09-19 18:10:24.876
25.0, -34793.41832320909, -20605.26855054719, -67849.03321850696, -21097.342204730776, -32856.52790743446, 187500.0, -57090.57981855629, -18466.251309663214, 0.646, -0.5740000000000001, 0.546, 192.0, 0.0, 0.0, 0.0, 0.0, 0.0, 0.0, 0.0, 0.0, 0.0, 1.663593024880813E9, 0.0, 2022-09-19 18:10:24.880
26.0, -34825.426021269086, -20655.112940682524, -67814.27625587895, -21115.625931695216, -32852.728110877055, 187500.0, -57219.951715463605, -18492.80518207612, 0.646, -0.5740000000000001, 0.546, 192.0, 0.0, 0.0, 0.0, 0.0, 0.0, 0.0, 0.0, 0.0, 0.0, 1.663593024883876E9, 0.0, 2022-09-19 18:10:24.883
27.0, -35213.899339902324, -20701.04577553818, -67697.86837075572, -21067.79319856086, -33000.38373474881, 187500.0, -57197.242343097016, -18493.878065809975, 0.646, -0.5740000000000001, 0.546, 192.0, 0.0, 0.0, 0.0, 0.0, 0.0, 0.0, 0.0, 0.0, 0.0, 1.6635930248879085E9, 0.0, 2022-09-19 18:10:24.887
28.0, -35382.07386518406, -20688.305281198656, -67697.24252191097, -21043.74272152695, -33055.61489529788, 187500.0, -57105.84606001926, -18478.611824347, 0.65, -0.5740000000000001, 0.546, 192.0, 20.0, 80.0, 238.0, 16.0, 17.0, 16.0, 0.0, 0.0, 0.0, 1.6635930248918662E9, 0.0, 2022-09-19 18:10:24.891
29.0, -35312.89521609488, -20652.38602785898, -67754.70885690556, -21055.745608299447, -33006.95514761867, 187500.0, -57071.6702427471, -18466.586585830046, 0.65, -0.5740000000000001, 0.546, 192.0, 0.0, 0.0, 0.0, 0.0, 0.0, 0.0, 0.0, 0.0, 0.0, 1.6635930248968854E9, 0.0, 2022-09-19 18:10:24.896
30.0, -35008.732677547065, -20620.825364688084, -67853.1682912312, -21101.32081524382, -32858.941895835625, 187500.0, -57097.128879681695, -18467.927690497363, 0.65, -0.5740000000000001, 0.546, 192.0, 0.0, 0.0, 0.0, 0.0, 0.0, 0.0, 0.0, 0.0, 0.0, 1.663593024900906E9, 0.0, 2022-09-19 18:10:24.900
31.0, -35036.73941334956, -20670.580347845596, -67819.66302629269, -21118.688120685594, -32854.24802950001, 187500.0, -57230.74760803552, -18489.117144240994, 0.65, -0.5740000000000001, 0.546, 192.0, 0.0, 0.0, 0.0, 0.0, 0.0, 0.0, 0.0, 0.0, 0.0, 1.6635930249048991E9, 0.0, 2022-09-19 18:10:24.904
32.0, -35422.97755753727, -20719.798889136182, -67707.97135924952, -21073.336431185777, -33000.76371440455, 187500.0, -57219.16940440767, -18492.179333231372, 0.65, -0.5740000000000001, 0.546, 192.0, 0.0, 0.0, 0.0, 0.0, 0.0, 0.0, 0.0, 0.0, 0.0, 1.6635930249089298E9, 0.0, 2022-09-19 18:10:24.908
33.0, -35584.781835649235, -20700.688147626897, -67700.32706264581, -21042.49102383745, -33052.105671418394, 187500.0, -57125.80616781786, -18473.962661500296, 0.65, -0.5740000000000001, 0.546, 192.0, 0.0, 0.0, 0.0, 0.0, 0.0, 0.0, 0.0, 0.0, 0.0, 1.663593024911956E9, 0.0, 2022-09-19 18:10:24.911
34.0, -35509.009421945746, -20656.23052790529, -67752.63014467122, -21047.87779425118, -32999.15438880377, 187500.0, -57087.96466445502, -18454.427236846357, 0.65, -0.5740000000000001, 0.546, 192.0, 0.0, 0.0, 0.0, 0.0, 0.0, 0.0, 0.0, 0.0, 0.0, 1.6635930249159825E9, 0.0, 2022-09-19 18:10:24.915
35.0, -35198.23076703915, -20606.98963487025, -67846.84274755034, -21094.771754118414, -32848.28011373045, 187500.0, -57103.72264429601, -18454.538995568633, 0.65, -0.5740000000000001, 0.546, 192.0, 0.0, 0.0, 0.0, 0.0, 0.0, 0.0, 0.0, 0.0, 0.0, 1.6635930249199173E9, 0.0, 2022-09-19 18:10:24.919
36.0, -35214.6592992138, -20632.69414099385, -67807.63778777573, -21109.635664181194, -32836.94777929161, 187500.0, -57226.16550042218, -18473.090943466537, 0.65, -0.5740000000000001, 0.546, 192.0, 0.0, 0.0, 0.0, 0.0, 0.0, 0.0, 0.0, 0.0, 0.0, 1.663593024924945E9, 0.0, 2022-09-19 18:10:24.924
37.0, -35591.71087643038, -20676.05652523715, -67698.67303355612, -21066.653259593637, -32982.256469995555, 187500.0, -57213.313247360384, -18474.02971673366, 0.65, -0.5740000000000001, 0.546, 192.0, 0.0, 0.0, 0.0, 0.0, 0.0, 0.0, 0.0, 0.0, 0.0, 1.6635930249290276E9, 0.0, 2022-09-19 18:10:24.929
38.0, -35744.32858757122, -20659.650344806952, -67695.65554805465, -21046.000247716936, -33038.11347938937, 187500.0, -57124.55447012836, -18460.350449127014, 0.654, -0.578, 0.54, 192.0, 20.0, 112.0, 237.0, 240.0, 16.0, 224.0, 0.0, 0.0, 0.0, 1.663593024932984E9, 0.0, 2022-09-19 18:10:24.932
39.0, -35653.424042871484, -20623.194649600347, -67749.7914731254, -21060.46182637952, -32992.24769976708, 187500.0, -57084.880123720184, -18449.93453621084, 0.654, -0.578, 0.54, 192.0, 0.0, 0.0, 0.0, 0.0, 0.0, 0.0, 0.0, 0.0, 0.0, 1.6635930249369757E9, 0.0, 2022-09-19 18:10:24.936
40.0, -35318.55020744207, -20594.964396353294, -67850.7095993411, -21110.485030470496, -32841.060500271386, 187500.0, -57107.52244085341, -18455.544824069122, 0.654, -0.578, 0.54, 192.0, 0.0, 0.0, 0.0, 0.0, 0.0, 0.0, 0.0, 0.0, 0.0, 1.6635930249398963E9, 0.0, 2022-09-19 18:10:24.939
41.0, -35302.45695143425, -20641.94776319835, -67815.9526367131, -21126.824155667324, -32826.576569864344, 187500.0, -57235.32971564886, -18478.99180400274, 0.654, -0.578, 0.54, 192.0, 0.0, 0.0, 0.0, 0.0, 0.0, 0.0, 0.0, 0.0, 0.0, 1.6635930249440217E9, 0.0, 2022-09-19 18:10:24.944
42.0, -35651.121813192585, -20686.159513730945, -67696.43785911058, -21077.002117276446, -32970.14182450078, 187500.0, -57211.905087459694, -18476.75662955721, 0.654, -0.578, 0.54, 192.0, 0.0, 0.0, 0.0, 0.0, 0.0, 0.0, 0.0, 0.0, 0.0, 1.6635930249479887E9, 0.0, 2022-09-19 18:10:24.947
43.0, -35786.93101250303, -20675.453028136853, -67698.42716436711, -21055.902070510634, -33030.4468310412, 187500.0, -57128.533080641406, -18468.79940853112, 0.654, -0.578, 0.54, 192.0, 0.0, 0.0, 0.0, 0.0, 0.0, 0.0, 0.0, 0.0, 0.0, 1.663593024952999E9, 0.0, 2022-09-19 18:10:24.952
44.0, -35684.26945021981, -20645.054655677635, -67754.32887724982, -21069.737800328472, -32985.36336247485, 187500.0, -57089.17165865561, -18465.491350351735, 0.654, -0.578, 0.54, 192.0, 0.0, 0.0, 0.0, 0.0, 0.0, 0.0, 0.0, 0.0, 0.0, 1.6635930249570644E9, 0.0, 2022-09-19 18:10:24.957
45.0, -35341.81837342005, -20616.51147800821, -67863.3159832139, -21119.1351555747, -32835.42786066864, 187500.0, -57109.35528389875, -18471.481617865757, 0.654, -0.578, 0.54, 192.0, 0.0, 0.0, 0.0, 0.0, 0.0, 0.0, 0.0, 0.0, 0.0, 1.6635930249610295E9, 0.0, 2022-09-19 18:10:24.961
46.0, -35323.82521913353, -20668.591042589076, -67837.56677360139, -21140.034036640413, -32825.391927408215, 187500.0, -57242.750494808024, -18495.956778044318, 0.654, -0.578, 0.54, 192.0, 0.0, 0.0, 0.0, 0.0, 0.0, 0.0, 0.0, 0.0, 0.0, 1.6635930249640431E9, 0.0, 2022-09-19 18:10:24.964
47.0, -35676.04400826025, -20710.14293553149, -67713.80516455235, -21091.26253023893, -32969.694789611676, 187500.0, -57220.9575439641, -18493.878065809975, 0.654, -0.578, 0.54, 192.0, 0.0, 0.0, 0.0, 0.0, 0.0, 0.0, 0.0, 0.0, 0.0, 1.6635930249689581E9, 0.0, 2022-09-19 18:10:24.968
48.0, -35809.03688776933, -20681.75622007325, -67700.61763532372, -21059.74657055695, -33021.88611291481, 187500.0, -57121.1346532267, -18475.84020803454, 0.65, -0.56, 0.538, 192.0, 20.0, 80.0, 238.0, 128.0, 16.0, 208.0, 0.0, 0.0, 0.0, 1.6635930249730449E9, 0.0, 2022-09-19 18:10:24.973
49.0, -35711.91855811102, -20652.207213903333, -67763.64955468768, -21075.16927423111, -32975.61800189233, 187500.0, -57087.29411212136, -18472.062763221595, 0.65, -0.56, 0.538, 192.0, 0.0, 0.0, 0.0, 0.0, 0.0, 0.0, 0.0, 0.0, 0.0, 1.6635930249760294E9, 0.0, 2022-09-19 18:10:24.976
50.0, -35379.39165584942, -20619.573666998585, -67872.61430890732, -21125.259533555454, -32824.52020937445, 187500.0, -57110.80814728834, -18479.32708016957, 0.65, -0.56, 0.538, 192.0, 0.0, 0.0, 0.0, 0.0, 0.0, 0.0, 0.0, 0.0, 0.0, 1.663593024980019E9, 0.0, 2022-09-19 18:10:24.980
51.0, -35375.614211036474, -20670.356830401044, -67843.82526204888, -21144.057350642368, -32806.080020198824, 187500.0, -57240.33650640685, -18504.830420593076, 0.65, -0.56, 0.538, 192.0, 0.0, 0.0, 0.0, 0.0, 0.0, 0.0, 0.0, 0.0, 0.0, 1.6635930249850378E9, 0.0, 2022-09-19 18:10:24.985
52.0, -35755.45975630996, -20723.06224382666, -67729.65255137117, -21096.425783208106, -32946.828955033896, 187500.0, -57221.87396548677, -18506.149173515936, 0.65, -0.56, 0.538, 192.0, 0.0, 0.0, 0.0, 0.0, 0.0, 0.0, 0.0, 0.0, 0.0, 1.6635930249891107E9, 0.0, 2022-09-19 18:10:24.989
53.0, -35915.386487887685, -20698.922359814926, -67729.07140601533, -21071.525939884894, -33001.568377204945, 187500.0, -57131.103531253764, -18490.86058030851, 0.65, -0.56, 0.538, 192.0, 0.0, 0.0, 0.0, 0.0, 0.0, 0.0, 0.0, 0.0, 0.0, 1.6635930249920723E9, 0.0, 2022-09-19 18:10:24.992
54.0, -35833.69086190353, -20659.98562097378, -67788.7058602221, -21085.294614469363, -32950.89697252476, 187500.0, -57094.49137383597, -18482.45632439331, 0.65, -0.56, 0.538, 192.0, 0.0, 0.0, 0.0, 0.0, 0.0, 0.0, 0.0, 0.0, 0.0, 1.6635930249961023E9, 0.0, 2022-09-19 18:10:24.996
55.0, -35509.50116032376, -20627.79910895814, -67896.19539930766, -21138.178841850622, -32796.53582531641, 187500.0, -57119.92765902611, -18491.50878089771, 0.65, -0.56, 0.538, 192.0, 0.0, 0.0, 0.0, 0.0, 0.0, 0.0, 0.0, 0.0, 0.0, 1.663593025000131E9, 0.0, 2022-09-19 18:10:25.000
56.0, -35498.34763984056, -20666.1770541879, -67864.9700123036, -21156.350810092787, -32777.38038031821, 187500.0, -57249.99246001154, -18513.48054569728, 0.65, -0.56, 0.538, 192.0, 0.0, 0.0, 0.0, 0.0, 0.0, 0.0, 0.0, 0.0, 0.0, 1.663593025004125E9, 0.0, 2022-09-19 18:10:25.004
57.0, -35865.318580307794, -20715.127374545023, -67745.76815912344, -21107.825172880315, -32918.643405275754, 187500.0, -57233.742741792536, -18508.719624128298, 0.65, -0.56, 0.538, 192.0, 0.0, 0.0, 0.0, 0.0, 0.0, 0.0, 0.0, 0.0, 0.0, 1.663593025008129E9, 0.0, 2022-09-19 18:10:25.008
58.0, -36005.68753548712, -20694.742583601783, -67736.24631598548, -21080.69015511157, -32965.60442037635, 187500.0, -57136.87028132323, -18487.396059917934, 0.644, -0.5720000000000001, 0.538, 192.0, 20.0, 32.0, 238.0, 32.0, 16.0, 208.0, 0.0, 0.0, 0.0, 1.6635930250131247E9, 0.0, 2022-09-19 18:10:25.013
59.0, -35897.50509232344, -20650.41907434691, -67785.53191250944, -21092.424820950608, -32910.261501105015, 187500.0, -57098.29117039337, -18478.410658646902, 0.644, -0.5720000000000001, 0.538, 192.0, 0.0, 0.0, 0.0, 0.0, 0.0, 0.0, 0.0, 0.0, 0.0, 1.663593025017218E9, 0.0, 2022-09-19 18:10:25.017
60.0, -35540.257160694266, -20604.195666813335, -67886.18181779169, -21137.50828951696, -32752.324074783814, 187500.0, -57118.40774040315, -18482.925711026874, 0.644, -0.5720000000000001, 0.538, 192.0, 0.0, 0.0, 0.0, 0.0, 0.0, 0.0, 0.0, 0.0, 0.0, 1.663593025020122E9, 0.0, 2022-09-19 18:10:25.020
61.0, -35484.19898560036, -20639.980809686283, -67863.22657623608, -21156.79784498189, -32732.207504774036, 187500.0, -57256.7650385815, -18509.792507862152, 0.644, -0.5720000000000001, 0.538, 192.0, 0.0, 0.0, 0.0, 0.0, 0.0, 0.0, 0.0, 0.0, 0.0, 1.6635930250241156E9, 0.0, 2022-09-19 18:10:25.024
62.0, -35803.29248944431, -20683.365545674034, -67738.12386251973, -21106.998158335467, -32871.97296285307, 187500.0, -57236.64846857172, -18514.642836408955, 0.644, -0.5720000000000001, 0.538, 192.0, 0.0, 0.0, 0.0, 0.0, 0.0, 0.0, 0.0, 0.0, 0.0, 1.6635930250280895E9, 0.0, 2022-09-19 18:10:25.028
63.0, -35915.14061869867, -20675.028344992203, -67733.29588571738, -21082.701812112547, -32928.09819318035, 187500.0, -57148.13556052871, -18500.47183042429, 0.644, -0.5720000000000001, 0.538, 192.0, 0.0, 0.0, 0.0, 0.0, 0.0, 0.0, 0.0, 0.0, 0.0, 1.663593025032173E9, 0.0, 2022-09-19 18:10:25.032
64.0, -35786.61808808066, -20642.93123995438, -67785.3530985538, -21091.88837908368, -32879.52785247897, 187500.0, -57110.629333332705, -18484.89266453894, 0.644, -0.5720000000000001, 0.538, 192.0, 0.0, 0.0, 0.0, 0.0, 0.0, 0.0, 0.0, 0.0, 0.0, 1.663593025036142E9, 0.0, 2022-09-19 18:10:25.036
65.0, -35408.78419980815, -20604.530942980164, -67882.38202123428, -21134.446100526584, -32721.99275755796, 187500.0, -57126.074388751316, -18486.256120950715, 0.644, -0.5720000000000001, 0.538, 192.0, 0.0, 0.0, 0.0, 0.0, 0.0, 0.0, 0.0, 0.0, 0.0, 1.6635930250400863E9, 0.0, 2022-09-19 18:10:25.040
66.0, -35339.404385018875, -20648.45212083484, -67852.60949761981, -21152.66277225766, -32699.596309613742, 187500.0, -57257.32383219288, -18510.507763684724, 0.644, -0.5720000000000001, 0.538, 192.0, 0.0, 0.0, 0.0, 0.0, 0.0, 0.0, 0.0, 0.0, 0.0, 1.6635930250452151E9, 0.0, 2022-09-19 18:10:25.045
67.0, -35668.28795293426, -20707.95246457487, -67738.32502821983, -21114.50834447245, -32849.06242478638, 187500.0, -57257.077963003874, -18518.263819010714, 0.644, -0.5720000000000001, 0.538, 192.0, 0.0, 0.0, 0.0, 0.0, 0.0, 0.0, 0.0, 0.0, 0.0, 1.6635930250481148E9, 0.0, 2022-09-19 18:10:25.048
68.0, -35782.32655314524, -20693.222664978824, -67723.77404257942, -21087.149809259154, -32904.65121324673, 187500.0, -57160.808999634864, -18503.4669641813, 0.646, -0.5760000000000001, 0.536, 192.0, 20.0, 48.0, 238.0, 0.0, 16.0, 192.0, 0.0, 0.0, 0.0, 1.663593025052165E9, 0.0, 2022-09-19 18:10:25.052
69.0, -35655.927438250474, -20660.700876796353, -67778.62522347274, -21099.555027431852, -32854.35978822229, 187500.0, -57126.007333517955, -18497.163772244905, 0.646, -0.5760000000000001, 0.536, 192.0, 0.0, 0.0, 0.0, 0.0, 0.0, 0.0, 0.0, 0.0, 0.0, 1.6635930250561757E9, 0.0, 2022-09-19 18:10:25.056
70.0, -35279.54641336756, -20618.41137628691, -67873.66484089672, -21139.587001751304, -32696.176492712082, 187500.0, -57138.1890342461, -18495.085060010562, 0.646, -0.5760000000000001, 0.536, 192.0, 0.0, 0.0, 0.0, 0.0, 0.0, 0.0, 0.0, 0.0, 0.0, 1.6635930250601857E9, 0.0, 2022-09-19 18:10:25.060
71.0, -35210.747743934124, -20666.534682099187, -67852.58714587535, -21159.90473746118, -32677.445730858533, 187500.0, -57272.590073655854, -18516.408624220923, 0.646, -0.5760000000000001, 0.536, 192.0, 0.0, 0.0, 0.0, 0.0, 0.0, 0.0, 0.0, 0.0, 0.0, 1.6635930250642364E9, 0.0, 2022-09-19 18:10:25.064
72.0, -35539.65366359397, -20725.051549083182, -67742.48245268852, -21118.911638130146, -32829.88462804373, 187500.0, -57273.70766087862, -18522.66711266841, 0.646, -0.5760000000000001, 0.536, 192.0, 0.0, 0.0, 0.0, 0.0, 0.0, 0.0, 0.0, 0.0, 0.0, 1.6635930250682352E9, 0.0, 2022-09-19 18:10:25.068
73.0, -35647.03144395727, -20699.10117377057, -67719.92954253311, -21081.40541093414, -32882.32182053588, 187500.0, -57168.83327589432, -18498.191952489848, 0.646, -0.5760000000000001, 0.536, 192.0, 0.0, 0.0, 0.0, 0.0, 0.0, 0.0, 0.0, 0.0, 0.0, 1.6635930250732675E9, 0.0, 2022-09-19 18:10:25.073
74.0, -35524.94621574238, -20666.154702443448, -67771.18209256913, -21091.754268616947, -32839.04884327041, 187500.0, -57125.850871306764, -18487.84309480704, 0.646, -0.5760000000000001, 0.536, 192.0, 0.0, 0.0, 0.0, 0.0, 0.0, 0.0, 0.0, 0.0, 0.0, 1.6635930250761895E9, 0.0, 2022-09-19 18:10:25.076
75.0, -35160.47867065414, -20643.199460887845, -67883.83488462388, -21148.57240302234, -32691.840254287752, 187500.0, -57147.84498785079, -18496.761440844708, 0.646, -0.5760000000000001, 0.536, 192.0, 0.0, 0.0, 0.0, 0.0, 0.0, 0.0, 0.0, 0.0, 0.0, 1.66359302508025E9, 0.0, 2022-09-19 18:10:25.080
76.0, -35083.96864938363, -20676.99529850427, -67856.40929417721, -21166.029115441932, -32664.146442907626, 187500.0, -57272.947701567144, -18518.37557773299, 0.646, -0.5760000000000001, 0.536, 192.0, 0.0, 0.0, 0.0, 0.0, 0.0, 0.0, 0.0, 0.0, 0.0, 1.6635930250842164E9, 0.0, 2022-09-19 18:10:25.084
77.0, -35410.840560298035, -20735.266296299254, -67741.61073465475, -21124.90190564417, -32808.51636034445, 187500.0, -57272.85829458932, -18525.41637723641, 0.646, -0.5760000000000001, 0.536, 192.0, 0.0, 0.0, 0.0, 0.0, 0.0, 0.0, 0.0, 0.0, 0.0, 1.6635930250882576E9, 0.0, 2022-09-19 18:10:25.088
78.0, -35529.975358244825, -20720.82706938113, -67731.41833918313, -21098.683309398093, -32867.23439302855, 187500.0, -57179.42800276614, -18510.23954275126, 0.654, -0.58, 0.536, 192.0, 20.0, 112.0, 237.0, 224.0, 16.0, 192.0, 0.0, 0.0, 0.0, 1.663593025092215E9, 0.0, 2022-09-19 18:10:25.092
79.0, -35408.314813174584, -20691.345118444577, -67789.93520616714, -21110.97676884851, -32822.88853202922, 187500.0, -57138.859586579754, -18504.025757792682, 0.654, -0.58, 0.536, 192.0, 0.0, 0.0, 0.0, 0.0, 0.0, 0.0, 0.0, 0.0, 0.0, 1.6635930250962772E9, 0.0, 2022-09-19 18:10:25.096
80.0, -35041.25446572954, -20659.069199451114, -67899.95049237616, -21168.10782767628, -32674.5623558238, 187500.0, -57156.69627865509, -18519.85079286704, 0.654, -0.58, 0.536, 192.0, 0.0, 0.0, 0.0, 0.0, 0.0, 0.0, 0.0, 0.0, 0.0, 1.6635930251013217E9, 0.0, 2022-09-19 18:10:25.101
81.0, -34958.19538333361, -20679.69985958336, -67873.37426821879, -21182.882330761237, -32642.68876823053, 187500.0, -57283.296559249946, -18540.347342532557, 0.654, -0.58, 0.536, 192.0, 0.0, 0.0, 0.0, 0.0, 0.0, 0.0, 0.0, 0.0, 0.0, 1.6635930251043177E9, 0.0, 2022-09-19 18:10:25.104
82.0, -35281.1780907128, -20716.2896652567, -67748.11509229125, -21132.479147014517, -32784.59999377728, 187500.0, -57269.37142245429, -18541.174357077405, 0.654, -0.58, 0.536, 192.0, 0.0, 0.0, 0.0, 0.0, 0.0, 0.0, 0.0, 0.0, 0.0, 1.6635930251073072E9, 0.0, 2022-09-19 18:10:25.107
83.0, -35400.73757180424, -20698.09534527008, -67735.75457760747, -21103.73480364499, -32842.379253194245, 187500.0, -57171.247264295496, -18528.23269703778, 0.654, -0.58, 0.536, 192.0, 0.0, 0.0, 0.0, 0.0, 0.0, 0.0, 0.0, 0.0, 0.0, 1.6635930251122837E9, 0.0, 2022-09-19 18:10:25.112
84.0, -35285.02259075911, -20655.85054824955, -67792.5056567795, -21115.26830378393, -32798.36866836175, 187500.0, -57134.34453419978, -18520.633103922977, 0.654, -0.58, 0.536, 192.0, 0.0, 0.0, 0.0, 0.0, 0.0, 0.0, 0.0, 0.0, 0.0, 1.663593025116471E9, 0.0, 2022-09-19 18:10:25.116
85.0, -34915.48119967952, -20621.071233877094, -67897.13417257478, -21159.65886827217, -32646.17564036556, 187500.0, -57147.75558087297, -18523.494127213256, 0.654, -0.58, 0.536, 192.0, 0.0, 0.0, 0.0, 0.0, 0.0, 0.0, 0.0, 0.0, 0.0, 1.663593025120293E9, 0.0, 2022-09-19 18:10:25.120
86.0, -34835.32784406279, -20658.197481417355, -67880.88445435578, -21183.463476117075, -32619.822933652755, 187500.0, -57285.28586450647, -18549.690371714874, 0.654, -0.58, 0.536, 192.0, 0.0, 0.0, 0.0, 0.0, 0.0, 0.0, 0.0, 0.0, 0.0, 1.6635930251242926E9, 0.0, 2022-09-19 18:10:25.124
87.0, -35158.51171714207, -20705.24790349578, -67757.52517670694, -21135.384873793708, -32761.48829001049, 187500.0, -57281.553123182435, -18551.2773455712, 0.654, -0.58, 0.536, 192.0, 0.0, 0.0, 0.0, 0.0, 0.0, 0.0, 0.0, 0.0, 0.0, 1.6635930251283555E9, 0.0, 2022-09-19 18:10:25.128
88.0, -35279.81463430102, -20682.247958451266, -67734.14525200668, -21098.83977160928, -32814.84190402531, 187500.0, -57175.20352306408, -18526.556316203634, 0.644, -0.5740000000000001, 0.536, 192.0, 20.0, 32.0, 238.0, 16.0, 16.0, 192.0, 0.0, 0.0, 0.0, 1.6635930251323204E9, 0.0, 2022-09-19 18:10:25.132
89.0, -35167.92180155776, -20654.732961026784, -67787.07418287685, -21109.970940348023, -32773.021790149425, 187500.0, -57135.998563289475, -18518.17441203289, 0.644, -0.5740000000000001, 0.536, 192.0, 0.0, 0.0, 0.0, 0.0, 0.0, 0.0, 0.0, 0.0, 0.0, 1.6635930251353223E9, 0.0, 2022-09-19 18:10:25.135
90.0, -34800.77204713489, -20631.822422960096, -67896.66478594122, -21163.23514738502, -32623.13099183214, 187500.0, -57151.98006057502, -18529.752615660742, 0.644, -0.5740000000000001, 0.536, 192.0, 0.0, 0.0, 0.0, 0.0, 0.0, 0.0, 0.0, 0.0, 0.0, 1.6635930251404226E9, 0.0, 2022-09-19 18:10:25.140
91.0, -34711.76740071385, -20673.597833347063, -67871.74259087356, -21177.406153369684, -32591.458569938968, 187500.0, -57283.229504016585, -18543.007200122738, 0.644, -0.5740000000000001, 0.536, 192.0, 0.0, 0.0, 0.0, 0.0, 0.0, 0.0, 0.0, 0.0, 0.0, 1.6635930251443155E9, 0.0, 2022-09-19 18:10:25.144
92.0, -35037.097041260844, -20719.91064785846, -67741.83425209932, -21123.113766087743, -32737.393109487668, 187500.0, -57276.322814979896, -18538.447444253856, 0.644, -0.5740000000000001, 0.536, 192.0, 0.0, 0.0, 0.0, 0.0, 0.0, 0.0, 0.0, 0.0, 0.0, 1.6635930251483765E9, 0.0, 2022-09-19 18:10:25.148
93.0, -35163.76437708907, -20703.77268836173, -67728.7361298485, -21092.46952443952, -32799.106275928774, 187500.0, -57179.94209288861, -18523.538830702168, 0.644, -0.5740000000000001, 0.536, 192.0, 0.0, 0.0, 0.0, 0.0, 0.0, 0.0, 0.0, 0.0, 0.0, 1.6635930251524184E9, 0.0, 2022-09-19 18:10:25.152
94.0, -35049.211686755625, -20669.28394666719, -67778.17818858364, -21104.248893767464, -32757.934362642096, 187500.0, -57136.40089468967, -18513.48054569728, 0.644, -0.5740000000000001, 0.536, 192.0, 0.0, 0.0, 0.0, 0.0, 0.0, 0.0, 0.0, 0.0, 0.0, 1.6635930251564147E9, 0.0, 2022-09-19 18:10:25.156
95.0, -34683.29127827779, -20636.76215848472, -67887.14294280326, -21156.79784498189, -32608.758820147377, 187500.0, -57154.90813909866, -18518.219115521802, 0.644, -0.5740000000000001, 0.536, 192.0, 0.0, 0.0, 0.0, 0.0, 0.0, 0.0, 0.0, 0.0, 0.0, 1.6635930251604035E9, 0.0, 2022-09-19 18:10:25.160
96.0, -34590.866814955094, -20674.33544091409, -67862.06428552441, -21175.752124279992, -32573.554822630267, 187500.0, -57281.53077143798, -18536.927525630897, 0.644, -0.5740000000000001, 0.536, 192.0, 0.0, 0.0, 0.0, 0.0, 0.0, 0.0, 0.0, 0.0, 0.0, 1.6635930251633475E9, 0.0, 2022-09-19 18:10:25.163
97.0, -34911.94962405558, -20718.256618768766, -67732.42416768362, -21118.17403056312, -32715.04136503236, 187500.0, -57277.507457436026, -18530.15494706094, 0.644, -0.5740000000000001, 0.536, 192.0, 0.0, 0.0, 0.0, 0.0, 0.0, 0.0, 0.0, 0.0, 0.0, 1.6635930251684315E9, 0.0, 2022-09-19 18:10:25.168
98.0, -35038.54990465044, -20693.42383067892, -67716.86735354274, -21082.522998156906, -32778.36385707425, 187500.0, -57175.628206208734, -18508.630217150476, 0.644, -0.5740000000000001, 0.536, 192.0, 0.0, 0.0, 0.0, 0.0, 0.0, 0.0, 0.0, 0.0, 0.0, 1.6635930251724267E9, 0.0, 2022-09-19 18:10:25.172
99.0, -34926.07592655133, -20664.008934975736, -67775.00424087099, -21094.257663995944, -32738.264827521423, 187500.0, -57135.8868045672, -18499.13072575697, 0.65, -0.5720000000000001, 0.538, 192.0, 20.0, 80.0, 238.0, 32.0, 16.0, 208.0, 0.0, 0.0, 0.0, 1.6635930251766777E9, 0.0, 2022-09-19 18:10:25.176
100.0, -34555.95339011591, -20634.70579799483, -67881.6220619228, -21148.23712685551, -32584.93186055802, 187500.0, -57145.90038608317, -18504.919827570895, 0.65, -0.5720000000000001, 0.538, 192.0, 0.0, 0.0, 0.0, 0.0, 0.0, 0.0, 0.0, 0.0, 0.0, 1.6635930251806197E9, 0.0, 2022-09-19 18:10:25.180
101.0, -34461.5843250256, -20677.643499093476, -67865.21588149261, -21175.126275435243, -32552.343017142182, 187500.0, -57278.535637680965, -18523.09179581306, 0.65, -0.5720000000000001, 0.538, 192.0, 0.0, 0.0, 0.0, 0.0, 0.0, 0.0, 0.0, 0.0, 0.0, 1.6635930251844556E9, 0.0, 2022-09-19 18:10:25.184
102.0, -34784.83525333825, -20726.794985150693, -67743.24241199999, -21129.394606279686, -32695.23771944496, 187500.0, -57279.42970745918, -18526.645723181453, 0.65, -0.5720000000000001, 0.538, 192.0, 0.0, 0.0, 0.0, 0.0, 0.0, 0.0, 0.0, 0.0, 0.0, 1.663593025188445E9, 0.0, 2022-09-19 18:10:25.188
103.0, -34910.18383624361, -20707.930112830414, -67722.34353093429, -21094.481181440497, -32756.213278319035, 187500.0, -57175.67290969764, -18506.28328398267, 0.65, -0.5720000000000001, 0.538, 192.0, 0.0, 0.0, 0.0, 0.0, 0.0, 0.0, 0.0, 0.0, 0.0, 1.6635930251914496E9, 0.0, 2022-09-19 18:10:25.191
104.0, -34796.56991917729, -20665.640612320974, -67774.62426121524, -21105.388832734687, -32716.4718766775, 187500.0, -57134.34453419978, -18494.973301288283, 0.65, -0.5720000000000001, 0.538, 192.0, 0.0, 0.0, 0.0, 0.0, 0.0, 0.0, 0.0, 0.0, 0.0, 1.6635930251955304E9, 0.0, 2022-09-19 18:10:25.195
105.0, -34429.33075777659, -20618.210210586814, -67884.1254573018, -21160.396475839196, -32569.55386037277, 187500.0, -57149.87899659622, -18505.992711304752, 0.65, -0.5720000000000001, 0.538, 192.0, 0.0, 0.0, 0.0, 0.0, 0.0, 0.0, 0.0, 0.0, 0.0, 1.6635930252004232E9, 0.0, 2022-09-19 18:10:25.200
106.0, -34326.22216060426, -20641.970114942804, -67860.99140179055, -21177.42850511414, -32536.540333812278, 187500.0, -57273.037108544966, -18527.070406326104, 0.65, -0.5720000000000001, 0.538, 192.0, 0.0, 0.0, 0.0, 0.0, 0.0, 0.0, 0.0, 0.0, 0.0, 1.6635930252044172E9, 0.0, 2022-09-19 18:10:25.204
107.0, -34651.61885638462, -20699.324691215123, -67736.00044679648, -21130.243972568987, -32686.27466991838, 187500.0, -57272.9700533116, -18531.04901683915, 0.65, -0.5720000000000001, 0.538, 192.0, 0.0, 0.0, 0.0, 0.0, 0.0, 0.0, 0.0, 0.0, 0.0, 1.6635930252085097E9, 0.0, 2022-09-19 18:10:25.208
108.0, -34779.80611083581, -20691.121601000024, -67716.55442912036, -21097.543370430874, -32752.167612572626, 187500.0, -57170.107325328274, -18513.122917785993, 0.65, -0.5720000000000001, 0.538, 192.0, 0.0, 0.0, 0.0, 0.0, 0.0, 0.0, 0.0, 0.0, 0.0, 1.6635930252114668E9, 0.0, 2022-09-19 18:10:25.211
109.0, -34668.87440310412, -20656.007010460737, -67761.21321454206, -21100.247931509966, -32716.51658016641, 187500.0, -57120.82172880432, -18498.817801334597, 0.654, -0.5700000000000001, 0.538, 192.0, 20.0, 112.0, 238.0, 48.0, 16.0, 208.0, 0.0, 0.0, 0.0, 1.6635930252154913E9, 0.0, 2022-09-19 18:10:25.215
110.0, -34304.27274754915, -20617.83023093107, -67869.86504433931, -21150.584060023317, -32572.21371796295, 187500.0, -57135.238603977996, -18509.300769484136, 0.654, -0.5700000000000001, 0.538, 192.0, 0.0, 0.0, 0.0, 0.0, 0.0, 0.0, 0.0, 0.0, 0.0, 1.6635930252194684E9, 0.0, 2022-09-19 18:10:25.219
111.0, -34201.342964332456, -20646.507519067232, -67850.262564452, -21167.079647431332, -32537.63556929059, 187500.0, -57263.04587877344, -18527.919772615405, 0.654, -0.5700000000000001, 0.538, 192.0, 0.0, 0.0, 0.0, 0.0, 0.0, 0.0, 0.0, 0.0, 0.0, 1.6635930252235432E9, 0.0, 2022-09-19 18:10:25.223
112.0, -34523.38689844452, -20695.94957780237, -67720.86831580024, -21112.094356071277, -32682.586632083254, 187500.0, -57258.59788162683, -18524.81288013612, 0.654, -0.5700000000000001, 0.538, 192.0, 0.0, 0.0, 0.0, 0.0, 0.0, 0.0, 0.0, 0.0, 0.0, 1.663593025228476E9, 0.0, 2022-09-19 18:10:25.228
113.0, -34657.787937854286, -20686.584196875596, -67700.84115276828, -21079.37140218871, -32752.368778272725, 187500.0, -57156.58451993281, -18505.165696759905, 0.654, -0.5700000000000001, 0.538, 192.0, 0.0, 0.0, 0.0, 0.0, 0.0, 0.0, 0.0, 0.0, 0.0, 1.6635930252325191E9, 0.0, 2022-09-19 18:10:25.232
114.0, -34552.64533193652, -20656.498748838752, -67751.95959233756, -21091.59780640576, -32718.95292031204, 187500.0, -57117.80424330285, -18498.638987378956, 0.654, -0.5700000000000001, 0.538, 192.0, 0.0, 0.0, 0.0, 0.0, 0.0, 0.0, 0.0, 0.0, 0.0, 1.6635930252365627E9, 0.0, 2022-09-19 18:10:25.236
115.0, -34193.67631598429, -20617.874934419982, -67858.018619778, -21143.833833197812, -32579.656848866565, 187500.0, -57130.58944113129, -18512.787641619165, 0.654, -0.5700000000000001, 0.538, 192.0, 0.0, 0.0, 0.0, 0.0, 0.0, 0.0, 0.0, 0.0, 0.0, 1.6635930252395182E9, 0.0, 2022-09-19 18:10:25.239
116.0, -34086.477349576635, -20646.127539411493, -67839.13139571327, -21160.150606650186, -32544.743424027376, 187500.0, -57256.5638728814, -18529.216173793815, 0.654, -0.5700000000000001, 0.538, 192.0, 0.0, 0.0, 0.0, 0.0, 0.0, 0.0, 0.0, 0.0, 0.0, 1.663593025243512E9, 0.0, 2022-09-19 18:10:25.243
117.0, -34407.783676121675, -20696.39661269148, -67714.27455118591, -21112.250818282464, -32691.527329865377, 187500.0, -57260.07309676088, -18526.109281314526, 0.654, -0.5700000000000001, 0.538, 192.0, 0.0, 0.0, 0.0, 0.0, 0.0, 0.0, 0.0, 0.0, 0.0, 1.663593025247511E9, 0.0, 2022-09-19 18:10:25.247
118.0, -34548.13027955655, -20676.838836293082, -67693.66624279812, -21079.617271377716, -32762.449415022067, 187500.0, -57158.015031577954, -18507.669092138898, 0.654, -0.5700000000000001, 0.538, 192.0, 0.0, 0.0, 0.0, 0.0, 0.0, 0.0, 0.0, 0.0, 0.0, 1.6635930252515962E9, 0.0, 2022-09-19 18:10:25.251
119.0, -34448.5309062637, -20639.310257352623, -67738.90617357567, -21086.658070881138, -32733.615664674722, 187500.0, -57108.528269353905, -18496.13559199996, 0.652, -0.5680000000000001, 0.538, 192.0, 20.0, 96.0, 238.0, 64.0, 16.0, 208.0, 0.0, 0.0, 0.0, 1.663593025256517E9, 0.0, 2022-09-19 18:10:25.256
120.0, -34093.048762446495, -20605.93910288085, -67847.02156150599, -21134.490804015495, -32596.35360197468, 187500.0, -57119.234754948, -18502.014100791705, 0.652, -0.5680000000000001, 0.538, 192.0, 0.0, 0.0, 0.0, 0.0, 0.0, 0.0, 0.0, 0.0, 0.0, 1.6635930252605596E9, 0.0, 2022-09-19 18:10:25.260
121.0, -33981.96059250362, -20641.254859120236, -67828.69313105263, -21152.930993191123, -32559.67438932352, 187500.0, -57248.00315475502, -18519.739034144764, 0.652, -0.5680000000000001, 0.538, 192.0, 0.0, 0.0, 0.0, 0.0, 0.0, 0.0, 0.0, 0.0, 0.0, 1.6635930252645884E9, 0.0, 2022-09-19 18:10:25.264
122.0, -34308.94426214031, -20700.57638890462, -67702.18225743559, -21107.378137991207, -32706.324184694793, 187500.0, -57253.34522167984, -18520.007255078228, 0.652, -0.5680000000000001, 0.538, 192.0, 0.0, 0.0, 0.0, 0.0, 0.0, 0.0, 0.0, 0.0, 0.0, 1.6635930252675247E9, 0.0, 2022-09-19 18:10:25.267
123.0, -34454.2306010998, -20694.183789990402, -67687.8771409842, -21078.45498066604, -32778.87794719672, 187500.0, -57164.00529909197, -18505.27745548218, 0.652, -0.5680000000000001, 0.538, 192.0, 0.0, 0.0, 0.0, 0.0, 0.0, 0.0, 0.0, 0.0, 0.0, 1.6635930252716093E9, 0.0, 2022-09-19 18:10:25.271
124.0, -34352.7089777838, -20659.4268273624, -67737.87799333072, -21081.56187314533, -32743.495135723966, 187500.0, -57128.75659808596, -18487.507818640213, 0.652, -0.5680000000000001, 0.538, 192.0, 0.0, 0.0, 0.0, 0.0, 0.0, 0.0, 0.0, 0.0, 0.0, 1.6635930252756174E9, 0.0, 2022-09-19 18:10:25.275
125.0, -33993.024706009, -20623.485222278265, -67839.7125410691, -21125.61716146674, -32598.07468629774, 187500.0, -57128.39897017467, -18488.46894365179, 0.652, -0.5680000000000001, 0.538, 192.0, 0.0, 0.0, 0.0, 0.0, 0.0, 0.0, 0.0, 0.0, 0.0, 1.6635930252796273E9, 0.0, 2022-09-19 18:10:25.279
126.0, -33879.70136162059, -20658.04101920617, -67832.00118923202, -21152.66277225766, -32558.82502303422, 187500.0, -57253.52403563548, -18511.357129974025, 0.652, -0.5680000000000001, 0.538, 192.0, 0.0, 0.0, 0.0, 0.0, 0.0, 0.0, 0.0, 0.0, 0.0, 1.663593025284582E9, 0.0, 2022-09-19 18:10:25.284
127.0, -34199.39836256485, -20705.024386051224, -67702.51753360243, -21105.210018779042, -32698.79164681335, 187500.0, -57254.641622858246, -18510.396004962447, 0.652, -0.5680000000000001, 0.538, 192.0, 0.0, 0.0, 0.0, 0.0, 0.0, 0.0, 0.0, 0.0, 0.0, 1.6635930252885957E9, 0.0, 2022-09-19 18:10:25.288
128.0, -34337.28627410964, -20680.213949705834, -67676.54480654535, -21066.943832271558, -32761.644752221677, 187500.0, -57146.03449654991, -18486.18906571735, 0.652, -0.5680000000000001, 0.538, 192.0, 0.0, 0.0, 0.0, 0.0, 0.0, 0.0, 0.0, 0.0, 0.0, 1.6635930252926412E9, 0.0, 2022-09-19 18:10:25.292
129.0, -34240.34675840697, -20654.28592613768, -67739.04028404239, -21084.534655157884, -32727.491286693967, 187500.0, -57115.25614443495, -18482.925711026874, 0.652, -0.5760000000000001, 0.538, 192.0, 20.0, 96.0, 238.0, 0.0, 16.0, 208.0, 0.0, 0.0, 0.0, 1.6635930252956283E9, 0.0, 2022-09-19 18:10:25.295
130.0, -33885.95985006808, -20629.65430374793, -67851.00017201903, -21144.213812853555, -32585.289488469305, 187500.0, -57131.84113882079, -18499.220132734794, 0.652, -0.5760000000000001, 0.538, 192.0, 0.0, 0.0, 0.0, 0.0, 0.0, 0.0, 0.0, 0.0, 0.0, 1.6635930252996607E9, 0.0, 2022-09-19 18:10:25.299
131.0, -33772.30122951284, -20655.157644171435, -67839.57843060237, -21175.72977253554, -32545.503383338855, 187500.0, -57260.631890372264, -18525.103452814037, 0.652, -0.5760000000000001, 0.538, 192.0, 0.0, 0.0, 0.0, 0.0, 0.0, 0.0, 0.0, 0.0, 0.0, 1.663593025303638E9, 0.0, 2022-09-19 18:10:25.303
132.0, -34092.6464310463, -20698.1847522479, -67705.89264701518, -21121.70560618706, -32685.872338518184, 187500.0, -57254.82043681389, -18517.23563876577, 0.652, -0.5760000000000001, 0.538, 192.0, 0.0, 0.0, 0.0, 0.0, 0.0, 0.0, 0.0, 0.0, 0.0, 1.663593025307576E9, 0.0, 2022-09-19 18:10:25.307
133.0, -34236.74812754967, -20685.91364454194, -67681.59630079225, -21083.55117840185, -32754.939228885083, 187500.0, -57150.57190067434, -18493.18516173186, 0.652, -0.5760000000000001, 0.538, 192.0, 0.0, 0.0, 0.0, 0.0, 0.0, 0.0, 0.0, 0.0, 0.0, 1.6635930253126416E9, 0.0, 2022-09-19 18:10:25.312
134.0, -34146.737652628144, -20665.350039643054, -67738.50384217547, -21093.296538984363, -32728.63122566119, 187500.0, -57116.284324679895, -18488.245426207235, 0.652, -0.5760000000000001, 0.538, 192.0, 0.0, 0.0, 0.0, 0.0, 0.0, 0.0, 0.0, 0.0, 0.0, 1.6635930253166163E9, 0.0, 2022-09-19 18:10:25.316
135.0, -33788.70740994304, -20621.69708272184, -67840.51720386949, -21137.485937772508, -32587.16703500355, 187500.0, -57124.28624919489, -18493.833362321064, 0.652, -0.5760000000000001, 0.538, 192.0, 0.0, 0.0, 0.0, 0.0, 0.0, 0.0, 0.0, 0.0, 0.0, 1.6635930253206544E9, 0.0, 2022-09-19 18:10:25.320
136.0, -33663.671751460046, -20634.12465263899, -67816.91376172469, -21150.24878385649, -32542.57530481521, 187500.0, -57239.688305817646, -18503.288150225657, 0.652, -0.5760000000000001, 0.538, 192.0, 0.0, 0.0, 0.0, 0.0, 0.0, 0.0, 0.0, 0.0, 0.0, 1.6635930253236773E9, 0.0, 2022-09-19 18:10:25.323
137.0, -33989.78370306298, -20688.81937132113, -67696.41550736612, -21104.80768737885, -32688.33103040827, 187500.0, -57255.64745135873, -18504.316330470603, 0.652, -0.5760000000000001, 0.538, 192.0, 0.0, 0.0, 0.0, 0.0, 0.0, 0.0, 0.0, 0.0, 0.0, 1.6635930253276815E9, 0.0, 2022-09-19 18:10:25.327
138.0, -34136.120574011875, -20674.80482754765, -67678.77998099089, -21070.631870106685, -32761.15301384366, 187500.0, -57157.523293199934, -18488.960682029807, 0.652, -0.5760000000000001, 0.538, 192.0, 0.0, 0.0, 0.0, 0.0, 0.0, 0.0, 0.0, 0.0, 0.0, 1.6635930253317575E9, 0.0, 2022-09-19 18:10:25.331
139.0, -34040.18688680969, -20644.898193466448, -67725.5845338803, -21073.78346607488, -32729.48059195049, 187500.0, -57115.70317932405, -18481.00346100372, 0.65, -0.5760000000000001, 0.542, 192.0, 20.0, 80.0, 238.0, 0.0, 16.0, 240.0, 0.0, 0.0, 0.0, 1.6635930253357048E9, 0.0, 2022-09-19 18:10:25.335
140.0, -33682.8495482027, -20607.235504059256, -67829.18486943065, -21118.911638130146, -32585.4906541694, 187500.0, -57118.92183052562, -18486.636100606454, 0.65, -0.5760000000000001, 0.542, 192.0, 0.0, 0.0, 0.0, 0.0, 0.0, 0.0, 0.0, 0.0, 0.0, 1.6635930253397243E9, 0.0, 2022-09-19 18:10:25.339
141.0, -33569.280334625284, -20646.775740000696, -67830.4142153757, -21153.109807146768, -32546.77743277281, 187500.0, -57254.351050180325, -18515.983941076272, 0.65, -0.5760000000000001, 0.542, 192.0, 0.0, 0.0, 0.0, 0.0, 0.0, 0.0, 0.0, 0.0, 0.0, 1.6635930253447332E9, 0.0, 2022-09-19 18:10:25.344
142.0, -33899.750876397, -20705.069089540135, -67709.87125752823, -21113.99425434998, -32692.957841510517, 187500.0, -57264.72225960759, -18526.80218539264, 0.65, -0.5760000000000001, 0.542, 192.0, 0.0, 0.0, 0.0, 0.0, 0.0, 0.0, 0.0, 0.0, 0.0, 1.6635930253487372E9, 0.0, 2022-09-19 18:10:25.348
143.0, -34052.54740149348, -20688.2829294542, -67685.61961479421, -21083.26060572393, -32766.00334239046, 187500.0, -57159.87022636774, -18513.257028252727, 0.65, -0.5760000000000001, 0.542, 192.0, 0.0, 0.0, 0.0, 0.0, 0.0, 0.0, 0.0, 0.0, 0.0, 1.6635930253516915E9, 0.0, 2022-09-19 18:10:25.351
144.0, -33959.027702692474, -20654.80001626015, -67731.41833918313, -21086.94864355906, -32734.28621700838, 187500.0, -57116.19491770207, -18498.571932145587, 0.65, -0.5760000000000001, 0.542, 192.0, 0.0, 0.0, 0.0, 0.0, 0.0, 0.0, 0.0, 0.0, 0.0, 1.6635930253557253E9, 0.0, 2022-09-19 18:10:25.355
145.0, -33605.17723622051, -20628.35790256952, -67837.11973871228, -21132.881478414714, -32594.140779273606, 187500.0, -57124.330952683806, -18502.081156025073, 0.65, -0.5760000000000001, 0.542, 192.0, 0.0, 0.0, 0.0, 0.0, 0.0, 0.0, 0.0, 0.0, 0.0, 1.6635930253597355E9, 0.0, 2022-09-19 18:10:25.359
146.0, -33477.660534102986, -20663.360734386533, -67825.04979670641, -21153.84741471379, -32546.419804861525, 187500.0, -57242.974012252576, -18516.56508643211, 0.65, -0.5760000000000001, 0.542, 192.0, 0.0, 0.0, 0.0, 0.0, 0.0, 0.0, 0.0, 0.0, 0.0, 1.6635930253637185E9, 0.0, 2022-09-19 18:10:25.363
147.0, -33803.481913027994, -20724.984493849814, -67708.50780111644, -21115.670635184128, -32690.3650391537, 187500.0, -57260.1178002498, -18525.95281910334, 0.65, -0.5760000000000001, 0.542, 192.0, 0.0, 0.0, 0.0, 0.0, 0.0, 0.0, 0.0, 0.0, 0.0, 1.6635930253687112E9, 0.0, 2022-09-19 18:10:25.368
148.0, -33958.200688147626, -20711.32757798762, -67693.06274569783, -21088.893245326668, -32765.355141801258, 187500.0, -57171.157857317674, -18516.296865498647, 0.65, -0.5760000000000001, 0.542, 192.0, 0.0, 0.0, 0.0, 0.0, 0.0, 0.0, 0.0, 0.0, 0.0, 1.6635930253727803E9, 0.0, 2022-09-19 18:10:25.372
149.0, -33858.13192822122, -20663.89717625346, -67731.41833918313, -21088.848541837757, -32725.591388415265, 187500.0, -57117.73718806949, -18497.007310033718, 0.648, -0.58, 0.54, 192.0, 20.0, 64.0, 237.0, 224.0, 16.0, 224.0, 0.0, 0.0, 0.0, 1.663593025376767E9, 0.0, 2022-09-19 18:10:25.376
150.0, -33501.46514194788, -20631.710664237817, -67840.78542480296, -21143.52090877544, -32582.584927390213, 187500.0, -57126.767292829434, -18508.697272383844, 0.648, -0.58, 0.54, 192.0, 0.0, 0.0, 0.0, 0.0, 0.0, 0.0, 0.0, 0.0, 0.0, 1.6635930253797772E9, 0.0, 2022-09-19 18:10:25.379
151.0, -33369.701608383846, -20670.379182145498, -67836.73975905654, -21172.86874924526, -32534.618083789122, 187500.0, -57260.363669438804, -18528.769138904707, 0.648, -0.58, 0.54, 192.0, 0.0, 0.0, 0.0, 0.0, 0.0, 0.0, 0.0, 0.0, 0.0, 1.6635930253837729E9, 0.0, 2022-09-19 18:10:25.383
152.0, -33684.72709473695, -20723.889258371506, -67706.98788249349, -21123.89607714368, -32668.773254009877, 187500.0, -57273.037108544966, -18521.90715335693, 0.648, -0.58, 0.54, 192.0, 0.0, 0.0, 0.0, 0.0, 0.0, 0.0, 0.0, 0.0, 0.0, 1.6635930253877735E9, 0.0, 2022-09-19 18:10:25.387
153.0, -33832.53918081989, -20699.68231912641, -67682.1774461481, -21086.970995303513, -32738.06366182133, 187500.0, -57166.53104621542, -18503.086984525562, 0.648, -0.58, 0.54, 192.0, 0.0, 0.0, 0.0, 0.0, 0.0, 0.0, 0.0, 0.0, 0.0, 1.6635930253917673E9, 0.0, 2022-09-19 18:10:25.391
154.0, -33739.48886865245, -20650.843757491562, -67729.07140601533, -21093.832980851294, -32703.418457915603, 187500.0, -57121.69344683808, -18490.45824890831, 0.648, -0.58, 0.54, 192.0, 0.0, 0.0, 0.0, 0.0, 0.0, 0.0, 0.0, 0.0, 0.0, 1.663593025395748E9, 0.0, 2022-09-19 18:10:25.395
155.0, -33379.55872768864, -20612.644626217443, -67843.17706145968, -21147.544222777393, -32554.377025887614, 187500.0, -57135.21625223354, -18499.84598157954, 0.648, -0.58, 0.54, 192.0, 0.0, 0.0, 0.0, 0.0, 0.0, 0.0, 0.0, 0.0, 0.0, 1.6635930254008577E9, 0.0, 2022-09-19 18:10:25.400
156.0, -33235.747603863194, -20651.715475525318, -67839.82429979138, -21175.52860683544, -32497.670650204498, 187500.0, -57264.54344565194, -18524.81288013612, 0.648, -0.58, 0.54, 192.0, 0.0, 0.0, 0.0, 0.0, 0.0, 0.0, 0.0, 0.0, 0.0, 1.6635930254048293E9, 0.0, 2022-09-19 18:10:25.404
157.0, -33548.09088088165, -20700.308167971154, -67704.14921094767, -21122.532620731905, -32632.071689614262, 187500.0, -57268.03031778697, -18519.359054489025, 0.648, -0.58, 0.54, 192.0, 0.0, 0.0, 0.0, 0.0, 0.0, 0.0, 0.0, 0.0, 0.0, 1.6635930254077373E9, 0.0, 2022-09-19 18:10:25.407
158.0, -33702.78730425684, -20690.585159133097, -67685.15022816065, -21090.346108716265, -32704.893673049653, 187500.0, -57171.20256080658, -18504.919827570895, 0.648, -0.58, 0.54, 192.0, 0.0, 0.0, 0.0, 0.0, 0.0, 0.0, 0.0, 0.0, 0.0, 1.663593025411824E9, 0.0, 2022-09-19 18:10:25.411
159.0, -33607.72533508841, -20656.856376750038, -67736.84981308578, -21096.157562274642, -32667.432149342556, 187500.0, -57130.768255086936, -18492.46990590929, 0.646, -0.5760000000000001, 0.538, 192.0, 20.0, 48.0, 238.0, 0.0, 16.0, 208.0, 0.0, 0.0, 0.0, 1.6635930254158125E9, 0.0, 2022-09-19 18:10:25.415
160.0, -33245.87294410145, -20614.99155938525, -67842.99824750403, -21140.816347696345, -32514.121534123606, 187500.0, -57135.32801095582, -18493.051051265127, 0.646, -0.5760000000000001, 0.538, 192.0, 0.0, 0.0, 0.0, 0.0, 0.0, 0.0, 0.0, 0.0, 0.0, 1.6635930254198086E9, 0.0, 2022-09-19 18:10:25.419
161.0, -33103.000593543125, -20652.050751692146, -67840.74072131404, -21168.33134512083, -32452.27425721577, 187500.0, -57267.44917243114, -18512.318254985603, 0.646, -0.5760000000000001, 0.538, 192.0, 0.0, 0.0, 0.0, 0.0, 0.0, 0.0, 0.0, 0.0, 0.0, 1.663593025423826E9, 0.0, 2022-09-19 18:10:25.423
162.0, -33417.33317581811, -20713.026310566227, -67718.27551344341, -21127.405301023162, -32583.92603205753, 187500.0, -57286.33639649587, -18519.85079286704, 0.646, -0.5760000000000001, 0.538, 192.0, 0.0, 0.0, 0.0, 0.0, 0.0, 0.0, 0.0, 0.0, 0.0, 1.663593025427879E9, 0.0, 2022-09-19 18:10:25.427
163.0, -33570.53203231478, -20698.85530458156, -67690.06761194082, -21094.056498295846, -32648.388463066636, 187500.0, -57180.36677603326, -18507.624388649987, 0.646, -0.5760000000000001, 0.538, 192.0, 0.0, 0.0, 0.0, 0.0, 0.0, 0.0, 0.0, 0.0, 0.0, 1.663593025432844E9, 0.0, 2022-09-19 18:10:25.432
164.0, -33476.85587130259, -20663.673658808908, -67735.48635667401, -21097.99040531998, -32607.238901524415, 187500.0, -57134.456292922056, -18493.967472787797, 0.646, -0.5760000000000001, 0.538, 192.0, 0.0, 0.0, 0.0, 0.0, 0.0, 0.0, 0.0, 0.0, 0.0, 1.6635930254358313E9, 0.0, 2022-09-19 18:10:25.435
165.0, -33123.81006763101, -20632.805899716128, -67842.70767482612, -21142.89505993069, -32460.723216619877, 187500.0, -57143.50874942646, -18499.42129843489, 0.646, -0.5760000000000001, 0.538, 192.0, 0.0, 0.0, 0.0, 0.0, 0.0, 0.0, 0.0, 0.0, 0.0, 1.66359302543986E9, 0.0, 2022-09-19 18:10:25.439
166.0, -32976.601478648365, -20664.545376842663, -67837.56677360139, -21165.246804386, -32401.021707179752, 187500.0, -57263.96230029611, -18519.448461466847, 0.646, -0.5760000000000001, 0.538, 192.0, 0.0, 0.0, 0.0, 0.0, 0.0, 0.0, 0.0, 0.0, 0.0, 1.6635930254438725E9, 0.0, 2022-09-19 18:10:25.443
167.0, -33291.336392323545, -20712.66868265494, -67710.58651335079, -21119.1351555747, -32534.19340064447, 187500.0, -57284.63766391727, -18519.828441122587, 0.646, -0.5760000000000001, 0.538, 192.0, 0.0, 0.0, 0.0, 0.0, 0.0, 0.0, 0.0, 0.0, 0.0, 1.663593025447852E9, 0.0, 2022-09-19 18:10:25.447
168.0, -33446.94923722139, -20699.10117377057, -67684.16675140461, -21083.17119874611, -32601.941538088508, 187500.0, -57189.44158428211, -18497.253179222727, 0.646, -0.5760000000000001, 0.538, 192.0, 0.0, 0.0, 0.0, 0.0, 0.0, 0.0, 0.0, 0.0, 0.0, 1.6635930254518182E9, 0.0, 2022-09-19 18:10:25.451
169.0, -33356.96111404432, -20657.392818616965, -67721.65062685616, -21083.46177142403, -32563.943572514487, 187500.0, -57138.47960692401, -18479.57294935858, 0.646, -0.5740000000000001, 0.536, 192.0, 20.0, 48.0, 238.0, 16.0, 16.0, 192.0, 0.0, 0.0, 0.0, 1.6635930254559627E9, 0.0, 2022-09-19 18:10:25.455
170.0, -33005.99402260709, -20616.578533241576, -67824.84863100632, -21130.13221384671, -32418.634881810533, 187500.0, -57139.150159257675, -18483.015118004696, 0.646, -0.5740000000000001, 0.536, 192.0, 0.0, 0.0, 0.0, 0.0, 0.0, 0.0, 0.0, 0.0, 0.0, 1.663593025459864E9, 0.0, 2022-09-19 18:10:25.459
171.0, -32862.160547037194, -20653.70478078184, -67834.8622125223, -21162.56459505136, -32360.095663082084, 187500.0, -57272.85829458932, -18505.165696759905, 0.646, -0.5740000000000001, 0.536, 192.0, 0.0, 0.0, 0.0, 0.0, 0.0, 0.0, 0.0, 0.0, 0.0, 1.6635930254628823E9, 0.0, 2022-09-19 18:10:25.462
172.0, -33179.57767004701, -20710.14293553149, -67711.43587964009, -21118.308141029855, -32493.893205391552, 187500.0, -57292.50547796553, -18509.166659017403, 0.646, -0.5740000000000001, 0.536, 192.0, 0.0, 0.0, 0.0, 0.0, 0.0, 0.0, 0.0, 0.0, 0.0, 1.6635930254679184E9, 0.0, 2022-09-19 18:10:25.467
173.0, -33341.13607896997, -20697.983586547805, -67684.25615838244, -21081.874797567703, -32564.122386470128, 187500.0, -57192.41436629467, -18492.112277998003, 0.646, -0.5740000000000001, 0.536, 192.0, 0.0, 0.0, 0.0, 0.0, 0.0, 0.0, 0.0, 0.0, 0.0, 1.6635930254719243E9, 0.0, 2022-09-19 18:10:25.471
174.0, -33258.23345878523, -20666.959365243838, -67733.63116188422, -21090.36846046072, -32532.896999466062, 187500.0, -57153.29881349788, -18484.646795349934, 0.646, -0.5740000000000001, 0.536, 192.0, 0.0, 0.0, 0.0, 0.0, 0.0, 0.0, 0.0, 0.0, 0.0, 1.6635930254758835E9, 0.0, 2022-09-19 18:10:25.475
175.0, -32904.584158013364, -20631.576553771087, -67834.75045380002, -21139.31878081784, -32385.73311397232, 187500.0, -57152.60590941977, -18487.84309480704, 0.646, -0.5740000000000001, 0.536, 192.0, 0.0, 0.0, 0.0, 0.0, 0.0, 0.0, 0.0, 0.0, 0.0, 1.6635930254799244E9, 0.0, 2022-09-19 18:10:25.479
176.0, -32747.026711347906, -20657.549280828152, -67834.2140119331, -21165.783246252926, -32318.34260443957, 187500.0, -57273.57355041189, -18502.014100791705, 0.646, -0.5740000000000001, 0.536, 192.0, 0.0, 0.0, 0.0, 0.0, 0.0, 0.0, 0.0, 0.0, 0.0, 1.66359302548394E9, 0.0, 2022-09-19 18:10:25.483
177.0, -33056.62072379836, -20713.67451115543, -67708.21722843853, -21124.119594588232, -32446.97689377986, 187500.0, -57292.70664366563, -18504.025757792682, 0.646, -0.5740000000000001, 0.536, 192.0, 0.0, 0.0, 0.0, 0.0, 0.0, 0.0, 0.0, 0.0, 0.0, 1.6635930254879484E9, 0.0, 2022-09-19 18:10:25.487
178.0, -33220.52606588913, -20711.39463322099, -67689.55352181835, -21091.709565128036, -32520.044746404263, 187500.0, -57195.141279118216, -18487.820743062584, 0.646, -0.5740000000000001, 0.536, 192.0, 0.0, 0.0, 0.0, 0.0, 0.0, 0.0, 0.0, 0.0, 0.0, 1.6635930254909482E9, 0.0, 2022-09-19 18:10:25.490
179.0, -33137.042300348556, -20670.982679245793, -67743.15300502218, -21099.689137898582, -32491.278051290283, 187500.0, -57150.2366245075, -18482.47867613777, 0.642, -0.578, 0.532, 192.0, 20.0, 16.0, 237.0, 240.0, 16.0, 160.0, 0.0, 0.0, 0.0, 1.6635930254960136E9, 0.0, 2022-09-19 18:10:25.496
180.0, -32787.93040370112, -20627.910867680417, -67843.89231728224, -21141.75512096347, -32348.696273409878, 187500.0, -57144.98396456051, -18491.84405706454, 0.642, -0.578, 0.532, 192.0, 0.0, 0.0, 0.0, 0.0, 0.0, 0.0, 0.0, 0.0, 0.0, 1.6635930255000048E9, 0.0, 2022-09-19 18:10:25.500
181.0, -32631.4011372806, -20646.194594644858, -67847.40154116173, -21163.413961340662, -32285.954926723833, 187500.0, -57265.32575670788, -18516.38627247647, 0.642, -0.578, 0.532, 192.0, 0.0, 0.0, 0.0, 0.0, 0.0, 0.0, 0.0, 0.0, 0.0, 1.6635930255040023E9, 0.0, 2022-09-19 18:10:25.504
182.0, -32944.41496663272, -20698.81060109265, -67725.00338852446, -21117.36936776273, -32419.730117288844, 187500.0, -57290.80674538693, -18517.23563876577, 0.642, -0.578, 0.532, 192.0, 0.0, 0.0, 0.0, 0.0, 0.0, 0.0, 0.0, 0.0, 0.0, 1.663593025507994E9, 0.0, 2022-09-19 18:10:25.507
183.0, -33116.99278557215, -20685.399554419466, -67693.75564977595, -21082.143018501167, -32499.771714183298, 187500.0, -57190.55917150488, -18498.66133912341, 0.642, -0.578, 0.532, 192.0, 0.0, 0.0, 0.0, 0.0, 0.0, 0.0, 0.0, 0.0, 0.0, 1.663593025512005E9, 0.0, 2022-09-19 18:10:25.512
184.0, -33040.706281746185, -20653.83889124857, -67740.06846428734, -21090.346108716265, -32473.933097592962, 187500.0, -57147.330897728316, -18489.385365174458, 0.642, -0.578, 0.532, 192.0, 0.0, 0.0, 0.0, 0.0, 0.0, 0.0, 0.0, 0.0, 0.0, 1.663593025516034E9, 0.0, 2022-09-19 18:10:25.516
185.0, -32692.957841510517, -20610.23063781627, -67838.50554686852, -21130.691007458092, -32330.233732489796, 187500.0, -57141.675906381126, -18490.23473146376, 0.642, -0.578, 0.532, 192.0, 0.0, 0.0, 0.0, 0.0, 0.0, 0.0, 0.0, 0.0, 0.0, 1.6635930255190268E9, 0.0, 2022-09-19 18:10:25.519
186.0, -32536.361519856637, -20640.159623641925, -67842.88648878175, -21160.597641539294, -32267.850013715033, 187500.0, -57270.75723061052, -18509.412528206412, 0.642, -0.578, 0.532, 192.0, 0.0, 0.0, 0.0, 0.0, 0.0, 0.0, 0.0, 0.0, 0.0, 1.663593025524156E9, 0.0, 2022-09-19 18:10:25.524
187.0, -32853.53277367744, -20702.118659272037, -67708.17252494962, -21116.832925895804, -32402.072239169152, 187500.0, -57287.85631511883, -18510.440708451355, 0.642, -0.578, 0.532, 192.0, 0.0, 0.0, 0.0, 0.0, 0.0, 0.0, 0.0, 0.0, 0.0, 1.663593025528045E9, 0.0, 2022-09-19 18:10:25.528
188.0, -33028.70339497369, -20695.860170824548, -67681.19396939206, -21086.769829603414, -32483.164368053007, 187500.0, -57191.20737209408, -18497.43199317837, 0.642, -0.578, 0.532, 192.0, 0.0, 0.0, 0.0, 0.0, 0.0, 0.0, 0.0, 0.0, 0.0, 1.663593025532096E9, 0.0, 2022-09-19 18:10:25.532
189.0, -32951.8804492808, -20663.65130706445, -67724.10931874625, -21086.70277437005, -32454.956466550408, 187500.0, -57149.431961707116, -18483.32804242707, 0.644, -0.578, 0.534, 192.0, 20.0, 32.0, 237.0, 240.0, 16.0, 176.0, 0.0, 0.0, 0.0, 1.6635930255360477E9, 0.0, 2022-09-19 18:10:25.536
190.0, -32600.488674698914, -20614.61157972951, -67819.19363965913, -21123.024359109924, -32307.524360123203, 187500.0, -57141.47474068103, -18480.55642611461, 0.644, -0.578, 0.534, 192.0, 0.0, 0.0, 0.0, 0.0, 0.0, 0.0, 0.0, 0.0, 0.0, 1.6635930255400372E9, 0.0, 2022-09-19 18:10:25.540
191.0, -32440.740757076834, -20640.874879464493, -67832.91761075468, -21158.764798493958, -32245.274751815174, 187500.0, -57274.489971934556, -18508.406699705924, 0.644, -0.578, 0.534, 192.0, 0.0, 0.0, 0.0, 0.0, 0.0, 0.0, 0.0, 0.0, 0.0, 1.663593025544124E9, 0.0, 2022-09-19 18:10:25.544
192.0, -32751.407653261147, -20700.10700227106, -67708.731318561, -21122.554972476362, -32377.865299924055, 187500.0, -57301.826155403396, -18519.359054489025, 0.644, -0.578, 0.534, 192.0, 0.0, 0.0, 0.0, 0.0, 0.0, 0.0, 0.0, 0.0, 0.0, 1.663593025548106E9, 0.0, 2022-09-19 18:10:25.548
193.0, -32919.760992498515, -20693.267368467736, -67679.94227170256, -21090.949605816557, -32457.057530529208, 187500.0, -57202.8526309553, -18509.345472973047, 0.644, -0.578, 0.534, 192.0, 0.0, 0.0, 0.0, 0.0, 0.0, 0.0, 0.0, 0.0, 0.0, 1.66359302555117E9, 0.0, 2022-09-19 18:10:25.551
194.0, -32840.38994793772, -20655.67173429391, -67721.3377024338, -21091.284881983385, -32430.347195905117, 187500.0, -57150.88482509671, -18494.74978384373, 0.644, -0.578, 0.534, 192.0, 0.0, 0.0, 0.0, 0.0, 0.0, 0.0, 0.0, 0.0, 0.0, 1.663593025556137E9, 0.0, 2022-09-19 18:10:25.556
195.0, -32494.563757725213, -20609.560085482608, -67820.8029652599, -21128.61229522375, -32288.52537733619, 187500.0, -57144.84985409378, -18488.781868074166, 0.644, -0.578, 0.534, 192.0, 0.0, 0.0, 0.0, 0.0, 0.0, 0.0, 0.0, 0.0, 0.0, 1.6635930255600843E9, 0.0, 2022-09-19 18:10:25.560
196.0, -32330.43489818989, -20636.784510229172, -67833.09642471033, -21157.222528126542, -32225.784030650146, 187500.0, -57270.24314048805, -18506.439746193857, 0.644, -0.578, 0.534, 192.0, 0.0, 0.0, 0.0, 0.0, 0.0, 0.0, 0.0, 0.0, 0.0, 1.663593025564197E9, 0.0, 2022-09-19 18:10:25.564
197.0, -32642.577009508255, -20693.736755101294, -67709.29011217238, -21113.144888060677, -32362.911982883452, 187500.0, -57293.511306466025, -18510.708929384822, 0.644, -0.578, 0.534, 192.0, 0.0, 0.0, 0.0, 0.0, 0.0, 0.0, 0.0, 0.0, 0.0, 1.6635930255681188E9, 0.0, 2022-09-19 18:10:25.568
198.0, -32820.96628200606, -20692.10507775606, -67681.90922521464, -21082.388887690173, -32446.61926586858, 187500.0, -57194.448375040105, -18499.42129843489, 0.644, -0.578, 0.534, 192.0, 0.0, 0.0, 0.0, 0.0, 0.0, 0.0, 0.0, 0.0, 0.0, 1.6635930255711143E9, 0.0, 2022-09-19 18:10:25.571
199.0, -32753.15108932866, -20654.66590579342, -67722.41058616765, -21084.713469113525, -32424.088707457628, 187500.0, -57145.05101979387, -18488.334833185058, 0.644, -0.578, 0.534, 192.0, 0.0, 0.0, 0.0, 0.0, 0.0, 0.0, 0.0, 0.0, 0.0, 1.6635930255751534E9, 0.0, 2022-09-19 18:10:25.575
200.0, -32415.036250953228, -20608.88953314895, -67827.79906127442, -21129.126385346222, -32287.407790113426, 187500.0, -57146.32506922782, -18489.05008900763, 0.66, -0.58, 0.54, 192.0, 20.0, 160.0, 237.0, 224.0, 16.0, 224.0, 0.0, 0.0, 0.0, 1.6635930255791876E9, 0.0, 2022-09-19 18:10:25.579
201.0, -32252.80728969661, -20637.23154511828, -67837.27620092347, -21162.028153184434, -32226.56634170608, 187500.0, -57273.68530913417, -18506.52915317168, 0.66, -0.58, 0.54, 192.0, 0.0, 0.0, 0.0, 0.0, 0.0, 0.0, 0.0, 0.0, 0.0, 1.663593025584119E9, 0.0, 2022-09-19 18:10:25.584
202.0, -32568.34686617218, -20695.52489465772, -67710.47475462852, -21119.671597441626, -32365.21421256235, 187500.0, -57298.49574547956, -18507.982016561273, 0.66, -0.58, 0.54, 192.0, 0.0, 0.0, 0.0, 0.0, 0.0, 0.0, 0.0, 0.0, 0.0, 1.6635930255880835E9, 0.0, 2022-09-19 18:10:25.588
203.0, -32750.513583482934, -20685.064278252637, -67680.7245827585, -21085.004041791446, -32450.642579870535, 187500.0, -57199.99160766502, -18497.90137981193, 0.66, -0.58, 0.54, 192.0, 0.0, 0.0, 0.0, 0.0, 0.0, 0.0, 0.0, 0.0, 0.0, 1.6635930255922282E9, 0.0, 2022-09-19 18:10:25.592
204.0, -32682.407818127613, -20643.08770216557, -67721.80708906736, -21085.719297614014, -32430.5036581163, 187500.0, -57148.247319250986, -18488.871275051984, 0.66, -0.58, 0.54, 192.0, 0.0, 0.0, 0.0, 0.0, 0.0, 0.0, 0.0, 0.0, 0.0, 1.6635930255961168E9, 0.0, 2022-09-19 18:10:25.596
205.0, -32350.35030249957, -20605.3132540361, -67824.84863100632, -21128.075853356822, -32301.8246652871, 187500.0, -57141.9888308035, -18495.263873966203, 0.66, -0.58, 0.54, 192.0, 0.0, 0.0, 0.0, 0.0, 0.0, 0.0, 0.0, 0.0, 0.0, 1.6635930255991535E9, 0.0, 2022-09-19 18:10:25.599
206.0, -32188.143692987407, -20642.864184721016, -67841.67949458117, -21157.222528126542, -32243.777184936665, 187500.0, -57267.784448597966, -18514.37461547549, 0.66, -0.58, 0.54, 192.0, 0.0, 0.0, 0.0, 0.0, 0.0, 0.0, 0.0, 0.0, 0.0, 1.6635930256030936E9, 0.0, 2022-09-19 18:10:25.603
207.0, -32503.996193885352, -20699.86113308205, -67718.11905123224, -21111.021472337423, -32384.30260232718, 187500.0, -57294.42772798869, -18516.833307365574, 0.66, -0.58, 0.54, 192.0, 0.0, 0.0, 0.0, 0.0, 0.0, 0.0, 0.0, 0.0, 0.0, 1.6635930256072402E9, 0.0, 2022-09-19 18:10:25.607
208.0, -32688.95687925302, -20673.933109513895, -67683.18327464859, -21067.88260553868, -32473.6648766595, 187500.0, -57183.20544757909, -18500.114202513007, 0.66, -0.58, 0.54, 192.0, 0.0, 0.0, 0.0, 0.0, 0.0, 0.0, 0.0, 0.0, 0.0, 1.6635930256111715E9, 0.0, 2022-09-19 18:10:25.611
209.0, -32622.88512264313, -20633.09647239405, -67727.70794960356, -21067.726143327494, -32457.683379373957, 187500.0, -57127.21432771854, -18489.65358610792, 0.66, -0.58, 0.54, 192.0, 0.0, 0.0, 0.0, 0.0, 0.0, 0.0, 0.0, 0.0, 0.0, 1.6635930256161296E9, 0.0, 2022-09-19 18:10:25.616
210.0, -32294.359182639026, -20599.79237315564, -67837.32090441238, -21110.194457792575, -32331.86540983503, 187500.0, -57124.68858059509, -18494.682728610365, 0.65, -0.5760000000000001, 0.542, 192.0, 20.0, 80.0, 238.0, 0.0, 16.0, 240.0, 0.0, 0.0, 0.0, 1.663593025620309E9, 0.0, 2022-09-19 18:10:25.620
211.0, -32131.593779515482, -20632.872954949493, -67852.52009064199, -21143.65501924217, -32271.359237594515, 187500.0, -57251.557082123414, -18517.43680446587, 0.65, -0.5760000000000001, 0.542, 192.0, 0.0, 0.0, 0.0, 0.0, 0.0, 0.0, 0.0, 0.0, 0.0, 1.6635930256241465E9, 0.0, 2022-09-19 18:10:25.624
212.0, -32449.748510092322, -20688.75231608776, -67728.04322577038, -21099.331509987296, -32412.51050382978, 187500.0, -57279.452059203635, -18518.263819010714, 0.65, -0.5760000000000001, 0.542, 192.0, 0.0, 0.0, 0.0, 0.0, 0.0, 0.0, 0.0, 0.0, 0.0, 1.663593025627233E9, 0.0, 2022-09-19 18:10:25.627
213.0, -32634.64214022662, -20666.020591976714, -67691.78869626387, -21055.1197594547, -32499.078810105184, 187500.0, -57170.375546261734, -18492.358147187013, 0.65, -0.5760000000000001, 0.542, 192.0, 0.0, 0.0, 0.0, 0.0, 0.0, 0.0, 0.0, 0.0, 0.0, 1.6635930256312108E9, 0.0, 2022-09-19 18:10:25.631
214.0, -32577.6898953545, -20632.828251460585, -67735.95574330757, -21057.712561811517, -32484.974859353886, 187500.0, -57119.078292736805, -18479.148266213928, 0.65, -0.5760000000000001, 0.542, 192.0, 0.0, 0.0, 0.0, 0.0, 0.0, 0.0, 0.0, 0.0, 0.0, 1.6635930256352358E9, 0.0, 2022-09-19 18:10:25.635
215.0, -32256.316513576094, -20602.116954578993, -67843.1100062263, -21104.204190278553, -32360.83327064911, 187500.0, -57112.931563011596, -18483.618615104988, 0.65, -0.5760000000000001, 0.542, 192.0, 0.0, 0.0, 0.0, 0.0, 0.0, 0.0, 0.0, 0.0, 0.0, 1.6635930256402144E9, 0.0, 2022-09-19 18:10:25.640
216.0, -32082.10701729143, -20621.026530388182, -67845.83691904985, -21127.85233591227, -32294.71681055031, 187500.0, -57222.27629688696, -18496.962606544806, 0.65, -0.5760000000000001, 0.542, 192.0, 0.0, 0.0, 0.0, 0.0, 0.0, 0.0, 0.0, 0.0, 0.0, 1.6635930256441948E9, 0.0, 2022-09-19 18:10:25.644
217.0, -32398.965346689864, -20678.47051363832, -67729.987827538, -21090.569626160817, -32435.912780274488, 187500.0, -57265.70573636362, -18505.590379904555, 0.65, -0.5760000000000001, 0.542, 192.0, 0.0, 0.0, 0.0, 0.0, 0.0, 0.0, 0.0, 0.0, 0.0, 1.6635930256482768E9, 0.0, 2022-09-19 18:10:25.648
218.0, -32589.73748561591, -20668.747504800263, -67697.08605969978, -21057.26552692241, -32527.86785696362, 187500.0, -57168.140371816204, -18492.80518207612, 0.65, -0.5760000000000001, 0.542, 192.0, 0.0, 0.0, 0.0, 0.0, 0.0, 0.0, 0.0, 0.0, 0.0, 1.6635930256522272E9, 0.0, 2022-09-19 18:10:25.652
219.0, -32527.01849067432, -20641.07604516459, -67739.12969102022, -21060.79710254635, -32511.39462130006, 187500.0, -57117.7818915584, -18479.930577269864, 0.65, -0.5760000000000001, 0.542, 192.0, 0.0, 0.0, 0.0, 0.0, 0.0, 0.0, 0.0, 0.0, 0.0, 1.6635930256552403E9, 0.0, 2022-09-19 18:10:25.655
220.0, -32201.688850127324, -20605.670881947386, -67844.11583472679, -21104.293597256376, -32384.481416282826, 187500.0, -57115.45731013505, -18482.970414515785, 0.64, -0.5680000000000001, 0.542, 192.0, 20.0, 0.0, 238.0, 64.0, 16.0, 240.0, 0.0, 0.0, 0.0, 1.6635930256592572E9, 0.0, 2022-09-19 18:10:25.659
221.0, -32028.418127109784, -20625.3180653236, -67855.33641044336, -21133.842603426292, -32317.78381082819, 187500.0, -57231.17229118017, -18501.3659002025, 0.64, -0.5680000000000001, 0.542, 192.0, 0.0, 0.0, 0.0, 0.0, 0.0, 0.0, 0.0, 0.0, 0.0, 1.6635930256632545E9, 0.0, 2022-09-19 18:10:25.663
222.0, -32340.046148305675, -20680.415115405933, -67725.80805132486, -21089.921425571614, -32454.643542128033, 187500.0, -57260.05074501643, -18503.824592092587, 0.64, -0.5680000000000001, 0.542, 192.0, 0.0, 0.0, 0.0, 0.0, 0.0, 0.0, 0.0, 0.0, 0.0, 1.6635930256672468E9, 0.0, 2022-09-19 18:10:25.667
223.0, -32532.11468841013, -20670.51329261223, -67694.40385036515, -21058.78544554537, -32548.878496751608, 187500.0, -57160.36196474576, -18491.53113264217, 0.64, -0.5680000000000001, 0.542, 192.0, 0.0, 0.0, 0.0, 0.0, 0.0, 0.0, 0.0, 0.0, 0.0, 1.6635930256722329E9, 0.0, 2022-09-19 18:10:25.672
224.0, -32474.42483597098, -20639.980809686283, -67736.42512994113, -21066.675611338094, -32535.489801822878, 187500.0, -57119.570031114825, -18484.5126848832, 0.64, -0.5680000000000001, 0.542, 192.0, 0.0, 0.0, 0.0, 0.0, 0.0, 0.0, 0.0, 0.0, 0.0, 1.6635930256762843E9, 0.0, 2022-09-19 18:10:25.676
225.0, -32148.871677979434, -20606.207323814313, -67837.14209045673, -21109.8815333702, -32405.827332237644, 187500.0, -57117.044283991374, -18489.02773726317, 0.64, -0.5680000000000001, 0.542, 192.0, 0.0, 0.0, 0.0, 0.0, 0.0, 0.0, 0.0, 0.0, 0.0, 1.663593025680271E9, 0.0, 2022-09-19 18:10:25.680
226.0, -31971.264716537564, -20631.397739815446, -67861.79606459095, -21149.220603611542, -32338.43682270489, 187500.0, -57237.94486975013, -18515.04516780915, 0.64, -0.5680000000000001, 0.542, 192.0, 0.0, 0.0, 0.0, 0.0, 0.0, 0.0, 0.0, 0.0, 0.0, 1.6635930256832776E9, 0.0, 2022-09-19 18:10:25.683
227.0, -32287.877176746988, -20685.89129279748, -67734.63699038471, -21110.865010126236, -32478.962240095407, 187500.0, -57276.5686841689, -18515.71572014281, 0.64, -0.5680000000000001, 0.542, 192.0, 0.0, 0.0, 0.0, 0.0, 0.0, 0.0, 0.0, 0.0, 0.0, 1.6635930256873024E9, 0.0, 2022-09-19 18:10:25.687
228.0, -32479.47633021788, -20671.072086223616, -67693.80035326486, -21069.089599739265, -32568.950363272474, 187500.0, -57170.532008472925, -18490.6147111195, 0.64, -0.5680000000000001, 0.542, 192.0, 0.0, 0.0, 0.0, 0.0, 0.0, 0.0, 0.0, 0.0, 0.0, 1.6635930256913016E9, 0.0, 2022-09-19 18:10:25.691
229.0, -32425.385108636037, -20640.204327130836, -67738.88382183122, -21076.353916687243, -32555.852241021665, 187500.0, -57125.00150501746, -18484.803257561118, 0.64, -0.5680000000000001, 0.542, 192.0, 0.0, 0.0, 0.0, 0.0, 0.0, 0.0, 0.0, 0.0, 0.0, 1.6635930256952982E9, 0.0, 2022-09-19 18:10:25.695
230.0, -32102.49180823467, -20608.107222093015, -67839.55607885792, -21115.402414250664, -32428.51435285978, 187500.0, -57120.57585961531, -18488.267777951693, 0.652, -0.5740000000000001, 0.544, 192.0, 20.0, 96.0, 238.0, 16.0, 17.0, 0.0, 0.0, 0.0, 0.0, 1.6635930257002733E9, 0.0, 2022-09-19 18:10:25.700
231.0, -31919.22985544561, -20628.469661291798, -67852.60949761981, -21144.95142042058, -32356.809956647154, 187500.0, -57233.83214877035, -18504.942179315352, 0.652, -0.5740000000000001, 0.544, 192.0, 0.0, 0.0, 0.0, 0.0, 0.0, 0.0, 0.0, 0.0, 0.0, 1.6635930257043216E9, 0.0, 2022-09-19 18:10:25.704
232.0, -32233.04834759812, -20689.936958543894, -67728.2890949594, -21105.098260056766, -32494.407295514025, 187500.0, -57273.84177134535, -18513.681711397378, 0.652, -0.5740000000000001, 0.544, 192.0, 0.0, 0.0, 0.0, 0.0, 0.0, 0.0, 0.0, 0.0, 0.0, 1.663593025707264E9, 0.0, 2022-09-19 18:10:25.707
233.0, -32430.74952730531, -20678.984603760793, -67694.13562943168, -21068.664916594615, -32587.658773381565, 187500.0, -57176.343462031306, -18499.4660019238, 0.652, -0.5740000000000001, 0.544, 192.0, 0.0, 0.0, 0.0, 0.0, 0.0, 0.0, 0.0, 0.0, 0.0, 1.6635930257112575E9, 0.0, 2022-09-19 18:10:25.711
234.0, -32373.97609638883, -20640.494899808753, -67733.58645839531, -21067.21205320502, -32572.34782842968, 187500.0, -57122.90044103866, -18481.383440659458, 0.652, -0.5740000000000001, 0.544, 192.0, 0.0, 0.0, 0.0, 0.0, 0.0, 0.0, 0.0, 0.0, 0.0, 1.6635930257154403E9, 0.0, 2022-09-19 18:10:25.715
235.0, -32049.987560509155, -20606.140268580948, -67840.62896259177, -21113.41310899414, -32444.875829801065, 187500.0, -57119.570031114825, -18483.75272557172, 0.652, -0.5740000000000001, 0.544, 192.0, 0.0, 0.0, 0.0, 0.0, 0.0, 0.0, 0.0, 0.0, 0.0, 1.6635930257193696E9, 0.0, 2022-09-19 18:10:25.719
236.0, -31862.83640418487, -20625.27336183469, -67858.33154420037, -21151.47812980153, -32372.389122532502, 187500.0, -57239.12951220626, -18506.28328398267, 0.652, -0.5740000000000001, 0.544, 192.0, 0.0, 0.0, 0.0, 0.0, 0.0, 0.0, 0.0, 0.0, 0.0, 1.663593025723334E9, 0.0, 2022-09-19 18:10:25.723
237.0, -32174.196204447297, -20690.026365521713, -67737.45331018607, -21113.83779213879, -32508.690060220968, 187500.0, -57279.67557664819, -18515.42514746489, 0.652, -0.5740000000000001, 0.544, 192.0, 0.0, 0.0, 0.0, 0.0, 0.0, 0.0, 0.0, 0.0, 0.0, 1.6635930257283113E9, 0.0, 2022-09-19 18:10:25.728
238.0, -32371.293887054195, -20693.66969986793, -67708.57485634982, -21080.421934178106, -32598.722886886942, 187500.0, -57182.82546792334, -18501.3659002025, 0.652, -0.5740000000000001, 0.544, 192.0, 0.0, 0.0, 0.0, 0.0, 0.0, 0.0, 0.0, 0.0, 0.0, 1.6635930257324512E9, 0.0, 2022-09-19 18:10:25.732
239.0, -32320.935406796387, -20660.455007607343, -67752.20546152657, -21084.311137713332, -32586.071799525238, 187500.0, -57137.51848191243, -18494.593321632543, 0.652, -0.5740000000000001, 0.544, 192.0, 0.0, 0.0, 0.0, 0.0, 0.0, 0.0, 0.0, 0.0, 0.0, 1.6635930257353985E9, 0.0, 2022-09-19 18:10:25.735
240.0, -31999.606728506893, -20618.098451864535, -67850.79900631894, -21122.532620731905, -32457.772786351776, 187500.0, -57128.28721145239, -18500.449478679835, 0.648, -0.58, 0.54, 192.0, 20.0, 64.0, 237.0, 224.0, 16.0, 224.0, 0.0, 0.0, 0.0, 1.6635930257393112E9, 0.0, 2022-09-19 18:10:25.739
241.0, -31809.125162258766, -20633.431748560877, -67868.14396001626, -21154.607374025272, -32382.44740753739, 187500.0, -57245.87973903176, -18520.566048689612, 0.648, -0.58, 0.54, 192.0, 0.0, 0.0, 0.0, 0.0, 0.0, 0.0, 0.0, 0.0, 0.0, 1.6635930257433383E9, 0.0, 2022-09-19 18:10:25.743
242.0, -32114.964081640734, -20691.211007977847, -67745.76815912344, -21114.88832412819, -32515.86497019112, 187500.0, -57285.44232671766, -18522.018912079206, 0.648, -0.58, 0.54, 192.0, 0.0, 0.0, 0.0, 0.0, 0.0, 0.0, 0.0, 0.0, 0.0, 1.6635930257473383E9, 0.0, 2022-09-19 18:10:25.747
243.0, -32314.520456137714, -20678.023478749215, -67705.53501910389, -21077.89618705466, -32609.20585503648, 187500.0, -57178.33276728783, -18506.305635727123, 0.648, -0.58, 0.54, 192.0, 0.0, 0.0, 0.0, 0.0, 0.0, 0.0, 0.0, 0.0, 0.0, 1.663593025751368E9, 0.0, 2022-09-19 18:10:25.751
244.0, -32261.926801434376, -20639.869050964004, -67747.60100216878, -21079.103181255243, -32594.386648462612, 187500.0, -57128.19780447457, -18495.107411755016, 0.648, -0.58, 0.54, 192.0, 0.0, 0.0, 0.0, 0.0, 0.0, 0.0, 0.0, 0.0, 0.0, 1.6635930257563436E9, 0.0, 2022-09-19 18:10:25.756
245.0, -31941.447489434184, -20600.105297578015, -67850.2178609631, -21120.498611986473, -32465.23826899985, 187500.0, -57122.00637126045, -18498.013138534207, 0.648, -0.58, 0.54, 192.0, 0.0, 0.0, 0.0, 0.0, 0.0, 0.0, 0.0, 0.0, 0.0, 1.663593025760374E9, 0.0, 2022-09-19 18:10:25.760
246.0, -31750.027149918933, -20620.490088521256, -67871.25085249553, -21155.90377520368, -32388.5941372626, 187500.0, -57238.548366850424, -18518.66615041091, 0.648, -0.58, 0.54, 192.0, 0.0, 0.0, 0.0, 0.0, 0.0, 0.0, 0.0, 0.0, 0.0, 1.6635930257633572E9, 0.0, 2022-09-19 18:10:25.763
247.0, -32049.205249453218, -20670.75916180124, -67744.20353701158, -21110.037995581388, -32514.56856901271, 187500.0, -57278.960320825616, -18520.387234733967, 0.648, -0.58, 0.54, 192.0, 0.0, 0.0, 0.0, 0.0, 0.0, 0.0, 0.0, 0.0, 0.0, 1.663593025767409E9, 0.0, 2022-09-19 18:10:25.767
248.0, -32249.90156291742, -20667.47345536631, -67705.08798421478, -21069.201358461545, -32607.529474202332, 187500.0, -57175.784668419925, -18501.343548458048, 0.648, -0.58, 0.54, 192.0, 0.0, 0.0, 0.0, 0.0, 0.0, 0.0, 0.0, 0.0, 0.0, 1.6635930257714548E9, 0.0, 2022-09-19 18:10:25.771
249.0, -32195.542120402115, -20632.537678782664, -67743.19770851108, -21066.139169471167, -32589.938651316006, 187500.0, -57121.08994973778, -18484.89266453894, 0.648, -0.58, 0.54, 192.0, 0.0, 0.0, 0.0, 0.0, 0.0, 0.0, 0.0, 0.0, 0.0, 1.6635930257754092E9, 0.0, 2022-09-19 18:10:25.775
250.0, -31872.849985700846, -20596.193742298336, -67849.2120324626, -21111.692024671083, -32457.03517878475, 187500.0, -57119.368865414726, -18487.37370817348, 0.648, -0.5760000000000001, 0.544, 192.0, 20.0, 64.0, 238.0, 0.0, 17.0, 0.0, 0.0, 0.0, 0.0, 1.6635930257794108E9, 0.0, 2022-09-19 18:10:25.779
251.0, -31677.763960094926, -20623.440518789354, -67874.17893101918, -21156.127292648234, -32379.675791224934, 187500.0, -57240.33650640685, -18512.497068941244, 0.648, -0.5760000000000001, 0.544, 192.0, 0.0, 0.0, 0.0, 0.0, 0.0, 0.0, 0.0, 0.0, 0.0, 1.663593025783435E9, 0.0, 2022-09-19 18:10:25.783
252.0, -31981.300649797995, -20682.717345084828, -67744.38235096722, -21117.07879508481, -32509.71824046591, 187500.0, -57275.048765545944, -18520.320179500603, 0.648, -0.5760000000000001, 0.544, 192.0, 0.0, 0.0, 0.0, 0.0, 0.0, 0.0, 0.0, 0.0, 0.0, 1.6635930257885084E9, 0.0, 2022-09-19 18:10:25.788
253.0, -32185.75205633069, -20677.28587118219, -67706.60790283774, -21084.713469113525, -32602.16505553306, 187500.0, -57175.851723653286, -18510.016025306704, 0.648, -0.5760000000000001, 0.544, 192.0, 0.0, 0.0, 0.0, 0.0, 0.0, 0.0, 0.0, 0.0, 0.0, 1.6635930257914095E9, 0.0, 2022-09-19 18:10:25.791
254.0, -32136.533515040104, -20648.22860339029, -67752.83131037132, -21091.08371628329, -32586.652944881076, 187500.0, -57132.01995277643, -18504.13751651496, 0.648, -0.5760000000000001, 0.544, 192.0, 0.0, 0.0, 0.0, 0.0, 0.0, 0.0, 0.0, 0.0, 0.0, 1.6635930257954364E9, 0.0, 2022-09-19 18:10:25.795
255.0, -31809.63925238124, -20605.49206799174, -67850.41902666319, -21123.359635276753, -32449.70380660341, 187500.0, -57119.34651367027, -18499.6671676239, 0.648, -0.5760000000000001, 0.544, 192.0, 0.0, 0.0, 0.0, 0.0, 0.0, 0.0, 0.0, 0.0, 0.0, 1.6635930257994895E9, 0.0, 2022-09-19 18:10:25.799
0.0, -31612.429811052065, -20633.722321238794, -67890.45100098265, -21169.09130443231, -32373.618468477547, 187500.0, -57247.10908497681, -18529.015008093716, 0.648, -0.5760000000000001, 0.544, 192.0, 0.0, 0.0, 0.0, 0.0, 0.0, 0.0, 0.0, 0.0, 0.0, 1.66359302580343E9, 0.0, 2022-09-19 18:10:25.803
1.0, -31911.898483264267, -20694.608473135053, -67767.11407507827, -21129.08168185731, -32502.565682240212, 187500.0, -57291.99138784306, -18531.76427266172, 0.648, -0.5760000000000001, 0.544, 192.0, 0.0, 0.0, 0.0, 0.0, 0.0, 0.0, 0.0, 0.0, 0.0, 1.6635930258074331E9, 0.0, 2022-09-19 18:10:25.807
2.0, -32110.717250194222, -20681.599757862063, -67717.02381575391, -21077.963242288024, -32591.458569938968, 187500.0, -57182.31137780087, -18506.864429338508, 0.648, -0.5760000000000001, 0.544, 192.0, 0.0, 0.0, 0.0, 0.0, 0.0, 0.0, 0.0, 0.0, 0.0, 1.6635930258114595E9, 0.0, 2022-09-19 18:10:25.811
3.0, -32064.270325216097, -20654.352981371045, -67761.3473250088, -21084.333489457786, -32578.98629653291, 187500.0, -57135.59623188928, -18499.622464134987, 0.648, -0.5760000000000001, 0.544, 192.0, 0.0, 0.0, 0.0, 0.0, 0.0, 0.0, 0.0, 0.0, 0.0, 1.6635930258164403E9, 0.0, 2022-09-19 18:10:25.816
4.0, -31746.9426091841, -20616.60088498603, -67856.94573604414, -21124.007835865956, -32447.960370535897, 187500.0, -57129.11422599724, -18497.5661036451, 0.65, -0.582, 0.542, 192.0, 20.0, 80.0, 237.0, 208.0, 16.0, 240.0, 0.0, 0.0, 0.0, 1.6635930258194768E9, 0.0, 2022-09-19 18:10:25.819
5.0, -31543.407624174077, -20641.813652731616, -67880.48212295558, -21157.915432204656, -32365.281267795715, 187500.0, -57252.875835046274, -18514.24050500876, 0.65, -0.582, 0.542, 192.0, 0.0, 0.0, 0.0, 0.0, 0.0, 0.0, 0.0, 0.0, 0.0, 1.66359302582348E9, 0.0, 2022-09-19 18:10:25.823
6.0, -31848.196011566644, -20710.232342509313, -67764.25305178798, -21127.18178357861, -32499.61525197211, 187500.0, -57303.010797859526, -18527.71860691531, 0.65, -0.582, 0.542, 192.0, 0.0, 0.0, 0.0, 0.0, 0.0, 0.0, 0.0, 0.0, 0.0, 1.6635930258274558E9, 0.0, 2022-09-19 18:10:25.827
7.0, -32058.637685613357, -20706.90193258547, -67723.50582164596, -21086.70277437005, -32594.900738585085, 187500.0, -57202.36089257728, -18513.48054569728, 0.65, -0.582, 0.542, 192.0, 0.0, 0.0, 0.0, 0.0, 0.0, 0.0, 0.0, 0.0, 0.0, 1.6635930258314621E9, 0.0, 2022-09-19 18:10:25.831
8.0, -32006.982804177143, -20670.245071678768, -67757.52517670694, -21084.46759992452, -32576.907584298562, 187500.0, -57151.82359836383, -18502.23761823626, 0.65, -0.582, 0.542, 192.0, 0.0, 0.0, 0.0, 0.0, 0.0, 0.0, 0.0, 0.0, 0.0, 1.6635930258355184E9, 0.0, 2022-09-19 18:10:25.835
9.0, -31687.3305067218, -20628.290847336157, -67858.80093083394, -21124.857202155257, -32446.529858890757, 187500.0, -57138.47960692401, -18504.271626981692, 0.65, -0.582, 0.542, 192.0, 0.0, 0.0, 0.0, 0.0, 0.0, 0.0, 0.0, 0.0, 0.0, 1.6635930258395572E9, 0.0, 2022-09-19 18:10:25.839
10.0, -31479.347524565164, -20640.763120742216, -67891.34507076086, -21160.88821421721, -32364.141328828497, 187500.0, -57253.88166354677, -18524.723473158298, 0.65, -0.582, 0.542, 192.0, 0.0, 0.0, 0.0, 0.0, 0.0, 0.0, 0.0, 0.0, 0.0, 1.663593025844588E9, 0.0, 2022-09-19 18:10:25.844
11.0, -31777.00570547649, -20702.52099067223, -67773.08199084783, -21124.90190564417, -32492.708562935422, 187500.0, -57298.875725135294, -18529.95378136084, 0.65, -0.582, 0.542, 192.0, 0.0, 0.0, 0.0, 0.0, 0.0, 0.0, 0.0, 0.0, 0.0, 1.663593025847481E9, 0.0, 2022-09-19 18:10:25.847
12.0, -31985.99451613361, -20686.695955597872, -67733.29588571738, -21085.048745280357, -32586.608241392165, 187500.0, -57192.92845641714, -18512.5194206857, 0.65, -0.582, 0.542, 192.0, 0.0, 0.0, 0.0, 0.0, 0.0, 0.0, 0.0, 0.0, 0.0, 1.6635930258515074E9, 0.0, 2022-09-19 18:10:25.851
13.0, -31939.94992255568, -20649.94968771335, -67776.27829030494, -21083.39471619066, -32571.878441796118, 187500.0, -57140.71478136955, -18502.438783936355, 0.65, -0.582, 0.542, 192.0, 0.0, 0.0, 0.0, 0.0, 0.0, 0.0, 0.0, 0.0, 0.0, 1.6635930258557048E9, 0.0, 2022-09-19 18:10:25.855
14.0, -31623.270407112886, -20616.39971928593, -67876.27999499798, -21127.025321367422, -32440.09255648763, 187500.0, -57132.3328771988, -18506.10447002703, 0.646, -0.582, 0.544, 192.0, 20.0, 48.0, 237.0, 208.0, 17.0, 0.0, 0.0, 0.0, 0.0, 1.6635930258596E9, 0.0, 2022-09-19 18:10:25.859
15.0, -31409.11834348659, -20630.257800848223, -67893.24496903956, -21160.75410375048, -32350.55146819967, 187500.0, -57243.5104541195, -18521.795394634653, 0.646, -0.582, 0.544, 192.0, 0.0, 0.0, 0.0, 0.0, 0.0, 0.0, 0.0, 0.0, 0.0, 1.663593025863628E9, 0.0, 2022-09-19 18:10:25.863
16.0, -31703.31200400734, -20689.869903310526, -67762.30845002037, -21118.531658474407, -32475.98945808285, 187500.0, -57289.175068041695, -18523.158851046428, 0.646, -0.582, 0.544, 192.0, 0.0, 0.0, 0.0, 0.0, 0.0, 0.0, 0.0, 0.0, 0.0, 1.6635930258675969E9, 0.0, 2022-09-19 18:10:25.867
17.0, -31907.40578262875, -20679.52104562772, -67712.2852459294, -21068.866082294713, -32564.16708995904, 187500.0, -57183.048985367896, -18497.90137981193, 0.646, -0.582, 0.544, 192.0, 0.0, 0.0, 0.0, 0.0, 0.0, 0.0, 0.0, 0.0, 0.0, 1.6635930258726344E9, 0.0, 2022-09-19 18:10:25.872
18.0, -31866.50209027554, -20653.79418775966, -67756.96638309555, -21075.012812019922, -32554.198211931973, 187500.0, -57139.79835984688, -18488.960682029807, 0.646, -0.582, 0.544, 192.0, 0.0, 0.0, 0.0, 0.0, 0.0, 0.0, 0.0, 0.0, 0.0, 1.6635930258756425E9, 0.0, 2022-09-19 18:10:25.875
19.0, -31557.332760969733, -20619.774832698684, -67855.13524474326, -21117.414071251642, -32430.5036581163, 187500.0, -57136.0879702673, -18492.738126842753, 0.646, -0.582, 0.544, 192.0, 0.0, 0.0, 0.0, 0.0, 0.0, 0.0, 0.0, 0.0, 0.0, 1.6635930258795972E9, 0.0, 2022-09-19 18:10:25.879
20.0, -31346.891086923017, -20642.88653646547, -67881.77852413399, -21151.679295501628, -32346.863430364545, 187500.0, -57255.35687868082, -18511.915923585406, 0.646, -0.582, 0.544, 192.0, 0.0, 0.0, 0.0, 0.0, 0.0, 0.0, 0.0, 0.0, 0.0, 1.6635930258836448E9, 0.0, 2022-09-19 18:10:25.883
21.0, -31647.522049846895, -20703.61622615054, -67757.43576972911, -21114.26247528344, -32476.727065649877, 187500.0, -57304.843640904866, -18519.4708132113, 0.646, -0.582, 0.544, 192.0, 0.0, 0.0, 0.0, 0.0, 0.0, 0.0, 0.0, 0.0, 0.0, 1.6635930258876565E9, 0.0, 2022-09-19 18:10:25.887
22.0, -31859.036607627466, -20695.502542913266, -67705.33385340379, -21069.84955905075, -32567.564555116245, 187500.0, -57199.43281405364, -18499.555408901622, 0.646, -0.582, 0.544, 192.0, 0.0, 0.0, 0.0, 0.0, 0.0, 0.0, 0.0, 0.0, 0.0, 1.6635930258916743E9, 0.0, 2022-09-19 18:10:25.891
23.0, -31813.14847626072, -20658.309240139635, -67734.94991480708, -21060.126550212688, -32548.76673802933, 187500.0, -57140.58067090281, -18482.344565671036, 0.646, -0.582, 0.544, 192.0, 0.0, 0.0, 0.0, 0.0, 0.0, 0.0, 0.0, 0.0, 0.0, 1.663593025895618E9, 0.0, 2022-09-19 18:10:25.895
24.0, -31501.743972509383, -20619.908943165417, -67841.34421841434, -21101.74549838847, -32417.830219010142, 187500.0, -57134.97038304453, -18484.602091861023, 0.648, -0.578, 0.544, 192.0, 20.0, 64.0, 237.0, 240.0, 17.0, 0.0, 0.0, 0.0, 0.0, 1.6635930258996463E9, 0.0, 2022-09-19 18:10:25.899
25.0, -31290.00589728426, -20643.110053910026, -67875.78825661997, -21145.66667624315, -32331.396023201472, 187500.0, -57257.65910835971, -18508.250237494736, 0.648, -0.578, 0.544, 192.0, 0.0, 0.0, 0.0, 0.0, 0.0, 0.0, 0.0, 0.0, 0.0, 1.6635930259036431E9, 0.0, 2022-09-19 18:10:25.903
26.0, -31579.01395309138, -20701.09047902709, -67745.81286261235, -21102.639568166684, -32451.693111859935, 187500.0, -57300.19447805816, -18507.870257838997, 0.648, -0.578, 0.544, 192.0, 0.0, 0.0, 0.0, 0.0, 0.0, 0.0, 0.0, 0.0, 0.0, 1.663593025906664E9, 0.0, 2022-09-19 18:10:25.906
27.0, -31790.930842272144, -20695.61430163554, -67707.32315866032, -21067.681439838583, -32544.654017049554, 187500.0, -57203.45612805559, -18491.4640774088, 0.648, -0.578, 0.544, 192.0, 0.0, 0.0, 0.0, 0.0, 0.0, 0.0, 0.0, 0.0, 0.0, 1.6635930259107237E9, 0.0, 2022-09-19 18:10:25.910
28.0, -31752.351731342285, -20669.90979551194, -67756.98873484001, -21079.192588233065, -32535.288636122783, 187500.0, -57162.10540081327, -18483.797429060633, 0.648, -0.578, 0.544, 192.0, 0.0, 0.0, 0.0, 0.0, 0.0, 0.0, 0.0, 0.0, 0.0, 1.6635930259157853E9, 0.0, 2022-09-19 18:10:25.915
29.0, -31439.203791523432, -20620.73595771026, -67857.23630872206, -21118.106975329756, -32404.93326245943, 187500.0, -57147.73322912851, -18481.22697844827, 0.648, -0.578, 0.544, 192.0, 0.0, 0.0, 0.0, 0.0, 0.0, 0.0, 0.0, 0.0, 0.0, 1.6635930259197023E9, 0.0, 2022-09-19 18:10:25.919
30.0, -31213.205303335824, -20627.30737058012, -67888.01466083701, -21151.880461201723, -32311.502970636247, 187500.0, -57257.14501823724, -18501.38825194696, 0.648, -0.578, 0.544, 192.0, 0.0, 0.0, 0.0, 0.0, 0.0, 0.0, 0.0, 0.0, 0.0, 1.6635930259236348E9, 0.0, 2022-09-19 18:10:25.923
31.0, -31501.587510298195, -20691.27806321121, -67772.83612165882, -21115.89415262868, -32432.582370350647, 187500.0, -57313.359655542336, -18509.971321817797, 0.648, -0.578, 0.544, 192.0, 0.0, 0.0, 0.0, 0.0, 0.0, 0.0, 0.0, 0.0, 0.0, 1.6635930259277482E9, 0.0, 2022-09-19 18:10:25.927
32.0, -31716.723050680528, -20698.63178713701, -67732.02183628343, -21081.204245234043, -32524.71626099542, 187500.0, -57216.464843328584, -18496.537923400156, 0.648, -0.578, 0.544, 192.0, 0.0, 0.0, 0.0, 0.0, 0.0, 0.0, 0.0, 0.0, 0.0, 1.6635930259316819E9, 0.0, 2022-09-19 18:10:25.931
33.0, -31675.729951349495, -20667.965193744327, -67766.10824657777, -21081.874797567703, -32509.740592210364, 187500.0, -57158.305604255875, -18487.910150040407, 0.648, -0.578, 0.544, 192.0, 0.0, 0.0, 0.0, 0.0, 0.0, 0.0, 0.0, 0.0, 0.0, 1.6635930259346664E9, 0.0, 2022-09-19 18:10:25.934
34.0, -31365.733607498838, -20618.567838498097, -67865.10412277032, -21122.018530609435, -32384.36965756055, 187500.0, -57138.54666215738, -18493.14045824295, 0.652, -0.58, 0.54, 192.0, 20.0, 96.0, 237.0, 224.0, 16.0, 224.0, 0.0, 0.0, 0.0, 1.6635930259396627E9, 0.0, 2022-09-19 18:10:25.939
35.0, -31139.511601866678, -20626.74857696874, -67895.63660569627, -21154.294449602898, -32292.369877382505, 187500.0, -57252.07117224589, -18509.077252039584, 0.652, -0.58, 0.54, 192.0, 0.0, 0.0, 0.0, 0.0, 0.0, 0.0, 0.0, 0.0, 0.0, 1.6635930259437003E9, 0.0, 2022-09-19 18:10:25.943
36.0, -31430.754832119328, -20686.248920708767, -67771.56207222487, -21115.067138083832, -32417.40553586549, 187500.0, -57303.86016414883, -18517.056824810126, 0.652, -0.58, 0.54, 192.0, 0.0, 0.0, 0.0, 0.0, 0.0, 0.0, 0.0, 0.0, 0.0, 1.6635930259476676E9, 0.0, 2022-09-19 18:10:25.947
37.0, -31648.818451025305, -20679.118714227523, -67724.3328361908, -21071.525939884894, -32512.556912011736, 187500.0, -57199.186944864625, -18499.778926346175, 0.652, -0.58, 0.54, 192.0, 0.0, 0.0, 0.0, 0.0, 0.0, 0.0, 0.0, 0.0, 0.0, 1.663593025951664E9, 0.0, 2022-09-19 18:10:25.951
38.0, -31612.720383729982, -20656.342286627565, -67774.35604028178, -21079.974899289, -32502.76684794031, 187500.0, -57153.343516986795, -18491.575836131076, 0.652, -0.58, 0.54, 192.0, 0.0, 0.0, 0.0, 0.0, 0.0, 0.0, 0.0, 0.0, 0.0, 1.6635930259546924E9, 0.0, 2022-09-19 18:10:25.954
39.0, -31303.752220124272, -20617.092623364046, -67879.87862585529, -21123.3372835323, -32376.88182316802, 187500.0, -57149.34255472929, -18493.09575475404, 0.652, -0.58, 0.54, 192.0, 0.0, 0.0, 0.0, 0.0, 0.0, 0.0, 0.0, 0.0, 0.0, 1.6635930259587123E9, 0.0, 2022-09-19 18:10:25.958
40.0, -31072.54577547858, -20619.46190827631, -67905.31491104543, -21149.60058326728, -32281.439874343858, 187500.0, -57262.42002992869, -18504.65160663743, 0.652, -0.58, 0.54, 192.0, 0.0, 0.0, 0.0, 0.0, 0.0, 0.0, 0.0, 0.0, 0.0, 1.663593025962721E9, 0.0, 2022-09-19 18:10:25.962
41.0, -31352.143746870013, -20664.791246031673, -67771.36090652477, -21105.83586762379, -32396.394896077505, 187500.0, -57307.39173977277, -18506.99853980524, 0.652, -0.58, 0.54, 192.0, 0.0, 0.0, 0.0, 0.0, 0.0, 0.0, 0.0, 0.0, 0.0, 1.6635930259667177E9, 0.0, 2022-09-19 18:10:25.966
42.0, -31573.783644888837, -20663.89717625346, -67721.20359196706, -21068.21788170551, -32496.24013855936, 187500.0, -57201.24330535452, -18493.14045824295, 0.652, -0.58, 0.54, 192.0, 0.0, 0.0, 0.0, 0.0, 0.0, 0.0, 0.0, 0.0, 0.0, 1.6635930259717965E9, 0.0, 2022-09-19 18:10:25.971
43.0, -31541.15009798409, -20635.219888117303, -67761.749656409, -21068.910785783624, -32489.355801267127, 187500.0, -57154.30464199837, -18483.953891271816, 0.652, -0.58, 0.54, 192.0, 0.0, 0.0, 0.0, 0.0, 0.0, 0.0, 0.0, 0.0, 0.0, 1.6635930259757993E9, 0.0, 2022-09-19 18:10:25.975
44.0, -31238.015739681214, -20604.620349957986, -67860.23144247907, -21110.037995581388, -32366.711779440855, 187500.0, -57140.80418834736, -18487.03843200665, 0.652, -0.58, 0.54, 192.0, 0.0, 0.0, 0.0, 0.0, 0.0, 0.0, 0.0, 0.0, 0.0, 1.6635930259797142E9, 0.0, 2022-09-19 18:10:25.979
45.0, -31010.407925892825, -20626.70387347983, -67893.46848648411, -21146.292525087898, -32271.7168655058, 187500.0, -57254.57456762488, -18503.690481625854, 0.65, -0.5760000000000001, 0.544, 192.0, 20.0, 80.0, 238.0, 0.0, 17.0, 0.0, 0.0, 0.0, 0.0, 1.663593025983894E9, 0.0, 2022-09-19 18:10:25.983
46.0, -31295.035039786704, -20691.05454576666, -67769.63982220172, -21104.874742612214, -32391.723381486343, 187500.0, -57315.036036376485, -18506.506801427222, 0.65, -0.5760000000000001, 0.544, 192.0, 0.0, 0.0, 0.0, 0.0, 0.0, 0.0, 0.0, 0.0, 0.0, 1.6635930259877636E9, 0.0, 2022-09-19 18:10:25.987
47.0, -31516.831400016716, -20690.115772499536, -67718.00729250995, -21065.580375859783, -32491.792141412756, 187500.0, -57218.16357590719, -18488.893626796442, 0.65, -0.5760000000000001, 0.544, 192.0, 0.0, 0.0, 0.0, 0.0, 0.0, 0.0, 0.0, 0.0, 0.0, 1.663593025990765E9, 0.0, 2022-09-19 18:10:25.990
48.0, -31476.330039063698, -20658.309240139635, -67752.42897897113, -21070.0730764953, -32477.19645228344, 187500.0, -57161.591310690805, -18479.50589412521, 0.65, -0.5760000000000001, 0.544, 192.0, 0.0, 0.0, 0.0, 0.0, 0.0, 0.0, 0.0, 0.0, 0.0, 1.663593025994763E9, 0.0, 2022-09-19 18:10:25.994
49.0, -31170.826395848562, -20625.116899623503, -67850.10610224082, -21112.60844619375, -32351.333779255605, 187500.0, -57142.94995581508, -18484.378574416467, 0.65, -0.5760000000000001, 0.544, 192.0, 0.0, 0.0, 0.0, 0.0, 0.0, 0.0, 0.0, 0.0, 0.0, 1.6635930259998276E9, 0.0, 2022-09-19 18:10:25.999
50.0, -30940.044634347516, -20647.446292334356, -67890.49570447156, -21156.708438004072, -32258.57403976608, 187500.0, -57259.22373047158, -18510.17248751789, 0.65, -0.5760000000000001, 0.544, 192.0, 0.0, 0.0, 0.0, 0.0, 0.0, 0.0, 0.0, 0.0, 0.0, 1.6635930260038612E9, 0.0, 2022-09-19 18:10:26.003
51.0, -31218.70383247183, -20702.3868802055, -67762.33080176482, -21119.023396852423, -32375.87599466753, 187500.0, -57315.952457899155, -18516.721548643298, 0.65, -0.5760000000000001, 0.544, 192.0, 0.0, 0.0, 0.0, 0.0, 0.0, 0.0, 0.0, 0.0, 0.0, 1.6635930260078516E9, 0.0, 2022-09-19 18:10:26.007
52.0, -31443.36121599212, -20703.727984872818, -67719.46015589955, -21079.68432661108, -32476.771769138788, 187500.0, -57221.82926199785, -18503.37755720348, 0.65, -0.5760000000000001, 0.544, 192.0, 0.0, 0.0, 0.0, 0.0, 0.0, 0.0, 0.0, 0.0, 0.0, 1.6635930260108116E9, 0.0, 2022-09-19 18:10:26.010
53.0, -31412.64991911053, -20669.060429222638, -67755.33470575031, -21074.18579747508, -32469.41804521299, 187500.0, -57168.18507530512, -18488.334833185058, 0.65, -0.5760000000000001, 0.544, 192.0, 0.0, 0.0, 0.0, 0.0, 0.0, 0.0, 0.0, 0.0, 0.0, 1.6635930260148487E9, 0.0, 2022-09-19 18:10:26.014
54.0, -31108.93441545182, -20622.255876333224, -67855.38111393226, -21113.390757249686, -32343.7341861408, 187500.0, -57149.81194136285, -18491.061746008607, 0.65, -0.5760000000000001, 0.544, 192.0, 0.0, 0.0, 0.0, 0.0, 0.0, 0.0, 0.0, 0.0, 0.0, 1.6635930260188344E9, 0.0, 2022-09-19 18:10:26.018
55.0, -30872.609421325855, -20629.766062470208, -67894.2284457956, -21151.992219924, -32246.23587682675, 187500.0, -57261.347146194836, -18514.03933930866, 0.654, -0.578, 0.542, 192.0, 20.0, 112.0, 237.0, 240.0, 16.0, 240.0, 0.0, 0.0, 0.0, 1.6635930260228207E9, 0.0, 2022-09-19 18:10:26.022
56.0, -31155.873078807963, -20699.52585691522, -67777.08295310533, -21119.42572825262, -32367.06940735214, 187500.0, -57323.39558880277, -18525.66224642542, 0.654, -0.578, 0.542, 192.0, 0.0, 0.0, 0.0, 0.0, 0.0, 0.0, 0.0, 0.0, 0.0, 1.663593026027814E9, 0.0, 2022-09-19 18:10:26.027
57.0, -31383.88322399655, -20699.61526389304, -67730.56897289383, -21080.466637667017, -32466.266449244795, 187500.0, -57226.29961088891, -18512.787641619165, 0.654, -0.578, 0.542, 192.0, 0.0, 0.0, 0.0, 0.0, 0.0, 0.0, 0.0, 0.0, 0.0, 1.6635930260319252E9, 0.0, 2022-09-19 18:10:26.031
58.0, -31353.149575370502, -20661.86316750803, -67758.08397031832, -21075.21397772002, -32458.242172985338, 187500.0, -57162.37362174674, -18497.253179222727, 0.654, -0.578, 0.542, 192.0, 0.0, 0.0, 0.0, 0.0, 0.0, 0.0, 0.0, 0.0, 0.0, 1.6635930260358734E9, 0.0, 2022-09-19 18:10:26.035
59.0, -31050.059920556538, -20615.75151869673, -67848.47442489558, -21112.541390960385, -32331.887761579488, 187500.0, -57140.71478136955, -18495.19681873284, 0.654, -0.578, 0.542, 192.0, 0.0, 0.0, 0.0, 0.0, 0.0, 0.0, 0.0, 0.0, 0.0, 1.663593026038901E9, 0.0, 2022-09-19 18:10:26.038
60.0, -30817.355909032336, -20632.247106104747, -67893.11085857282, -21158.988315938514, -32240.312664546094, 187500.0, -57260.58718688336, -18518.599095177546, 0.654, -0.578, 0.542, 192.0, 0.0, 0.0, 0.0, 0.0, 0.0, 0.0, 0.0, 0.0, 0.0, 1.663593026043837E9, 0.0, 2022-09-19 18:10:26.043
61.0, -31097.37856356842, -20691.90391205596, -67774.71366819307, -21124.32076028833, -32361.6379334495, 187500.0, -57324.93785917018, -18524.5223074582, 0.654, -0.578, 0.542, 192.0, 0.0, 0.0, 0.0, 0.0, 0.0, 0.0, 0.0, 0.0, 0.0, 1.6635930260479207E9, 0.0, 2022-09-19 18:10:26.047
62.0, -31323.846438389595, -20683.767877074228, -67722.41058616765, -21076.04099226487, -32462.37724570957, 187500.0, -57221.784558508945, -18504.383385703968, 0.654, -0.578, 0.542, 192.0, 0.0, 0.0, 0.0, 0.0, 0.0, 0.0, 0.0, 0.0, 0.0, 1.6635930260518773E9, 0.0, 2022-09-19 18:10:26.051
63.0, -31292.755161852263, -20644.94289695536, -67750.2385080145, -21066.40739040463, -32453.034216527252, 187500.0, -57159.87022636774, -18490.4135454194, 0.654, -0.578, 0.542, 192.0, 0.0, 0.0, 0.0, 0.0, 0.0, 0.0, 0.0, 0.0, 0.0, 1.6635930260558896E9, 0.0, 2022-09-19 18:10:26.055
64.0, -30991.7665710171, -20615.885629163462, -67854.30823019841, -21109.79212639238, -32329.697290622866, 187500.0, -57156.80803737736, -18497.23082747827, 0.654, -0.578, 0.542, 192.0, 0.0, 0.0, 0.0, 0.0, 0.0, 0.0, 0.0, 0.0, 0.0, 1.6635930260588596E9, 0.0, 2022-09-19 18:10:26.058
65.0, -30752.066463478383, -20634.07994915008, -67894.76488766252, -21158.04954267139, -32232.869533642475, 187500.0, -57266.77862009747, -18522.13067080148, 0.646, -0.5760000000000001, 0.544, 192.0, 20.0, 48.0, 238.0, 0.0, 17.0, 0.0, 0.0, 0.0, 0.0, 1.6635930260629332E9, 0.0, 2022-09-19 18:10:26.062
66.0, -31032.156173247837, -20691.747449844774, -67766.73409542252, -21123.426690510118, -32351.624351933522, 187500.0, -57323.48499578059, -18530.51257497222, 0.646, -0.5760000000000001, 0.544, 192.0, 0.0, 0.0, 0.0, 0.0, 0.0, 0.0, 0.0, 0.0, 0.0, 1.6635930260669703E9, 0.0, 2022-09-19 18:10:26.066
67.0, -31262.62501032651, -20681.510350884244, -67713.84986804126, -21076.242157964964, -32451.626056626566, 187500.0, -57225.47259634407, -18516.09569979855, 0.646, -0.5760000000000001, 0.544, 192.0, 0.0, 0.0, 0.0, 0.0, 0.0, 0.0, 0.0, 0.0, 0.0, 1.663593026071946E9, 0.0, 2022-09-19 18:10:26.071
68.0, -31234.439460568366, -20641.411321331423, -67747.37748472423, -21069.089599739265, -32442.95357977791, 187500.0, -57164.452333981084, -18498.169600745394, 0.646, -0.5760000000000001, 0.544, 192.0, 0.0, 0.0, 0.0, 0.0, 0.0, 0.0, 0.0, 0.0, 0.0, 1.663593026075997E9, 0.0, 2022-09-19 18:10:26.075
69.0, -30941.02811110355, -20603.27924529067, -67846.84274755034, -21108.831001380804, -32321.807124830142, 187500.0, -57151.0412873079, -18496.60497863352, 0.646, -0.5760000000000001, 0.544, 192.0, 0.0, 0.0, 0.0, 0.0, 0.0, 0.0, 0.0, 0.0, 0.0, 1.6635930260789824E9, 0.0, 2022-09-19 18:10:26.078
70.0, -30700.165712853162, -20620.065405376605, -67886.4723904696, -21148.930030933625, -32221.872475370466, 187500.0, -57258.10614324882, -18516.721548643298, 0.646, -0.5760000000000001, 0.544, 192.0, 0.0, 0.0, 0.0, 0.0, 0.0, 0.0, 0.0, 0.0, 0.0, 1.6635930260830364E9, 0.0, 2022-09-19 18:10:26.083
71.0, -30979.204890633213, -20689.221702721323, -67766.37646751123, -21116.452946240064, -32341.78958437319, 187500.0, -57318.00881838904, -18531.205479050335, 0.646, -0.5760000000000001, 0.544, 192.0, 0.0, 0.0, 0.0, 0.0, 0.0, 0.0, 0.0, 0.0, 0.0, 1.6635930260869517E9, 0.0, 2022-09-19 18:10:26.086
72.0, -31208.779657933672, -20680.75039157276, -67708.15017320517, -21068.508454383427, -32439.80198380971, 187500.0, -57213.402654338206, -18513.10056604154, 0.646, -0.5760000000000001, 0.544, 192.0, 0.0, 0.0, 0.0, 0.0, 0.0, 0.0, 0.0, 0.0, 0.0, 1.6635930260909832E9, 0.0, 2022-09-19 18:10:26.090
73.0, -31184.684477410854, -20651.357847614032, -67747.22102251304, -21069.581338117285, -32433.43173663995, 187500.0, -57164.385278747715, -18502.908170569917, 0.646, -0.5760000000000001, 0.544, 192.0, 0.0, 0.0, 0.0, 0.0, 0.0, 0.0, 0.0, 0.0, 0.0, 1.6635930260949624E9, 0.0, 2022-09-19 18:10:26.094
74.0, -30895.944642537197, -20617.85258267553, -67851.89424179724, -21113.815440394337, -32315.280415449193, 187500.0, -57150.4377902076, -18509.926618328886, 0.646, -0.5760000000000001, 0.544, 192.0, 0.0, 0.0, 0.0, 0.0, 0.0, 0.0, 0.0, 0.0, 0.0, 1.663593026100001E9, 0.0, 2022-09-19 18:10:26.100
75.0, -30650.321322717828, -20627.75440546923, -67887.43351548119, -21150.114673389755, -32211.747135132213, 187500.0, -57248.696058833135, -18522.018912079206, 0.648, -0.5760000000000001, 0.54, 192.0, 20.0, 64.0, 238.0, 0.0, 16.0, 224.0, 0.0, 0.0, 0.0, 1.6635930261040099E9, 0.0, 2022-09-19 18:10:26.104
76.0, -30927.684119663732, -20697.38008944751, -67768.14225532321, -21121.727957931515, -32330.278435978704, 187500.0, -57314.03020787599, -18528.23269703778, 0.648, -0.5760000000000001, 0.54, 192.0, 0.0, 0.0, 0.0, 0.0, 0.0, 0.0, 0.0, 0.0, 0.0, 1.663593026106953E9, 0.0, 2022-09-19 18:10:26.106
77.0, -31161.058683521595, -20689.80284807716, -67708.44074588308, -21073.492893396964, -32429.855457527097, 187500.0, -57215.213145639085, -18506.640911893955, 0.648, -0.5760000000000001, 0.54, 192.0, 0.0, 0.0, 0.0, 0.0, 0.0, 0.0, 0.0, 0.0, 0.0, 1.6635930261109815E9, 0.0, 2022-09-19 18:10:26.110
78.0, -31137.54464835461, -20665.50650185424, -67748.2939062469, -21071.592995118262, -32422.814658023675, 187500.0, -57166.86632238225, -18497.05201352263, 0.648, -0.5760000000000001, 0.54, 192.0, 0.0, 0.0, 0.0, 0.0, 0.0, 0.0, 0.0, 0.0, 0.0, 1.6635930261160643E9, 0.0, 2022-09-19 18:10:26.116
79.0, -30848.49188905858, -20625.27336183469, -67847.02156150599, -21114.374234005718, -32304.328060666096, 187500.0, -57148.515540184446, -18501.879990324975, 0.648, -0.5760000000000001, 0.54, 192.0, 0.0, 0.0, 0.0, 0.0, 0.0, 0.0, 0.0, 0.0, 0.0, 1.6635930261199992E9, 0.0, 2022-09-19 18:10:26.119
80.0, -30595.380734846683, -20610.70002444983, -67884.08075381289, -21148.348885577787, -32199.09604777051, 187500.0, -57245.253890187014, -18516.162755031917, 0.648, -0.5760000000000001, 0.54, 192.0, 0.0, 0.0, 0.0, 0.0, 0.0, 0.0, 0.0, 0.0, 0.0, 1.6635930261229784E9, 0.0, 2022-09-19 18:10:26.122
81.0, -30862.01469445404, -20672.726115313308, -67765.88472913322, -21115.983559606502, -32311.368860169514, 187500.0, -57313.60552473134, -18525.86341212552, 0.648, -0.5760000000000001, 0.54, 192.0, 0.0, 0.0, 0.0, 0.0, 0.0, 0.0, 0.0, 0.0, 0.0, 1.663593026127128E9, 0.0, 2022-09-19 18:10:26.127
82.0, -31103.97232818274, -20680.102190983558, -67715.30273143086, -21073.470541652507, -32415.192713164415, 187500.0, -57222.38805560923, -18513.078214297082, 0.648, -0.5760000000000001, 0.54, 192.0, 0.0, 0.0, 0.0, 0.0, 0.0, 0.0, 0.0, 0.0, 0.0, 1.6635930261320329E9, 0.0, 2022-09-19 18:10:26.132
83.0, -31081.754694194162, -20641.768949242705, -67744.1364817782, -21067.524977627396, -32406.922567715952, 187500.0, -57163.826485136335, -18498.28135946767, 0.648, -0.5760000000000001, 0.54, 192.0, 0.0, 0.0, 0.0, 0.0, 0.0, 0.0, 0.0, 0.0, 0.0, 1.6635930261351576E9, 0.0, 2022-09-19 18:10:26.135
84.0, -30790.91379534171, -20596.238445787247, -67832.18000318766, -21102.863085611236, -32284.099731934042, 187500.0, -57139.59719414678, -18493.028699520673, 0.648, -0.5760000000000001, 0.54, 192.0, 0.0, 0.0, 0.0, 0.0, 0.0, 0.0, 0.0, 0.0, 0.0, 1.663593026139156E9, 0.0, 2022-09-19 18:10:26.139
85.0, -30538.204972530006, -20607.03433835916, -67870.49089318406, -21139.296429073387, -32177.92894577133, 187500.0, -57241.29763141843, -18506.95383631633, 0.65, -0.5720000000000001, 0.54, 192.0, 20.0, 80.0, 238.0, 32.0, 16.0, 224.0, 0.0, 0.0, 0.0, 1.6635930261431005E9, 0.0, 2022-09-19 18:10:26.143
86.0, -30807.901121127743, -20667.13817919948, -67755.31235400586, -21105.478239712505, -32290.38057212598, 187500.0, -57313.04673111996, -18514.307560242123, 0.65, -0.5720000000000001, 0.54, 192.0, 0.0, 0.0, 0.0, 0.0, 0.0, 0.0, 0.0, 0.0, 0.0, 1.6635930261473575E9, 0.0, 2022-09-19 18:10:26.147
87.0, -31046.461289699233, -20670.64740307896, -67706.54084760438, -21068.77667531689, -32394.115018143064, 187500.0, -57218.90118347421, -18502.37172870299, 0.65, -0.5720000000000001, 0.54, 192.0, 0.0, 0.0, 0.0, 0.0, 0.0, 0.0, 0.0, 0.0, 0.0, 1.6635930261514163E9, 0.0, 2022-09-19 18:10:26.151
88.0, -31023.036661510072, -20636.493937551255, -67729.60784788226, -21062.2723176804, -32386.895404683997, 187500.0, -57154.036421064906, -18485.250292450226, 0.65, -0.5720000000000001, 0.54, 192.0, 0.0, 0.0, 0.0, 0.0, 0.0, 0.0, 0.0, 0.0, 0.0, 1.6635930261551292E9, 0.0, 2022-09-19 18:10:26.155
89.0, -30734.252123147504, -20596.774887654174, -67819.86419199279, -21093.989443062477, -32265.793653225144, 187500.0, -57131.595269631776, -18481.584606359556, 0.65, -0.5720000000000001, 0.54, 192.0, 0.0, 0.0, 0.0, 0.0, 0.0, 0.0, 0.0, 0.0, 0.0, 1.66359302616013E9, 0.0, 2022-09-19 18:10:26.160
90.0, -30483.97964048143, -20615.483297763265, -67871.11674202881, -21142.023341896933, -32162.729759541722, 187500.0, -57242.50462561901, -18506.685615382867, 0.65, -0.5720000000000001, 0.54, 192.0, 0.0, 0.0, 0.0, 0.0, 0.0, 0.0, 0.0, 0.0, 0.0, 1.6635930261631255E9, 0.0, 2022-09-19 18:10:26.163
91.0, -30748.5572395989, -20676.637670592987, -67751.9372405931, -21108.003986835956, -32273.884984717966, 187500.0, -57310.565687485425, -18513.23467650827, 0.65, -0.5720000000000001, 0.54, 192.0, 0.0, 0.0, 0.0, 0.0, 0.0, 0.0, 0.0, 0.0, 0.0, 1.6635930261670566E9, 0.0, 2022-09-19 18:10:26.167
92.0, -30988.592623304445, -20677.263519437733, -67689.44176309607, -21060.305364168333, -32378.915831913455, 187500.0, -57205.71365424558, -18494.772135588188, 0.65, -0.5720000000000001, 0.54, 192.0, 0.0, 0.0, 0.0, 0.0, 0.0, 0.0, 0.0, 0.0, 0.0, 1.663593026171122E9, 0.0, 2022-09-19 18:10:26.171
93.0, -30971.538242285045, -20644.495862066255, -67721.36005417825, -21055.142111199155, -32376.971230145842, 187500.0, -57148.649650651176, -18483.4621528938, 0.65, -0.5720000000000001, 0.54, 192.0, 0.0, 0.0, 0.0, 0.0, 0.0, 0.0, 0.0, 0.0, 0.0, 1.6635930261750915E9, 0.0, 2022-09-19 18:10:26.175
94.0, -30687.022887113442, -20611.616445972497, -67820.49004083754, -21095.866989596725, -32261.39035956745, 187500.0, -57137.1385022567, -18488.245426207235, 0.65, -0.5720000000000001, 0.54, 192.0, 0.0, 0.0, 0.0, 0.0, 0.0, 0.0, 0.0, 0.0, 0.0, 1.6635930261790736E9, 0.0, 2022-09-19 18:10:26.179
95.0, -30433.174125334517, -20620.668902476897, -67874.06717229691, -21144.303219831374, -32158.102948439475, 187500.0, -57250.35008792282, -18512.29590324115, 0.652, -0.578, 0.538, 192.0, 20.0, 96.0, 237.0, 240.0, 16.0, 208.0, 0.0, 0.0, 0.0, 1.6635930261831439E9, 0.0, 2022-09-19 18:10:26.183
96.0, -30698.39992504119, -20685.3324991861, -67753.72538014954, -21110.820306637324, -32268.5652695376, 187500.0, -57315.84069917688, -18520.67780741189, 0.652, -0.578, 0.538, 192.0, 0.0, 0.0, 0.0, 0.0, 0.0, 0.0, 0.0, 0.0, 0.0, 1.663593026188144E9, 0.0, 2022-09-19 18:10:26.188
97.0, -30938.435308746735, -20687.545321887177, -67693.84505675377, -21061.959393258025, -32371.11507309855, 187500.0, -57213.42500608266, -18498.48252516777, 0.652, -0.578, 0.538, 192.0, 0.0, 0.0, 0.0, 0.0, 0.0, 0.0, 0.0, 0.0, 0.0, 1.66359302619111E9, 0.0, 2022-09-19 18:10:26.191
98.0, -30919.63749165982, -20652.676600536895, -67726.47860365851, -21053.219861176, -32366.01887536274, 187500.0, -57155.62339492123, -18479.61765284749, 0.652, -0.578, 0.538, 192.0, 0.0, 0.0, 0.0, 0.0, 0.0, 0.0, 0.0, 0.0, 0.0, 1.6635930261951363E9, 0.0, 2022-09-19 18:10:26.195
99.0, -30633.557514376345, -20613.717509951297, -67826.99439847402, -21090.23434999399, -32245.34180704854, 187500.0, -57141.29592672538, -18480.288205181147, 0.652, -0.578, 0.538, 192.0, 0.0, 0.0, 0.0, 0.0, 0.0, 0.0, 0.0, 0.0, 0.0, 1.6635930261991162E9, 0.0, 2022-09-19 18:10:26.199
100.0, -30375.73014208438, -20607.74959418173, -67874.93889033067, -21131.9874086365, -32137.673454007323, 187500.0, -57246.32677392087, -18500.09185076855, 0.652, -0.578, 0.538, 192.0, 0.0, 0.0, 0.0, 0.0, 0.0, 0.0, 0.0, 0.0, 0.0, 1.6635930262032087E9, 0.0, 2022-09-19 18:10:26.203
101.0, -30638.944284790075, -20659.203309917844, -67760.36384825276, -21104.539466445385, -32250.862687929, 187500.0, -57316.04186487697, -18512.586475919066, 0.652, -0.578, 0.538, 192.0, 0.0, 0.0, 0.0, 0.0, 0.0, 0.0, 0.0, 0.0, 0.0, 1.6635930262072096E9, 0.0, 2022-09-19 18:10:26.207
102.0, -30884.88052903182, -20670.75916180124, -67701.10937370174, -21058.852500778736, -32355.98294210231, 187500.0, -57215.28020087245, -18491.598187875534, 0.652, -0.578, 0.538, 192.0, 0.0, 0.0, 0.0, 0.0, 0.0, 0.0, 0.0, 0.0, 0.0, 1.663593026211174E9, 0.0, 2022-09-19 18:10:26.211
103.0, -30865.278049144516, -20632.872954949493, -67731.77596709442, -21053.44337862055, -32349.255067021262, 187500.0, -57156.60687167727, -18479.57294935858, 0.652, -0.578, 0.538, 192.0, 0.0, 0.0, 0.0, 0.0, 0.0, 0.0, 0.0, 0.0, 0.0, 1.663593026216278E9, 0.0, 2022-09-19 18:10:26.216
104.0, -30582.95316492953, -20597.870123132485, -67825.38507287325, -21096.1799140191, -32236.065833099587, 187500.0, -57139.6866011246, -18489.60888261901, 0.652, -0.578, 0.538, 192.0, 0.0, 0.0, 0.0, 0.0, 0.0, 0.0, 0.0, 0.0, 0.0, 1.663593026219202E9, 0.0, 2022-09-19 18:10:26.219
105.0, -30327.450374060914, -20610.118879093992, -67880.48212295558, -21147.298353588387, -32133.73954698319, 187500.0, -57248.67370708868, -18517.906191099428, 0.648, -0.5680000000000001, 0.542, 192.0, 20.0, 64.0, 238.0, 64.0, 16.0, 240.0, 0.0, 0.0, 0.0, 1.6635930262222097E9, 0.0, 2022-09-19 18:10:26.222
106.0, -30580.561528272814, -20658.108074439537, -67755.80409238387, -21109.12157405872, -32240.04444361263, 187500.0, -57310.81155667443, -18519.783737633676, 0.648, -0.5680000000000001, 0.542, 192.0, 0.0, 0.0, 0.0, 0.0, 0.0, 0.0, 0.0, 0.0, 0.0, 1.663593026227218E9, 0.0, 2022-09-19 18:10:26.227
107.0, -30825.760164947533, -20658.868033751016, -67696.48256259949, -21061.802931046837, -32345.03058731921, 187500.0, -57207.7029595021, -18499.354243201524, 0.648, -0.5680000000000001, 0.542, 192.0, 0.0, 0.0, 0.0, 0.0, 0.0, 0.0, 0.0, 0.0, 0.0, 1.6635930262312045E9, 0.0, 2022-09-19 18:10:26.231
108.0, -30809.264577539514, -20633.297638094144, -67731.35128394977, -21060.685343824072, -32338.883857594, 187500.0, -57152.18122627512, -18486.725507584277, 0.648, -0.5680000000000001, 0.542, 192.0, 0.0, 0.0, 0.0, 0.0, 0.0, 0.0, 0.0, 0.0, 0.0, 1.6635930262352345E9, 0.0, 2022-09-19 18:10:26.235
109.0, -30526.582065413248, -20593.310367263603, -67821.6076280603, -21097.252797752953, -32222.610082937492, 187500.0, -57132.48933940999, -18488.290129696146, 0.648, -0.5680000000000001, 0.542, 192.0, 0.0, 0.0, 0.0, 0.0, 0.0, 0.0, 0.0, 0.0, 0.0, 1.663593026239179E9, 0.0, 2022-09-19 18:10:26.239
110.0, -30259.03168428322, -20595.27732077567, -67867.98749780506, -21143.43150179762, -32109.666718204826, 187500.0, -57230.032352212955, -18508.272589239194, 0.648, -0.5680000000000001, 0.542, 192.0, 0.0, 0.0, 0.0, 0.0, 0.0, 0.0, 0.0, 0.0, 0.0, 1.6635930262441833E9, 0.0, 2022-09-19 18:10:26.244
111.0, -30515.69676586351, -20661.885519252482, -67749.29973474739, -21112.02730083791, -32215.77044913417, 187500.0, -57302.98844611507, -18515.33574048707, 0.648, -0.5680000000000001, 0.542, 192.0, 0.0, 0.0, 0.0, 0.0, 0.0, 0.0, 0.0, 0.0, 0.0, 1.6635930262471943E9, 0.0, 2022-09-19 18:10:26.247
112.0, -30759.28607693745, -20663.539548342174, -67685.66431828312, -21061.512358368916, -32318.20849397284, 187500.0, -57202.047968154904, -18496.537923400156, 0.648, -0.5680000000000001, 0.542, 192.0, 0.0, 0.0, 0.0, 0.0, 0.0, 0.0, 0.0, 0.0, 0.0, 1.6635930262502167E9, 0.0, 2022-09-19 18:10:26.250
113.0, -30742.164640684685, -20634.92931543938, -67723.14819373467, -21059.903032768136, -32313.20170321485, 187500.0, -57146.36977271674, -18487.396059917934, 0.648, -0.5680000000000001, 0.542, 192.0, 0.0, 0.0, 0.0, 0.0, 0.0, 0.0, 0.0, 0.0, 0.0, 1.6635930262553315E9, 0.0, 2022-09-19 18:10:26.255
114.0, -30459.862108214154, -20592.282187018656, -67815.86322973529, -21094.88351284069, -32192.301117456096, 187500.0, -57127.25903120745, -18484.69149883884, 0.648, -0.5680000000000001, 0.542, 192.0, 0.0, 0.0, 0.0, 0.0, 0.0, 0.0, 0.0, 0.0, 0.0, 1.6635930262592368E9, 0.0, 2022-09-19 18:10:26.259
115.0, -30193.563424773627, -20606.207323814313, -67871.76494261801, -21144.124405875733, -32080.7212091352, 187500.0, -57234.8603290153, -18509.39017646196, 0.646, -0.5700000000000001, 0.542, 192.0, 20.0, 48.0, 238.0, 48.0, 16.0, 240.0, 0.0, 0.0, 0.0, 1.6635930262632656E9, 0.0, 2022-09-19 18:10:26.263
116.0, -30455.190593622996, -20686.003051519758, -67767.18113031163, -21127.114728345245, -32190.8482540665, 187500.0, -57320.86984167932, -18533.150080817948, 0.646, -0.5700000000000001, 0.542, 192.0, 0.0, 0.0, 0.0, 0.0, 0.0, 0.0, 0.0, 0.0, 0.0, 1.663593026267234E9, 0.0, 2022-09-19 18:10:26.267
117.0, -30704.434896044124, -20698.520028414732, -67705.71383305953, -21077.627966121196, -32293.286298905172, 187500.0, -57225.65141029971, -18514.553429431133, 0.646, -0.5700000000000001, 0.542, 192.0, 0.0, 0.0, 0.0, 0.0, 0.0, 0.0, 0.0, 0.0, 0.0, 1.6635930262712355E9, 0.0, 2022-09-19 18:10:26.271
118.0, -30689.16865458115, -20672.055562979647, -67740.31433347634, -21073.425838163595, -32284.34560112305, 187500.0, -57171.023746850944, -18500.047147279638, 0.646, -0.5700000000000001, 0.542, 192.0, 0.0, 0.0, 0.0, 0.0, 0.0, 0.0, 0.0, 0.0, 0.0, 1.6635930262752924E9, 0.0, 2022-09-19 18:10:26.275
119.0, -30413.146962302562, -20631.867126449004, -67834.43752937765, -21114.441289239086, -32169.27882066713, 187500.0, -57144.42517094913, -18504.383385703968, 0.646, -0.5700000000000001, 0.542, 192.0, 0.0, 0.0, 0.0, 0.0, 0.0, 0.0, 0.0, 0.0, 0.0, 1.6635930262803304E9, 0.0, 2022-09-19 18:10:26.280
120.0, -30139.852182847524, -20623.641684489452, -67882.89611135675, -21155.56849903685, -32054.368502422396, 187500.0, -57238.61542208379, -18523.270609768704, 0.646, -0.5700000000000001, 0.542, 192.0, 0.0, 0.0, 0.0, 0.0, 0.0, 0.0, 0.0, 0.0, 0.0, 1.663593026283344E9, 0.0, 2022-09-19 18:10:26.283
121.0, -30384.53672939977, -20660.969097729816, -67760.0956273193, -21118.397548007673, -32153.677303037322, 187500.0, -57305.33537928288, -18527.71860691531, 0.646, -0.5700000000000001, 0.542, 192.0, 0.0, 0.0, 0.0, 0.0, 0.0, 0.0, 0.0, 0.0, 0.0, 1.663593026287287E9, 0.0, 2022-09-19 18:10:26.287
122.0, -30631.747023075466, -20664.634783820486, -67706.89847551567, -21073.716410841516, -32257.210583354306, 187500.0, -57218.52120381847, -18515.827478865085, 0.646, -0.5700000000000001, 0.542, 192.0, 0.0, 0.0, 0.0, 0.0, 0.0, 0.0, 0.0, 0.0, 0.0, 1.6635930262912538E9, 0.0, 2022-09-19 18:10:26.291
123.0, -30622.649863082155, -20639.198498630347, -67739.19674625358, -21067.21205320502, -32252.203792596316, 187500.0, -57164.42998223662, -18498.929560056873, 0.646, -0.5700000000000001, 0.542, 192.0, 0.0, 0.0, 0.0, 0.0, 0.0, 0.0, 0.0, 0.0, 0.0, 1.6635930262973197E9, 0.0, 2022-09-19 18:10:26.297
124.0, -30347.633999304056, -20604.0615563466, -67837.74558755703, -21104.964149590036, -32135.34887258397, 187500.0, -57153.678793153624, -18496.60497863352, 0.646, -0.5700000000000001, 0.542, 192.0, 0.0, 0.0, 0.0, 0.0, 0.0, 0.0, 0.0, 0.0, 0.0, 1.6635930263003268E9, 0.0, 2022-09-19 18:10:26.300
125.0, -30070.27120235815, -20604.150963324424, -67888.21582653711, -21145.487862287508, -32014.33652810294, 187500.0, -57253.792256568944, -18514.978112575784, 0.646, -0.578, 0.542, 192.0, 20.0, 48.0, 237.0, 240.0, 16.0, 240.0, 0.0, 0.0, 0.0, 1.6635930263033147E9, 0.0, 2022-09-19 18:10:26.303
126.0, -30315.46983903287, -20670.066257723127, -67771.74088618052, -21115.491821228483, -32113.958253140245, 187500.0, -57323.9320306697, -18527.38333074848, 0.646, -0.578, 0.542, 192.0, 0.0, 0.0, 0.0, 0.0, 0.0, 0.0, 0.0, 0.0, 0.0, 1.663593026307279E9, 0.0, 2022-09-19 18:10:26.307
127.0, -30566.72579845498, -20682.80675206265, -67712.66522558514, -21072.08473349628, -32218.340899746527, 187500.0, -57231.26169815799, -18514.03933930866, 0.646, -0.578, 0.542, 192.0, 0.0, 0.0, 0.0, 0.0, 0.0, 0.0, 0.0, 0.0, 0.0, 1.6635930263113124E9, 0.0, 2022-09-19 18:10:26.311
128.0, -30555.639333205145, -20642.238335876267, -67739.55437416487, -21063.188739203066, -32212.28357699914, 187500.0, -57164.13940955871, -18498.504876912222, 0.646, -0.578, 0.542, 192.0, 0.0, 0.0, 0.0, 0.0, 0.0, 0.0, 0.0, 0.0, 0.0, 1.663593026315339E9, 0.0, 2022-09-19 18:10:26.315
129.0, -30282.478664216836, -20599.32298652208, -67827.75435778551, -21104.092431556277, -32094.892215119868, 187500.0, -57139.32897321331, -18499.734222857263, 0.646, -0.578, 0.542, 192.0, 0.0, 0.0, 0.0, 0.0, 0.0, 0.0, 0.0, 0.0, 0.0, 1.6635930263193042E9, 0.0, 2022-09-19 18:10:26.319
130.0, -30007.082820782998, -20602.65339644592, -67874.6706693972, -21144.8396616983, -31974.32690552794, 187500.0, -57237.52018660548, -18514.08404279757, 0.646, -0.578, 0.542, 192.0, 0.0, 0.0, 0.0, 0.0, 0.0, 0.0, 0.0, 0.0, 0.0, 1.6635930263233583E9, 0.0, 2022-09-19 18:10:26.323
131.0, -30252.013236524253, -20667.920490255416, -67762.1966912981, -21118.106975329756, -32072.451063686738, 187500.0, -57310.81155667443, -18525.103452814037, 0.646, -0.578, 0.542, 192.0, 0.0, 0.0, 0.0, 0.0, 0.0, 0.0, 0.0, 0.0, 0.0, 1.663593026326346E9, 0.0, 2022-09-19 18:10:26.326
132.0, -30511.405230928092, -20680.23630145029, -67712.55346686285, -21082.008908034433, -32183.94156502981, 187500.0, -57228.46773010108, -18519.135537044473, 0.646, -0.578, 0.542, 192.0, 0.0, 0.0, 0.0, 0.0, 0.0, 0.0, 0.0, 0.0, 0.0, 1.6635930263303783E9, 0.0, 2022-09-19 18:10:26.330
133.0, -30502.196312212505, -20653.43655984838, -67746.61752541274, -21078.231463221488, -32182.46634989576, 187500.0, -57176.29875854239, -18508.004368305727, 0.646, -0.578, 0.542, 192.0, 0.0, 0.0, 0.0, 0.0, 0.0, 0.0, 0.0, 0.0, 0.0, 1.663593026334339E9, 0.0, 2022-09-19 18:10:26.334
134.0, -30228.54390484618, -20610.990597127748, -67832.42587237667, -21109.233332780997, -32064.44913917174, 187500.0, -57152.27063325294, -18502.8187635921, 0.646, -0.578, 0.542, 192.0, 0.0, 0.0, 0.0, 0.0, 0.0, 0.0, 0.0, 0.0, 0.0, 1.6635930263383389E9, 0.0, 2022-09-19 18:10:26.338
135.0, -29948.431843332273, -20614.142193095948, -67884.50543695754, -21156.283754859418, -31943.123870268333, 187500.0, -57247.46671288809, -18522.264781268215, 0.642, -0.5760000000000001, 0.544, 192.0, 20.0, 16.0, 238.0, 0.0, 17.0, 0.0, 0.0, 0.0, 0.0, 1.6635930263433914E9, 0.0, 2022-09-19 18:10:26.343
136.0, -30188.578985760094, -20667.85343502205, -67761.97317385355, -21120.699777686572, -32039.48224061516, 187500.0, -57321.98742890209, -18528.23269703778, 0.642, -0.5760000000000001, 0.544, 192.0, 0.0, 0.0, 0.0, 0.0, 0.0, 0.0, 0.0, 0.0, 0.0, 1.6635930263473997E9, 0.0, 2022-09-19 18:10:26.347
137.0, -30448.30625633076, -20673.508426369244, -67696.10258294376, -21074.811646319824, -32149.11754716844, 187500.0, -57229.540613834935, -18517.302693999136, 0.642, -0.5760000000000001, 0.544, 192.0, 0.0, 0.0, 0.0, 0.0, 0.0, 0.0, 0.0, 0.0, 0.0, 1.6635930263514524E9, 0.0, 2022-09-19 18:10:26.351
138.0, -30438.5832474927, -20635.89044045096, -67726.54565889188, -21066.83207354928, -32144.870715721932, 187500.0, -57167.42511599364, -18504.763365359708, 0.642, -0.5760000000000001, 0.544, 192.0, 0.0, 0.0, 0.0, 0.0, 0.0, 0.0, 0.0, 0.0, 0.0, 1.6635930263543673E9, 0.0, 2022-09-19 18:10:26.354
139.0, -30166.718979682802, -20590.73991665124, -67818.63484604775, -21100.44909721006, -32030.429784110762, 187500.0, -57148.69435414009, -18504.025757792682, 0.642, -0.5760000000000001, 0.544, 192.0, 0.0, 0.0, 0.0, 0.0, 0.0, 0.0, 0.0, 0.0, 0.0, 1.6635930263583877E9, 0.0, 2022-09-19 18:10:26.358
140.0, -29886.785732124536, -20595.009099842206, -67868.90391932773, -21141.55395526337, -31911.429096630705, 187500.0, -57249.76894256699, -18516.56508643211, 0.642, -0.5760000000000001, 0.544, 192.0, 0.0, 0.0, 0.0, 0.0, 0.0, 0.0, 0.0, 0.0, 0.0, 1.6635930263624148E9, 0.0, 2022-09-19 18:10:26.362
141.0, -30127.335205952553, -20665.104170454048, -67751.87018535974, -21112.250818282464, -32008.681536755746, 187500.0, -57327.95534467165, -18521.013083578717, 0.642, -0.5760000000000001, 0.544, 192.0, 0.0, 0.0, 0.0, 0.0, 0.0, 0.0, 0.0, 0.0, 0.0, 1.6635930263663971E9, 0.0, 2022-09-19 18:10:26.366
142.0, -30391.242252736363, -20686.94182478688, -67699.72356554552, -21076.93506204308, -32121.82606718851, 187500.0, -57251.13239897876, -18511.6700543964, 0.642, -0.5760000000000001, 0.544, 192.0, 0.0, 0.0, 0.0, 0.0, 0.0, 0.0, 0.0, 0.0, 0.0, 1.6635930263715978E9, 0.0, 2022-09-19 18:10:26.371
143.0, -30385.54255790026, -20649.972039457803, -67729.96547579355, -21069.06724799481, -32119.657947976346, 187500.0, -57189.93332266013, -18498.996615290238, 0.642, -0.5760000000000001, 0.544, 192.0, 0.0, 0.0, 0.0, 0.0, 0.0, 0.0, 0.0, 0.0, 0.0, 1.6635930263754125E9, 0.0, 2022-09-19 18:10:26.375
144.0, -30115.377022668963, -20609.448326760332, -67823.1051949388, -21105.16531529013, -32005.14996113181, 187500.0, -57169.973214861544, -18499.51070541271, 0.642, -0.5760000000000001, 0.544, 192.0, 0.0, 0.0, 0.0, 0.0, 0.0, 0.0, 0.0, 0.0, 0.0, 1.663593026379454E9, 0.0, 2022-09-19 18:10:26.379
145.0, -29830.839315752903, -20609.135402337957, -67875.92236708669, -21150.98639142351, -31883.77998873949, 187500.0, -57258.95550953812, -18516.56508643211, 0.642, -0.5760000000000001, 0.544, 192.0, 0.0, 0.0, 0.0, 0.0, 0.0, 0.0, 0.0, 0.0, 0.0, 1.663593026382475E9, 0.0, 2022-09-19 18:10:26.382
146.0, -30063.85625169948, -20662.556071586143, -67761.749656409, -21116.452946240064, -31978.797254419, 187500.0, -57337.745408743074, -18524.209383035824, 0.648, -0.578, 0.546, 192.0, 20.0, 64.0, 237.0, 240.0, 17.0, 16.0, 0.0, 0.0, 0.0, 1.6635930263864422E9, 0.0, 2022-09-19 18:10:26.386
147.0, -30322.689452491937, -20667.47345536631, -67700.84115276828, -21071.70475384054, -32089.52779645059, 187500.0, -57250.99828851203, -18513.122917785993, 0.648, -0.578, 0.546, 192.0, 0.0, 0.0, 0.0, 0.0, 0.0, 0.0, 0.0, 0.0, 0.0, 1.6635930263905327E9, 0.0, 2022-09-19 18:10:26.390
148.0, -30319.20258035691, -20634.88461195047, -67733.42999618412, -21071.1236084847, -32090.891252862366, 187500.0, -57190.76033720498, -18505.880952582473, 0.648, -0.578, 0.546, 192.0, 0.0, 0.0, 0.0, 0.0, 0.0, 0.0, 0.0, 0.0, 0.0, 1.6635930263944757E9, 0.0, 2022-09-19 18:10:26.394
149.0, -30058.313019074565, -20606.050861603126, -67824.1557269282, -21107.51224845794, -31983.312306798973, 187500.0, -57167.738040416014, -18507.557333416622, 0.648, -0.578, 0.546, 192.0, 0.0, 0.0, 0.0, 0.0, 0.0, 0.0, 0.0, 0.0, 0.0, 1.663593026399452E9, 0.0, 2022-09-19 18:10:26.399
150.0, -29774.199995303155, -20614.812745429605, -67880.12449504429, -21151.27696410143, -31862.545831506948, 187500.0, -57259.46959966059, -18523.650589424444, 0.648, -0.578, 0.546, 192.0, 0.0, 0.0, 0.0, 0.0, 0.0, 0.0, 0.0, 0.0, 0.0, 1.6635930264034636E9, 0.0, 2022-09-19 18:10:26.403
