%OpenBCI Raw EEG Data
%Number of channels = 8
%Sample Rate = 250 Hz
%Board = OpenBCI_GUI$BoardCytonSerial
Sample Index, EXG Channel 0, EXG Channel 1, EXG Channel 2, EXG Channel 3, EXG Channel 4, EXG Channel 5, EXG Channel 6, EXG Channel 7, Accel Channel 0, Accel Channel 1, Accel Channel 2, Other, Other, Other, Other, Other, Other, Other, Analog Channel 0, Analog Channel 1, Analog Channel 2, Timestamp, Other, Timestamp (Formatted)
9.0, 47341.26297727382, 56603.647065597426, -39427.359631938896, -1224.227395561623, -187500.02235174447, -24075.421580722523, 812.2623935058587, -26272.955688590493, 0.0, 0.0, 0.0, 192.0, 0.0, 0.0, 0.0, 0.0, 0.0, 0.0, 0.0, 0.0, 0.0, 1.6635912908417208E9, 0.0, 2022-09-19 17:41:30.841
10.0, 46669.86127732531, 56391.43960373874, -39346.245151310584, -1159.429688385688, -187500.02235174447, -24762.80477795658, -325.01671612462, -26143.74025389436, 0.0, 0.0, 0.0, 192.0, 0.0, 0.0, 0.0, 0.0, 0.0, 0.0, 0.0, 0.0, 0.0, 1.6635912908417668E9, 0.0, 2022-09-19 17:41:30.841
11.0, 46197.32304779566, 56383.12475480137, -39315.757371873544, -1136.5862055523642, -187500.02235174447, -25623.950436586194, -347.36846057992705, -26143.427329471986, 0.0, 0.0, 0.0, 192.0, 0.0, 0.0, 0.0, 0.0, 0.0, 0.0, 0.0, 0.0, 0.0, 1.6635912908418217E9, 0.0, 2022-09-19 17:41:30.841
2.0, 32038.230542925663, 47495.46766227099, -39700.85557709403, 6177.7092430244975, -149031.06081856022, -6162.7335742394425, 26998.359203143027, -25083.239386467863, 0.0, 0.0, 0.0, 192.0, 0.0, 0.0, 0.0, 0.0, 0.0, 0.0, 0.0, 0.0, 0.0, 1.663591290929016E9, 0.0, 2022-09-19 17:41:30.929
3.0, 32041.42684238277, 47477.8544876402, -39691.69136186736, 6212.354446930224, -149234.03700995888, -6065.950520747962, 26992.19012167336, -24990.010260344778, 0.0, 0.0, 0.0, 192.0, 0.0, 0.0, 0.0, 0.0, 0.0, 0.0, 0.0, 0.0, 0.0, 1.6635912909330072E9, 0.0, 2022-09-19 17:41:30.933
4.0, 31786.43814163663, 47445.53386515783, -39679.911992539404, 6276.883933172695, -149310.72584518502, -6454.245025425556, 26984.568176814104, -24870.763703675715, 0.0, 0.0, 0.0, 192.0, 0.0, 0.0, 0.0, 0.0, 0.0, 0.0, 0.0, 0.0, 0.0, 1.6635912909370239E9, 0.0, 2022-09-19 17:41:30.937
5.0, 31732.57043749934, 47456.93325483004, -39666.05391097712, 6267.831476668296, -149441.014163615, -6700.650656300862, 26996.839284520065, -24915.623654797513, 0.0, 0.0, 0.0, 192.0, 0.0, 0.0, 0.0, 0.0, 0.0, 0.0, 0.0, 0.0, 0.0, 1.6635912909400384E9, 0.0, 2022-09-19 17:41:30.940
6.0, 31838.070671328387, 47482.704816187004, -39672.42415814688, 6232.7615896179195, -149633.88736651986, -6678.611836267929, 26989.53026408318, -24979.728457895337, 0.0, 0.0, 0.0, 192.0, 0.0, 0.0, 0.0, 0.0, 0.0, 0.0, 0.0, 0.0, 0.0, 1.6635912909440267E9, 0.0, 2022-09-19 17:41:30.944
7.0, 32069.925316563287, 47512.007953167915, -39689.18796648836, 6182.626626804666, -149913.12771, -6376.885637865739, 26967.29027835015, -25061.446435623937, 0.0, 0.0, 0.0, 192.0, 0.0, 0.0, 0.0, 0.0, 0.0, 0.0, 0.0, 0.0, 0.0, 1.6635912909480479E9, 0.0, 2022-09-19 17:41:30.948
8.0, 32076.787302111068, 47494.86416517069, -39691.71371361181, 6213.762606830908, -150114.33811358668, -6266.177447578603, 26949.945324652832, -24975.526329937737, 0.676, -0.712, 0.28200000000000003, 192.0, 21.0, 32.0, 233.0, 192.0, 8.0, 208.0, 0.0, 0.0, 0.0, 1.663591290952063E9, 0.0, 2022-09-19 17:41:30.952
9.0, 31820.077517041867, 47457.11206878568, -39668.3114371671, 6278.135630862193, -150187.33891097773, -6646.626489952385, 26963.62459225948, -24861.554784960128, 0.676, -0.712, 0.28200000000000003, 192.0, 0.0, 0.0, 0.0, 0.0, 0.0, 0.0, 0.0, 0.0, 0.0, 1.6635912909570687E9, 0.0, 2022-09-19 17:41:30.957
10.0, 31759.61604829026, 47467.34916774621, -39660.73419579675, 6270.468982514022, -150319.99651431997, -6897.278952274198, 26963.222260859286, -24908.940483205377, 0.676, -0.712, 0.28200000000000003, 192.0, 0.0, 0.0, 0.0, 0.0, 0.0, 0.0, 0.0, 0.0, 0.0, 1.6635912909610653E9, 0.0, 2022-09-19 17:41:30.961
11.0, 31854.946238392145, 47494.104205859214, -39669.89841102343, 6236.449627453045, -150519.01644695003, -6882.16917302241, 26944.5585542391, -24973.671135147946, 0.676, -0.712, 0.28200000000000003, 192.0, 0.0, 0.0, 0.0, 0.0, 0.0, 0.0, 0.0, 0.0, 0.0, 1.6635912909650772E9, 0.0, 2022-09-19 17:41:30.965
12.0, 32084.230433014684, 47524.994316696444, -39690.819643833594, 6182.291350637835, -150796.73687180722, -6579.973587986659, 26922.922065606366, -25060.820586779188, 0.676, -0.712, 0.28200000000000003, 192.0, 0.0, 0.0, 0.0, 0.0, 0.0, 0.0, 0.0, 0.0, 0.0, 1.6635912909681997E9, 0.0, 2022-09-19 17:41:30.968
13.0, 32083.135197536376, 47500.20623209551, -39699.20154800434, 6197.825813034274, -151008.02791214324, -6475.501534402554, 26902.581978152037, -24987.50686496578, 0.676, -0.712, 0.28200000000000003, 192.0, 0.0, 0.0, 0.0, 0.0, 0.0, 0.0, 0.0, 0.0, 0.0, 1.6635912909721365E9, 0.0, 2022-09-19 17:41:30.972
14.0, 31834.852020126826, 47473.18297304904, -39667.32796041107, 6274.224075582514, -151073.96555828638, -6846.384030149464, 26920.172801038363, -24867.58975596306, 0.676, -0.712, 0.28200000000000003, 192.0, 0.0, 0.0, 0.0, 0.0, 0.0, 0.0, 0.0, 0.0, 0.0, 1.6635912909760923E9, 0.0, 2022-09-19 17:41:30.976
15.0, 31774.457606608583, 47484.26943829888, -39668.244381933735, 6264.85869465574, -151205.12559475013, -7094.35428313664, 26916.596521925512, -24919.021119954723, 0.676, -0.712, 0.28200000000000003, 192.0, 0.0, 0.0, 0.0, 0.0, 0.0, 0.0, 0.0, 0.0, 0.0, 1.6635912909801068E9, 0.0, 2022-09-19 17:41:30.980
16.0, 31866.278572830986, 47498.55220300582, -39674.43581514786, 6236.650793153142, -151402.11151863475, -7078.171620150998, 26908.102859032497, -24980.443713717905, 0.676, -0.712, 0.28200000000000003, 192.0, 0.0, 0.0, 0.0, 0.0, 0.0, 0.0, 0.0, 0.0, 0.0, 1.6635912909841115E9, 0.0, 2022-09-19 17:41:30.984
17.0, 32092.657040674338, 47513.751389235425, -39699.782693360175, 6182.850144249219, -151678.33437661343, -6781.608674717984, 26887.338088433517, -25062.027580979775, 0.676, -0.712, 0.28200000000000003, 192.0, 0.0, 0.0, 0.0, 0.0, 0.0, 0.0, 0.0, 0.0, 0.0, 1.6635912909891393E9, 0.0, 2022-09-19 17:41:30.989
18.0, 32097.529720965595, 47484.53765923234, -39703.269565495204, 6206.900621283129, -151888.95486461578, -6678.768298479116, 26869.32258240254, -24978.432056716927, 0.676, -0.718, 0.278, 192.0, 21.0, 32.0, 233.0, 144.0, 8.0, 176.0, 0.0, 0.0, 0.0, 1.6635912909931257E9, 0.0, 2022-09-19 17:41:30.993
19.0, 31836.371938749784, 47452.61936815016, -39680.627248361976, 6273.061784870838, -151969.53290337717, -7066.995747923344, 26872.7423993042, -24868.640287952458, 0.676, -0.718, 0.278, 192.0, 0.0, 0.0, 0.0, 0.0, 0.0, 0.0, 0.0, 0.0, 0.0, 1.6635912909961529E9, 0.0, 2022-09-19 17:41:30.996
20.0, 31770.702513540095, 47467.55033344631, -39677.967390771795, 6268.233808068491, -152106.23617246584, -7326.812425471834, 26874.351724904984, -24912.293244873676, 0.676, -0.718, 0.278, 192.0, 0.0, 0.0, 0.0, 0.0, 0.0, 0.0, 0.0, 0.0, 0.0, 1.6635912910011475E9, 0.0, 2022-09-19 17:41:31.001
21.0, 31869.676037988193, 47498.77572045037, -39689.45618742183, 6236.494330941955, -152299.44465153752, -7311.9261636646, 26859.26429739765, -24987.216292287863, 0.676, -0.718, 0.278, 192.0, 0.0, 0.0, 0.0, 0.0, 0.0, 0.0, 0.0, 0.0, 0.0, 1.663591291004226E9, 0.0, 2022-09-19 17:41:31.004
22.0, 32096.188616298274, 47521.17216839459, -39706.95760333033, 6182.112536682193, -152580.51783806298, -7018.62657292206, 26841.449957066772, -25077.15971197602, 0.676, -0.718, 0.278, 192.0, 0.0, 0.0, 0.0, 0.0, 0.0, 0.0, 0.0, 0.0, 0.0, 1.6635912910082216E9, 0.0, 2022-09-19 17:41:31.008
23.0, 32105.486941991683, 47496.1605663491, -39703.11310328401, 6206.475938138478, -152791.58536095446, -6908.991266368779, 26834.78913721909, -24995.70995518088, 0.676, -0.718, 0.278, 192.0, 0.0, 0.0, 0.0, 0.0, 0.0, 0.0, 0.0, 0.0, 0.0, 1.663591291014225E9, 0.0, 2022-09-19 17:41:31.014
24.0, 31842.585723708362, 47456.352109474195, -39680.984876273265, 6263.830514410796, -152867.26836768014, -7291.496669232449, 26841.807584978054, -24885.0241166382, 0.676, -0.718, 0.278, 192.0, 0.0, 0.0, 0.0, 0.0, 0.0, 0.0, 0.0, 0.0, 0.0, 1.6635912910172112E9, 0.0, 2022-09-19 17:41:31.017
25.0, 31779.01736247747, 47475.17227830557, -39674.45816689231, 6253.101677072248, -152993.35455815252, -7544.429009488704, 26845.473271068728, -24920.228114155307, 0.676, -0.718, 0.278, 192.0, 0.0, 0.0, 0.0, 0.0, 0.0, 0.0, 0.0, 0.0, 0.0, 1.6635912910212157E9, 0.0, 2022-09-19 17:41:31.021
26.0, 31874.906346190735, 47501.54733676283, -39687.80215833213, 6215.863670809707, -153186.04894710172, -7532.20260527165, 26826.02725339261, -24991.530178967736, 0.676, -0.718, 0.278, 192.0, 0.0, 0.0, 0.0, 0.0, 0.0, 0.0, 0.0, 0.0, 0.0, 1.6635912910242157E9, 0.0, 2022-09-19 17:41:31.024
27.0, 32109.30909029354, 47528.570595809295, -39699.20154800434, 6170.26611212088, -153457.04149687785, -7232.599822592714, 26808.05645085054, -25077.427932909482, 0.676, -0.718, 0.278, 192.0, 0.0, 0.0, 0.0, 0.0, 0.0, 0.0, 0.0, 0.0, 0.0, 1.6635912910282085E9, 0.0, 2022-09-19 17:41:31.028
28.0, 32125.7823259571, 47501.6143919962, -39704.43185620688, 6202.720845069986, -153664.8680168233, -7117.555393881249, 26785.30237499504, -24993.94416736891, 0.672, -0.722, 0.28200000000000003, 192.0, 21.0, 0.0, 233.0, 112.0, 8.0, 208.0, 0.0, 0.0, 0.0, 1.6635912910321903E9, 0.0, 2022-09-19 17:41:31.032
29.0, 31862.992866396056, 47455.45803969599, -39679.12968148347, 6267.38444177919, -153747.16713990775, -7507.995666026553, 26798.959290857234, -24881.939575903365, 0.672, -0.722, 0.28200000000000003, 192.0, 0.0, 0.0, 0.0, 0.0, 0.0, 0.0, 0.0, 0.0, 0.0, 1.663591291036224E9, 0.0, 2022-09-19 17:41:31.036
30.0, 31793.76951381797, 47460.420126965066, -39684.09176875255, 6251.134723560182, -153883.51278108513, -7772.685023866299, 26788.811598874523, -24935.583762596103, 0.672, -0.722, 0.28200000000000003, 192.0, 0.0, 0.0, 0.0, 0.0, 0.0, 0.0, 0.0, 0.0, 0.0, 1.663591291040254E9, 0.0, 2022-09-19 17:41:31.040
31.0, 31902.443695359674, 47492.65134246962, -39696.564042158614, 6222.6138976352095, -154069.59105367554, -7750.042706733073, 26771.28783122156, -24993.675946435447, 0.672, -0.722, 0.28200000000000003, 192.0, 0.0, 0.0, 0.0, 0.0, 0.0, 0.0, 0.0, 0.0, 0.0, 1.663591291045218E9, 0.0, 2022-09-19 17:41:31.045
32.0, 32134.052471405565, 47510.44333105604, -39718.11112381353, 6163.448830062012, -154345.25511804284, -7449.5905577648355, 26760.603697371924, -25086.68155511398, 0.672, -0.722, 0.28200000000000003, 192.0, 0.0, 0.0, 0.0, 0.0, 0.0, 0.0, 0.0, 0.0, 0.0, 1.663591291049228E9, 0.0, 2022-09-19 17:41:31.049
33.0, 32151.285666380605, 47478.99442660742, -39711.38324873248, 6193.802499032319, -154555.07094324482, -7325.873652204711, 26758.90496479332, -25006.729365197345, 0.672, -0.722, 0.28200000000000003, 192.0, 0.0, 0.0, 0.0, 0.0, 0.0, 0.0, 0.0, 0.0, 0.0, 1.6635912910522192E9, 0.0, 2022-09-19 17:41:31.052
34.0, 31890.753733009547, 47433.06159175177, -39684.18117573037, 6258.466095741523, -154637.45947330707, -7707.149709123339, 26772.87480507789, -24896.624672010505, 0.672, -0.722, 0.28200000000000003, 192.0, 0.0, 0.0, 0.0, 0.0, 0.0, 0.0, 0.0, 0.0, 0.0, 1.6635912910563285E9, 0.0, 2022-09-19 17:41:31.056
35.0, 31827.453592712118, 47445.77973434684, -39684.00236177473, 6245.815008379818, -154767.12194289232, -7962.630148247498, 26764.604659629425, -24941.417567898938, 0.672, -0.722, 0.28200000000000003, 192.0, 0.0, 0.0, 0.0, 0.0, 0.0, 0.0, 0.0, 0.0, 0.0, 1.6635912910602324E9, 0.0, 2022-09-19 17:41:31.060
36.0, 31924.393108414784, 47468.7573276469, -39691.736065356265, 6212.980295774973, -154955.4353899283, -7945.62047071701, 26755.932182780765, -25002.14725758401, 0.672, -0.722, 0.28200000000000003, 192.0, 0.0, 0.0, 0.0, 0.0, 0.0, 0.0, 0.0, 0.0, 0.0, 1.6635912910642507E9, 0.0, 2022-09-19 17:41:31.064
37.0, 32159.622867062437, 47492.83015642526, -39709.81862662061, 6164.477010306956, -155219.81182334566, -7634.260670454582, 26736.35205463792, -25079.14901723254, 0.672, -0.722, 0.28200000000000003, 192.0, 0.0, 0.0, 0.0, 0.0, 0.0, 0.0, 0.0, 0.0, 0.0, 1.6635912910682316E9, 0.0, 2022-09-19 17:41:31.068
38.0, 32178.33127717153, 47459.861333353685, -39717.5746819466, 6178.335091869247, -155431.41578810403, -7504.240572958061, 26713.1062404044, -25010.28329256574, 0.666, -0.714, 0.28200000000000003, 192.0, 20.0, 208.0, 233.0, 176.0, 8.0, 208.0, 0.0, 0.0, 0.0, 1.6635912910732737E9, 0.0, 2022-09-19 17:41:31.073
39.0, 31908.344555895874, 47418.64471657809, -39695.22293749129, 6245.256214768436, -155534.41262655408, -7919.80420587113, 26716.19078113923, -24888.93567191788, 0.666, -0.714, 0.28200000000000003, 192.0, 0.0, 0.0, 0.0, 0.0, 0.0, 0.0, 0.0, 0.0, 0.0, 1.6635912910772696E9, 0.0, 2022-09-19 17:41:31.077
40.0, 31831.901589858724, 47427.36189691567, -39694.37357120199, 6234.8179501078075, -155679.00606143547, -8203.917229642539, 26714.268531116075, -24933.102718961563, 0.666, -0.714, 0.28200000000000003, 192.0, 0.0, 0.0, 0.0, 0.0, 0.0, 0.0, 0.0, 0.0, 0.0, 1.6635912910802667E9, 0.0, 2022-09-19 17:41:31.080
41.0, 31934.674910864225, 47449.26660648187, -39713.14903654445, 6204.79955730433, -155859.67521186773, -8177.7433368853735, 26693.7496297061, -24998.883902893533, 0.666, -0.714, 0.28200000000000003, 192.0, 0.0, 0.0, 0.0, 0.0, 0.0, 0.0, 0.0, 0.0, 0.0, 1.6635912910852728E9, 0.0, 2022-09-19 17:41:31.085
42.0, 32188.255451709683, 47486.03522611085, -39726.694193684365, 6165.035803918338, -156097.1401449609, -7825.1445681029045, 26687.37938253634, -25073.225804951886, 0.666, -0.714, 0.28200000000000003, 192.0, 0.0, 0.0, 0.0, 0.0, 0.0, 0.0, 0.0, 0.0, 0.0, 1.6635912910883005E9, 0.0, 2022-09-19 17:41:31.088
43.0, 32218.542065446625, 47467.55033344631, -39706.30940274113, 6190.181516430559, -156302.01623463826, -7675.56669420799, 26682.797274923003, -24988.155065554987, 0.666, -0.714, 0.28200000000000003, 192.0, 0.0, 0.0, 0.0, 0.0, 0.0, 0.0, 0.0, 0.0, 0.0, 1.6635912910922973E9, 0.0, 2022-09-19 17:41:31.092
44.0, 31944.956713313666, 47415.06843746525, -39677.408597160415, 6251.626461938198, -156413.75260517033, -8099.668693502987, 26691.179179093742, -24871.81423566511, 0.666, -0.714, 0.28200000000000003, 192.0, 0.0, 0.0, 0.0, 0.0, 0.0, 0.0, 0.0, 0.0, 0.0, 1.66359129109631E9, 0.0, 2022-09-19 17:41:31.096
45.0, 31865.0715786304, 47419.87406252314, -39680.73900708425, 6246.217339780014, -156562.14583660912, -8391.269551666923, 26676.784655664524, -24915.243675141774, 0.666, -0.714, 0.28200000000000003, 192.0, 0.0, 0.0, 0.0, 0.0, 0.0, 0.0, 0.0, 0.0, 0.0, 1.663591291100323E9, 0.0, 2022-09-19 17:41:31.100
46.0, 31968.448396736196, 47450.31713847126, -39688.740931599255, 6218.009438277417, -156744.78194055342, -8365.766211243417, 26669.34152476091, -24983.125923052543, 0.666, -0.714, 0.28200000000000003, 192.0, 0.0, 0.0, 0.0, 0.0, 0.0, 0.0, 0.0, 0.0, 0.0, 1.6635912911053283E9, 0.0, 2022-09-19 17:41:31.105
47.0, 32221.55955094809, 47492.67369421407, -39700.76617011621, 6176.993987201928, -156976.5024753216, -8004.070282467638, 26658.433873466718, -25055.76909253229, 0.666, -0.714, 0.28200000000000003, 192.0, 0.0, 0.0, 0.0, 0.0, 0.0, 0.0, 0.0, 0.0, 0.0, 1.6635912911083095E9, 0.0, 2022-09-19 17:41:31.108
48.0, 32245.52062100418, 47467.86325786868, -39704.00717306223, 6190.896772253129, -157186.63122494594, -7855.609995795488, 26633.422271421226, -24990.099667322596, 0.67, -0.712, 0.276, 192.0, 20.0, 240.0, 233.0, 192.0, 8.0, 160.0, 0.0, 0.0, 0.0, 1.663591291112304E9, 0.0, 2022-09-19 17:41:31.112
49.0, 31957.60780067537, 47402.35029487018, -39685.23170771977, 6237.723676886997, -157312.71741541833, -8294.710015619996, 26637.26677146754, -24895.86471269902, 0.67, -0.712, 0.276, 192.0, 0.0, 0.0, 0.0, 0.0, 0.0, 0.0, 0.0, 0.0, 0.0, 1.6635912911163225E9, 0.0, 2022-09-19 17:41:31.116
50.0, 31884.15996839523, 47416.05191422128, -39673.16176571391, 6240.249424010447, -157449.19716706243, -8571.916350354713, 26654.70113214268, -24925.190201424386, 0.67, -0.712, 0.276, 192.0, 0.0, 0.0, 0.0, 0.0, 0.0, 0.0, 0.0, 0.0, 0.0, 1.6635912911203315E9, 0.0, 2022-09-19 17:41:31.120
51.0, 31994.801103449, 47452.88758908363, -39675.55340237062, 6217.607106877221, -157621.21619239048, -8532.353762668821, 26644.531088415515, -24977.001545071787, 0.67, -0.712, 0.276, 192.0, 0.0, 0.0, 0.0, 0.0, 0.0, 0.0, 0.0, 0.0, 0.0, 1.663591291124332E9, 0.0, 2022-09-19 17:41:31.124
52.0, 32250.14743210643, 47493.545412247826, -39692.89835606794, 6173.238894133437, -157847.08057011134, -8161.761839599829, 26622.291102682484, -25058.741874544845, 0.67, -0.712, 0.276, 192.0, 0.0, 0.0, 0.0, 0.0, 0.0, 0.0, 0.0, 0.0, 0.0, 1.663591291128399E9, 0.0, 2022-09-19 17:41:31.128
53.0, 32280.635211543467, 47467.9526648465, -39699.93915557137, 6183.36423437169, -158053.67774411174, -8001.1198521995375, 26599.760544271536, -25001.119077339063, 0.67, -0.712, 0.276, 192.0, 0.0, 0.0, 0.0, 0.0, 0.0, 0.0, 0.0, 0.0, 0.0, 1.6635912911333656E9, 0.0, 2022-09-19 17:41:31.133
54.0, 31992.253004581096, 47405.43483560501, -39674.815794803595, 6238.796560620852, -158186.20123698728, -8443.639688925707, 26611.226989177107, -24895.797657465657, 0.67, -0.712, 0.276, 192.0, 0.0, 0.0, 0.0, 0.0, 0.0, 0.0, 0.0, 0.0, 0.0, 1.6635912911363492E9, 0.0, 2022-09-19 17:41:31.136
55.0, 31915.40770714375, 47411.87213800814, -39674.27935293667, 6239.645926910153, -158327.374854967, -8722.768273683581, 26613.46216362264, -24926.106622947053, 0.67, -0.712, 0.276, 192.0, 0.0, 0.0, 0.0, 0.0, 0.0, 0.0, 0.0, 0.0, 0.0, 1.6635912911413596E9, 0.0, 2022-09-19 17:41:31.141
56.0, 32027.836981753946, 47451.43472569403, -39687.35512344303, 6224.200871491536, -158481.84776089762, -8655.690688573204, 26592.160951156733, -24972.017106058254, 0.67, -0.712, 0.276, 192.0, 0.0, 0.0, 0.0, 0.0, 0.0, 0.0, 0.0, 0.0, 0.0, 1.6635912911444197E9, 0.0, 2022-09-19 17:41:31.144
57.0, 32361.74969217178, 47542.98747098297, -39705.10240854054, 6213.360275430712, -158536.60953481312, -8008.831204036618, 26561.44965427514, -25010.37269954356, 0.67, -0.712, 0.276, 192.0, 0.0, 0.0, 0.0, 0.0, 0.0, 0.0, 0.0, 0.0, 0.0, 1.6635912911484177E9, 0.0, 2022-09-19 17:41:31.148
58.0, 32431.062451727685, 47516.25478461442, -39710.4221237209, 6200.172746202082, -158642.690913998, -7649.124580517362, 26548.150366324233, -24986.14340855401, 0.678, -0.712, 0.274, 192.0, 21.0, 48.0, 233.0, 192.0, 8.0, 144.0, 0.0, 0.0, 0.0, 1.6635912911523886E9, 0.0, 2022-09-19 17:41:31.152
59.0, 32029.736880032648, 47363.2794455623, -39677.43094890487, 6194.003664732417, -158985.38785998677, -8426.071217783836, 26566.29998282194, -24945.999675512277, 0.678, -0.712, 0.274, 192.0, 0.0, 0.0, 0.0, 0.0, 0.0, 0.0, 0.0, 0.0, 0.0, 1.663591291156436E9, 0.0, 2022-09-19 17:41:31.156
60.0, 31878.326163092395, 47344.61573894212, -39679.97904777277, 6192.573153087277, -159275.1335233609, -8969.620939447992, 26559.080369362877, -24974.118170037054, 0.678, -0.712, 0.274, 192.0, 0.0, 0.0, 0.0, 0.0, 0.0, 0.0, 0.0, 0.0, 0.0, 1.6635912911614072E9, 0.0, 2022-09-19 17:41:31.161
61.0, 32007.072211154966, 47428.457132393974, -39686.706922853824, 6210.186327718059, -159418.76583323072, -8902.610409570982, 26543.12122382179, -24974.207577014873, 0.678, -0.712, 0.274, 192.0, 0.0, 0.0, 0.0, 0.0, 0.0, 0.0, 0.0, 0.0, 0.0, 1.663591291164402E9, 0.0, 2022-09-19 17:41:31.164
62.0, 32385.80016920569, 47558.901913035144, -39695.55821365812, 6214.880194053673, -159416.374196574, -8172.669490894019, 26526.402118969218, -24997.676908692945, 0.678, -0.712, 0.274, 192.0, 0.0, 0.0, 0.0, 0.0, 0.0, 0.0, 0.0, 0.0, 0.0, 1.6635912911684203E9, 0.0, 2022-09-19 17:41:31.168
63.0, 32460.18677475295, 47533.55503482283, -39699.58152766008, 6195.255362421914, -159515.83945940013, -7791.192268275294, 26518.310787476395, -24984.33291725313, 0.678, -0.712, 0.274, 192.0, 0.0, 0.0, 0.0, 0.0, 0.0, 0.0, 0.0, 0.0, 0.0, 1.6635912911724336E9, 0.0, 2022-09-19 17:41:31.172
64.0, 32060.850508314434, 47388.112233652144, -39657.38143412846, 6194.696568810531, -159862.93969904658, -8571.961053843625, 26545.19993605613, -24937.327198663617, 0.678, -0.712, 0.274, 192.0, 0.0, 0.0, 0.0, 0.0, 0.0, 0.0, 0.0, 0.0, 0.0, 1.6635912911764455E9, 0.0, 2022-09-19 17:41:31.176
65.0, 31911.004413486055, 47371.2813700773, -39666.03155923266, 6198.675179323576, -160152.90887986528, -9120.47286277686, 26526.849153858326, -24953.42045467144, 0.678, -0.712, 0.274, 192.0, 0.0, 0.0, 0.0, 0.0, 0.0, 0.0, 0.0, 0.0, 0.0, 1.663591291180462E9, 0.0, 2022-09-19 17:41:31.180
66.0, 32022.58432180695, 47431.16169347307, -39695.06647528011, 6190.94147574204, -160312.90266667638, -9073.08716453161, 26497.68012734415, -24989.00443184429, 0.678, -0.712, 0.274, 192.0, 0.0, 0.0, 0.0, 0.0, 0.0, 0.0, 0.0, 0.0, 0.0, 1.663591291184449E9, 0.0, 2022-09-19 17:41:31.184
67.0, 32387.074218639642, 47544.19446518356, -39725.68836518388, 6187.387548373646, -160318.15532662338, -8350.589376758264, 26472.154435176188, -25025.214257861884, 0.678, -0.712, 0.274, 192.0, 0.0, 0.0, 0.0, 0.0, 0.0, 0.0, 0.0, 0.0, 0.0, 1.6635912911884634E9, 0.0, 2022-09-19 17:41:31.188
68.0, 32474.983629582362, 47521.39568583914, -39728.5270367297, 6170.109649909694, -160408.00933933372, -7952.773028942708, 26458.296353613896, -25013.18901934493, 0.678, -0.714, 0.272, 192.0, 21.0, 48.0, 233.0, 176.0, 8.0, 128.0, 0.0, 0.0, 0.0, 1.6635912911924613E9, 0.0, 2022-09-19 17:41:31.192
69.0, 32069.858261329922, 47375.818774201725, -39686.88573680946, 6170.288463865336, -160763.8938145511, -8747.0646199065, 26476.624784067248, -24976.532158438225, 0.678, -0.714, 0.272, 192.0, 0.0, 0.0, 0.0, 0.0, 0.0, 0.0, 0.0, 0.0, 0.0, 1.663591291195462E9, 0.0, 2022-09-19 17:41:31.195
70.0, 31921.26386419104, 47371.86251543314, -39676.38041691547, 6191.343807142235, -161052.4101319802, -9299.242114930406, 26487.532435361438, -24978.9461468394, 0.678, -0.714, 0.272, 192.0, 0.0, 0.0, 0.0, 0.0, 0.0, 0.0, 0.0, 0.0, 0.0, 1.6635912912004926E9, 0.0, 2022-09-19 17:41:31.200
71.0, 32043.30438891702, 47434.38034467463, -39680.359027428516, 6198.049330478827, -161199.3952035183, -9240.747599690867, 26469.09224618581, -24986.635146932025, 0.678, -0.714, 0.272, 192.0, 0.0, 0.0, 0.0, 0.0, 0.0, 0.0, 0.0, 0.0, 0.0, 1.6635912912044988E9, 0.0, 2022-09-19 17:41:31.204
72.0, 32405.961442704374, 47542.80865702732, -39714.55719644513, 6191.053234464316, -161200.42338376326, -8512.371303125776, 26425.975731131522, -25014.23955133433, 0.678, -0.714, 0.272, 192.0, 0.0, 0.0, 0.0, 0.0, 0.0, 0.0, 0.0, 0.0, 0.0, 1.6635912912084777E9, 0.0, 2022-09-19 17:41:31.208
73.0, 32491.47921699038, 47517.528834048375, -39713.372553989, 6176.189324401537, -161287.03639352755, -8106.329513350668, 26418.823172905824, -24997.56514997067, 0.678, -0.714, 0.272, 192.0, 0.0, 0.0, 0.0, 0.0, 0.0, 0.0, 0.0, 0.0, 0.0, 1.6635912912125108E9, 0.0, 2022-09-19 17:41:31.212
74.0, 32077.21198525572, 47361.51365775033, -39674.547573870135, 6171.4284028325565, -161653.69440957243, -8914.367427154473, 26442.76189121746, -24961.46708267535, 0.678, -0.714, 0.272, 192.0, 0.0, 0.0, 0.0, 0.0, 0.0, 0.0, 0.0, 0.0, 0.0, 1.6635912912165215E9, 0.0, 2022-09-19 17:41:31.216
75.0, 31922.09087873589, 47350.69541343396, -39675.732216326265, 6187.8569350072075, -161948.20099451556, -9481.006500840962, 26435.497574269484, -24965.713914121858, 0.678, -0.714, 0.272, 192.0, 0.0, 0.0, 0.0, 0.0, 0.0, 0.0, 0.0, 0.0, 0.0, 1.6635912912205272E9, 0.0, 2022-09-19 17:41:31.220
76.0, 32046.05365348502, 47420.00817298987, -39688.98680078826, 6196.350597900224, -162090.5145514625, -9418.28750589937, 26423.807611919357, -24983.975289341844, 0.678, -0.714, 0.272, 192.0, 0.0, 0.0, 0.0, 0.0, 0.0, 0.0, 0.0, 0.0, 0.0, 1.663591291223536E9, 0.0, 2022-09-19 17:41:31.223
77.0, 32413.784553263733, 47533.24211040045, -39712.76905688871, 6195.456528122012, -162083.33964149235, -8676.611921383372, 26398.192512773578, -25012.13848735553, 0.678, -0.714, 0.272, 192.0, 0.0, 0.0, 0.0, 0.0, 0.0, 0.0, 0.0, 0.0, 0.0, 1.6635912912275941E9, 0.0, 2022-09-19 17:41:31.227
78.0, 32496.486007748368, 47510.331572333766, -39720.547463959156, 6169.707318509498, -162178.46866589412, -8267.038555984325, 26378.992364286467, -25010.7526791993, 0.6880000000000001, -0.712, 0.262, 192.0, 21.0, 128.0, 233.0, 192.0, 8.0, 48.0, 0.0, 0.0, 0.0, 1.6635912912325275E9, 0.0, 2022-09-19 17:41:31.232
79.0, 32083.11284579192, 47364.10646010715, -39673.02765524717, 6176.971635457473, -162547.71948429578, -9081.536123935715, 26410.955358857558, -24959.097797763086, 0.6880000000000001, -0.712, 0.262, 192.0, 0.0, 0.0, 0.0, 0.0, 0.0, 0.0, 0.0, 0.0, 0.0, 1.6635912912365313E9, 0.0, 2022-09-19 17:41:31.236
80.0, 31923.968425270134, 47344.012241841825, -39676.96156227131, 6189.332150141257, -162846.51760417433, -9661.027450684005, 26398.728954640505, -24966.56328041116, 0.6880000000000001, -0.712, 0.262, 192.0, 0.0, 0.0, 0.0, 0.0, 0.0, 0.0, 0.0, 0.0, 0.0, 1.6635912912405744E9, 0.0, 2022-09-19 17:41:31.240
81.0, 32048.400586652828, 47415.113140954156, -39689.81381533311, 6195.791804288841, -162987.4230012206, -9600.588333676855, 26381.518111409918, -24980.242548017806, 0.6880000000000001, -0.712, 0.262, 192.0, 0.0, 0.0, 0.0, 0.0, 0.0, 0.0, 0.0, 0.0, 0.0, 1.6635912912435925E9, 0.0, 2022-09-19 17:41:31.243
82.0, 32427.530876103745, 47540.28290990388, -39711.98674583277, 6202.519679369889, -162968.17814924457, -8844.205301309265, 26353.936058752068, -24997.296929037206, 0.6880000000000001, -0.712, 0.262, 192.0, 0.0, 0.0, 0.0, 0.0, 0.0, 0.0, 0.0, 0.0, 0.0, 1.6635912912475622E9, 0.0, 2022-09-19 17:41:31.247
83.0, 32525.006833673342, 47517.97586893748, -39729.44345825237, 6177.373966857668, -163050.76784500692, -8410.872031554227, 26324.856439215713, -24992.692469679412, 0.6880000000000001, -0.712, 0.262, 192.0, 0.0, 0.0, 0.0, 0.0, 0.0, 0.0, 0.0, 0.0, 0.0, 1.6635912912515824E9, 0.0, 2022-09-19 17:41:31.251
84.0, 32108.63853795988, 47358.6749862045, -39673.47469013628, 6174.401184845113, -163426.81359372303, -9233.818558909721, 26356.50650936443, -24953.241640715798, 0.6880000000000001, -0.712, 0.262, 192.0, 0.0, 0.0, 0.0, 0.0, 0.0, 0.0, 0.0, 0.0, 0.0, 1.6635912912556927E9, 0.0, 2022-09-19 17:41:31.255
85.0, 31945.85078309188, 47343.878131375095, -39661.7623760417, 6185.621760561677, -163731.82549856015, -9825.80451080853, 26369.425817659598, -24960.394198941496, 0.6880000000000001, -0.712, 0.262, 192.0, 0.0, 0.0, 0.0, 0.0, 0.0, 0.0, 0.0, 0.0, 0.0, 1.6635912912606819E9, 0.0, 2022-09-19 17:41:31.260
86.0, 32066.796072339544, 47409.1899286735, -39690.30555371113, 6181.88901923764, -163879.65993638753, -9775.490734039633, 26335.406462598618, -24988.55739695518, 0.6880000000000001, -0.712, 0.262, 192.0, 0.0, 0.0, 0.0, 0.0, 0.0, 0.0, 0.0, 0.0, 0.0, 1.6635912912646642E9, 0.0, 2022-09-19 17:41:31.264
87.0, 32441.500716388313, 47528.995278953946, -39730.15871407494, 6177.552780813311, -163863.9690117799, -9018.325390616106, 26292.759334177892, -25016.51942926877, 0.6880000000000001, -0.712, 0.262, 192.0, 0.0, 0.0, 0.0, 0.0, 0.0, 0.0, 0.0, 0.0, 0.0, 1.663591291268641E9, 0.0, 2022-09-19 17:41:31.268
88.0, 32563.876517281118, 47521.306278861324, -39722.24619653776, 6171.786030743841, -163925.70452996547, -8552.02329778949, 26288.177226564556, -24989.764391155768, 0.6880000000000001, -0.712, 0.262, 192.0, 0.0, 0.0, 0.0, 0.0, 0.0, 0.0, 0.0, 0.0, 0.0, 1.6635912912716284E9, 0.0, 2022-09-19 17:41:31.271
89.0, 32146.010654689155, 47358.78674492678, -39671.261867435205, 6159.827847460252, -164305.4383165167, -9379.753098458421, 26331.494907318942, -24956.41558842845, 0.68, -0.714, 0.27, 192.0, 21.0, 64.0, 233.0, 176.0, 8.0, 112.0, 0.0, 0.0, 0.0, 1.663591291275611E9, 0.0, 2022-09-19 17:41:31.275
90.0, 31982.552347487494, 47341.5759016962, -39653.24636140423, 6184.705339039009, -164610.47257309826, -9979.53980917213, 26325.772860738383, -24934.55558235116, 0.68, -0.714, 0.27, 192.0, 0.0, 0.0, 0.0, 0.0, 0.0, 0.0, 0.0, 0.0, 0.0, 1.6635912912796195E9, 0.0, 2022-09-19 17:41:31.279
91.0, 32105.30812803604, 47406.75358852787, -39687.57864088758, 6180.503211081411, -164754.2389934348, -9924.420407345344, 26266.093703042712, -24961.623544886537, 0.68, -0.714, 0.27, 192.0, 0.0, 0.0, 0.0, 0.0, 0.0, 0.0, 0.0, 0.0, 0.0, 1.6635912912836368E9, 0.0, 2022-09-19 17:41:31.283
92.0, 32495.14490308105, 47539.79117152586, -39706.24234750776, 6188.169859429581, -164718.1856296284, -9144.724505510869, 26259.67875238404, -24980.354306740082, 0.68, -0.714, 0.27, 192.0, 0.0, 0.0, 0.0, 0.0, 0.0, 0.0, 0.0, 0.0, 0.0, 1.6635912912886405E9, 0.0, 2022-09-19 17:41:31.288
93.0, 32611.195160293006, 47528.03415394237, -39700.341486971556, 6170.93666445454, -164784.145627516, -8673.728546348637, 26285.62912769665, -24971.972402569343, 0.68, -0.714, 0.27, 192.0, 0.0, 0.0, 0.0, 0.0, 0.0, 0.0, 0.0, 0.0, 0.0, 1.6635912912926247E9, 0.0, 2022-09-19 17:41:31.292
94.0, 32183.85215805199, 47355.72455593641, -39660.913009752396, 6158.442039304023, -165175.56937641735, -9518.535079781423, 26302.59410173823, -24929.83936427109, 0.68, -0.714, 0.27, 192.0, 0.0, 0.0, 0.0, 0.0, 0.0, 0.0, 0.0, 0.0, 0.0, 1.6635912912966657E9, 0.0, 2022-09-19 17:41:31.296
95.0, 32009.62031002287, 47327.00256431133, -39669.33961741205, 6165.974577185461, -165488.78437146955, -10138.058380849168, 26276.308450258788, -24942.669265588436, 0.68, -0.714, 0.27, 192.0, 0.0, 0.0, 0.0, 0.0, 0.0, 0.0, 0.0, 0.0, 0.0, 1.6635912912996666E9, 0.0, 2022-09-19 17:41:31.299
96.0, 32139.30513135256, 47405.188966416, -39681.23074546227, 6180.883190737151, -165623.0960039015, -10080.681452832396, 26260.1481390176, -24958.203727984874, 0.68, -0.714, 0.27, 192.0, 0.0, 0.0, 0.0, 0.0, 0.0, 0.0, 0.0, 0.0, 0.0, 1.6635912913036695E9, 0.0, 2022-09-19 17:41:31.303
97.0, 32527.33141509669, 47539.612357570215, -39706.845844608055, 6194.22718217697, -165588.85313139597, -9299.97972249743, 26233.080176482224, -24975.571033426648, 0.68, -0.714, 0.27, 192.0, 0.0, 0.0, 0.0, 0.0, 0.0, 0.0, 0.0, 0.0, 0.0, 1.6635912913078973E9, 0.0, 2022-09-19 17:41:31.307
98.0, 32643.918114175573, 47522.40151433963, -39713.59607143355, 6174.401184845113, -165654.56726009457, -8819.819548108524, 26211.868370994136, -24976.755675882778, 0.68, -0.714, 0.27, 192.0, 0.0, 0.0, 0.0, 0.0, 0.0, 0.0, 0.0, 0.0, 0.0, 1.6635912913117204E9, 0.0, 2022-09-19 17:41:31.311
99.0, 32224.80055389411, 47362.36302403963, -39671.30657092411, 6164.0299754178495, -166037.7432152919, -9659.708697761143, 26247.608810378173, -24951.386445926008, 0.672, -0.72, 0.26, 192.0, 21.0, 0.0, 233.0, 128.0, 8.0, 32.0, 0.0, 0.0, 0.0, 1.663591291316689E9, 0.0, 2022-09-19 17:41:31.316
100.0, 32044.086699972955, 47335.09389580416, -39672.938248269355, 6172.277769121858, -166354.9144691127, -10289.93848442298, 26235.76238581686, -24956.32618145063, 0.672, -0.72, 0.26, 192.0, 0.0, 0.0, 0.0, 0.0, 0.0, 0.0, 0.0, 0.0, 0.0, 1.6635912913207023E9, 0.0, 2022-09-19 17:41:31.320
101.0, 32164.853175264976, 47403.222012903934, -39689.05385602163, 6175.675234279065, -166497.4962469931, -10236.249594241333, 26207.152152914066, -24978.208539272375, 0.672, -0.72, 0.26, 192.0, 0.0, 0.0, 0.0, 0.0, 0.0, 0.0, 0.0, 0.0, 0.0, 1.6635912913247185E9, 0.0, 2022-09-19 17:41:31.324
102.0, 32547.96207522894, 47525.016668440905, -39720.547463959156, 6170.444926076523, -166464.57212741044, -9448.037677769385, 26163.208623314935, -25001.029670361244, 0.672, -0.72, 0.26, 192.0, 0.0, 0.0, 0.0, 0.0, 0.0, 0.0, 0.0, 0.0, 0.0, 1.66359129132873E9, 0.0, 2022-09-19 17:41:31.328
103.0, 32666.158099908604, 47498.373389050175, -39748.06246138364, 6136.783198926831, -166530.55447704252, -8947.939747326345, 26114.97355878038, -25002.23666456183, 0.672, -0.72, 0.26, 192.0, 0.0, 0.0, 0.0, 0.0, 0.0, 0.0, 0.0, 0.0, 0.0, 1.6635912913317213E9, 0.0, 2022-09-19 17:41:31.331
104.0, 32247.778147194167, 47327.583709667175, -39681.72248384029, 6136.090294848716, -166919.11720265355, -9788.208876634702, 26189.36016432764, -24954.85096631658, 0.672, -0.72, 0.26, 192.0, 0.0, 0.0, 0.0, 0.0, 0.0, 0.0, 0.0, 0.0, 0.0, 1.6635912913357005E9, 0.0, 2022-09-19 17:41:31.335
105.0, 32084.00691557013, 47316.966631050906, -39658.07433820657, 6161.213655616481, -167228.2641802149, -10411.48727077094, 26221.41256587655, -24944.926791778424, 0.672, -0.72, 0.26, 192.0, 0.0, 0.0, 0.0, 0.0, 0.0, 0.0, 0.0, 0.0, 0.0, 1.6635912913397374E9, 0.0, 2022-09-19 17:41:31.339
106.0, 32200.012469293175, 47386.2346871179, -39687.131605998475, 6163.895864951118, -167372.9470220741, -10358.357174200675, 26181.022963645813, -24971.637126402515, 0.672, -0.72, 0.26, 192.0, 0.0, 0.0, 0.0, 0.0, 0.0, 0.0, 0.0, 0.0, 0.0, 1.6635912913447711E9, 0.0, 2022-09-19 17:41:31.344
107.0, 32587.25644198137, 47516.768874736896, -39711.2714900102, 6177.485725579944, -167330.72457679803, -9552.040344719928, 26133.614913656107, -24991.507827223282, 0.672, -0.72, 0.26, 192.0, 0.0, 0.0, 0.0, 0.0, 0.0, 0.0, 0.0, 0.0, 0.0, 1.663591291348761E9, 0.0, 2022-09-19 17:41:31.348
108.0, 32713.588501642767, 47499.46862452848, -39713.21609177782, 6154.910463680085, -167386.98391759206, -9027.109626187043, 26136.207716012923, -24988.110362066076, 0.672, -0.72, 0.26, 192.0, 0.0, 0.0, 0.0, 0.0, 0.0, 0.0, 0.0, 0.0, 0.0, 1.6635912913527448E9, 0.0, 2022-09-19 17:41:31.352
109.0, 32281.596336555045, 47332.478741702886, -39659.34838764052, 6145.679193220043, -167782.22981479525, -9874.598368954465, 26170.428236773998, -24950.80530057017, 0.672, -0.722, 0.264, 192.0, 21.0, 0.0, 233.0, 112.0, 8.0, 64.0, 0.0, 0.0, 0.0, 1.6635912913557837E9, 0.0, 2022-09-19 17:41:31.355
110.0, 32091.20417728474, 47297.520613374785, -39673.765262814195, 6160.543103282822, -168103.49143785136, -10519.379141256708, 26140.141623037056, -24951.341742437096, 0.672, -0.722, 0.264, 192.0, 0.0, 0.0, 0.0, 0.0, 0.0, 0.0, 0.0, 0.0, 0.0, 1.6635912913597622E9, 0.0, 2022-09-19 17:41:31.359
111.0, 32200.548911160102, 47351.2765587898, -39697.21224274782, 6161.705393994498, -168252.13053847916, -10471.524056377895, 26115.040614013746, -24966.98796355581, 0.672, -0.722, 0.264, 192.0, 0.0, 0.0, 0.0, 0.0, 0.0, 0.0, 0.0, 0.0, 0.0, 1.6635912913637648E9, 0.0, 2022-09-19 17:41:31.363
112.0, 32588.754008859876, 47476.714548672986, -39710.57858593209, 6170.042594676327, -168203.11316288868, -9655.10423840335, 26092.040668969235, -24991.28430977873, 0.672, -0.722, 0.264, 192.0, 0.0, 0.0, 0.0, 0.0, 0.0, 0.0, 0.0, 0.0, 0.0, 1.663591291367768E9, 0.0, 2022-09-19 17:41:31.367
113.0, 32725.05494654834, 47475.70872017249, -39705.303574240635, 6155.625719502655, -168246.67671283206, -9109.699321949402, 26100.422573139975, -24980.242548017806, 0.672, -0.722, 0.264, 192.0, 0.0, 0.0, 0.0, 0.0, 0.0, 0.0, 0.0, 0.0, 0.0, 1.663591291371796E9, 0.0, 2022-09-19 17:41:31.371
114.0, 32284.747932523245, 47302.54975587723, -39657.38143412846, 6143.354611796691, -168649.99158978363, -9961.099619996503, 26131.044463043745, -24948.815995313646, 0.672, -0.722, 0.264, 192.0, 0.0, 0.0, 0.0, 0.0, 0.0, 0.0, 0.0, 0.0, 0.0, 1.6635912913767767E9, 0.0, 2022-09-19 17:41:31.376
115.0, 32087.270270260608, 47272.26314214029, -39665.29395166563, 6149.255472332892, -168977.75757047624, -10589.630674079737, 26112.201942467924, -24958.114321007055, 0.672, -0.722, 0.264, 192.0, 0.0, 0.0, 0.0, 0.0, 0.0, 0.0, 0.0, 0.0, 0.0, 1.6635912913807857E9, 0.0, 2022-09-19 17:41:31.380
116.0, 32200.459504182283, 47337.88786386107, -39690.23849847776, 6153.301138079302, -169118.68531926695, -10504.068196304823, 26077.757904262297, -24979.32612649514, 0.672, -0.722, 0.264, 192.0, 0.0, 0.0, 0.0, 0.0, 0.0, 0.0, 0.0, 0.0, 0.0, 1.6635912913838344E9, 0.0, 2022-09-19 17:41:31.383
117.0, 32586.898814070086, 47468.73497590244, -39720.03337383668, 6162.6218155171655, -169069.08679832064, -9654.299575602958, 26039.894049155006, -24997.22987380384, 0.672, -0.722, 0.264, 192.0, 0.0, 0.0, 0.0, 0.0, 0.0, 0.0, 0.0, 0.0, 0.0, 1.6635912913878443E9, 0.0, 2022-09-19 17:41:31.387
118.0, 32721.679833135586, 47463.25879851089, -39719.54163545867, 6139.353649539191, -169115.6231302766, -9072.684833131414, 26030.930999628425, -24990.457295233882, 0.672, -0.722, 0.264, 192.0, 0.0, 0.0, 0.0, 0.0, 0.0, 0.0, 0.0, 0.0, 0.0, 1.6635912913918128E9, 0.0, 2022-09-19 17:41:31.391
119.0, 32289.57590932559, 47306.30484894572, -39660.28716090765, 6133.810416914274, -169513.79710600342, -9903.29800883508, 26078.897843229515, -24958.270783218242, 0.672, -0.712, 0.268, 192.0, 21.0, 0.0, 233.0, 192.0, 8.0, 96.0, 0.0, 0.0, 0.0, 1.6635912913958337E9, 0.0, 2022-09-19 17:41:31.395
120.0, 32085.102151048442, 47269.82680199466, -39671.32892266857, 6141.857044918185, -169850.3920257559, -10551.856225950269, 26058.960087175383, -24968.753751367778, 0.672, -0.712, 0.268, 192.0, 0.0, 0.0, 0.0, 0.0, 0.0, 0.0, 0.0, 0.0, 0.0, 1.6635912913998418E9, 0.0, 2022-09-19 17:41:31.399
121.0, 32202.739382116724, 47340.79359064026, -39684.20352747483, 6162.286539350336, -169989.12930359, -10472.440477900564, 26044.386749790523, -24974.78872237071, 0.672, -0.712, 0.268, 192.0, 0.0, 0.0, 0.0, 0.0, 0.0, 0.0, 0.0, 0.0, 0.0, 1.663591291404864E9, 0.0, 2022-09-19 17:41:31.404
122.0, 32596.30889848577, 47481.27430454187, -39712.56789118861, 6177.552780813311, -169931.84178255103, -9617.016865851507, 25995.70465036686, -24986.031649831733, 0.672, -0.712, 0.268, 192.0, 0.0, 0.0, 0.0, 0.0, 0.0, 0.0, 0.0, 0.0, 0.0, 1.6635912914088593E9, 0.0, 2022-09-19 17:41:31.408
123.0, 32736.38728098718, 47470.65722592559, -39719.4745802253, 6149.680155477543, -169973.88541387147, -9024.561527319138, 25980.75133332626, -24988.37858299954, 0.672, -0.712, 0.268, 192.0, 0.0, 0.0, 0.0, 0.0, 0.0, 0.0, 0.0, 0.0, 0.0, 1.6635912914118657E9, 0.0, 2022-09-19 17:41:31.411
124.0, 32288.637136058467, 47287.57408709217, -39669.47372787878, 6135.710315192976, -170387.90677641713, -9876.81119165554, 26028.896990882993, -24957.33200995112, 0.672, -0.712, 0.268, 192.0, 0.0, 0.0, 0.0, 0.0, 0.0, 0.0, 0.0, 0.0, 0.0, 1.6635912914158945E9, 0.0, 2022-09-19 17:41:31.415
125.0, 32084.49865394815, 47253.420621564466, -39661.09182370804, 6151.512998522878, -170723.54057115802, -10537.75227519897, 26020.42567973443, -24961.198861741887, 0.672, -0.712, 0.268, 192.0, 0.0, 0.0, 0.0, 0.0, 0.0, 0.0, 0.0, 0.0, 0.0, 1.6635912914198823E9, 0.0, 2022-09-19 17:41:31.419
126.0, 32203.812265850578, 47334.51275044832, -39695.62526889149, 6155.513960780378, -170863.9765815707, -10465.109105719222, 25974.448141389865, -24985.986946342822, 0.672, -0.712, 0.268, 192.0, 0.0, 0.0, 0.0, 0.0, 0.0, 0.0, 0.0, 0.0, 0.0, 1.6635912914238963E9, 0.0, 2022-09-19 17:41:31.423
127.0, 32605.853093368187, 47480.44728999702, -39704.0742282956, 6175.876399979163, -170805.6161767979, -9607.025636079983, 25962.355847639545, -24980.80134162919, 0.672, -0.712, 0.268, 192.0, 0.0, 0.0, 0.0, 0.0, 0.0, 0.0, 0.0, 0.0, 0.0, 1.6635912914279E9, 0.0, 2022-09-19 17:41:31.427
128.0, 32763.701112711566, 47467.03624332383, -39701.43672244987, 6157.4585625479895, -170837.26624694662, -8992.419718792406, 25959.673638304906, -24975.012239815267, 0.672, -0.712, 0.268, 192.0, 0.0, 0.0, 0.0, 0.0, 0.0, 0.0, 0.0, 0.0, 0.0, 1.6635912914328718E9, 0.0, 2022-09-19 17:41:31.432
129.0, 32324.28816846468, 47282.07555795617, -39653.24636140423, 6142.527597251845, -171249.85709784713, -9840.981345293683, 25997.939824812394, -24954.60509712757, 0.672, -0.714, 0.27, 192.0, 21.0, 0.0, 233.0, 176.0, 8.0, 112.0, 0.0, 0.0, 0.0, 1.6635912914368923E9, 0.0, 2022-09-19 17:41:31.436
130.0, 32126.31876782403, 47256.1028308991, -39641.84697173202, 6165.996928929917, -171581.4452268416, -10505.722225394515, 25995.592891644585, -24949.598306369582, 0.672, -0.714, 0.27, 192.0, 0.0, 0.0, 0.0, 0.0, 0.0, 0.0, 0.0, 0.0, 0.0, 1.6635912914398952E9, 0.0, 2022-09-19 17:41:31.439
131.0, 32240.737347690745, 47319.11239851861, -39673.87702153647, 6165.6169492741765, -171727.8268012794, -10440.67864902957, 25957.393760370465, -24974.833425859622, 0.672, -0.714, 0.27, 192.0, 0.0, 0.0, 0.0, 0.0, 0.0, 0.0, 0.0, 0.0, 0.0, 1.6635912914439049E9, 0.0, 2022-09-19 17:41:31.443
132.0, 32640.543000762824, 47453.558141417285, -39708.47752195329, 6171.450754577012, -171672.84150991935, -9583.064566023895, 25913.249065071235, -24991.954862112387, 0.672, -0.714, 0.27, 192.0, 0.0, 0.0, 0.0, 0.0, 0.0, 0.0, 0.0, 0.0, 0.0, 1.6635912914479084E9, 0.0, 2022-09-19 17:41:31.447
133.0, 32802.816665508355, 47456.88855134112, -39700.98968756076, 6149.166065355071, -171703.03871667848, -8956.500465452727, 25914.07607961608, -24993.541835968714, 0.672, -0.714, 0.27, 192.0, 0.0, 0.0, 0.0, 0.0, 0.0, 0.0, 0.0, 0.0, 0.0, 1.6635912914519453E9, 0.0, 2022-09-19 17:41:31.451
134.0, 32368.902250397477, 47289.49633711533, -39646.786707256644, 6135.129169837138, -172110.86864601, -9801.597571563432, 25960.43359761639, -24970.385428713016, 0.672, -0.714, 0.27, 192.0, 0.0, 0.0, 0.0, 0.0, 0.0, 0.0, 0.0, 0.0, 0.0, 1.6635912914559402E9, 0.0, 2022-09-19 17:41:31.455
135.0, 32161.902744996878, 47254.35939483159, -39644.03744268864, 6151.155370611593, -172450.83867917524, -10482.677576861093, 25948.22954514379, -24970.832463602124, 0.672, -0.714, 0.27, 192.0, 0.0, 0.0, 0.0, 0.0, 0.0, 0.0, 0.0, 0.0, 0.0, 1.6635912914609644E9, 0.0, 2022-09-19 17:41:31.460
136.0, 32276.097807419043, 47324.923852076994, -39670.412501145904, 6163.448830062012, -172595.25330010097, -10418.39395980763, 25895.79235265164, -24972.08416129162, 0.672, -0.714, 0.27, 192.0, 0.0, 0.0, 0.0, 0.0, 0.0, 0.0, 0.0, 0.0, 0.0, 1.6635912914649286E9, 0.0, 2022-09-19 17:41:31.464
137.0, 32684.978268739975, 47468.1538305466, -39691.69136186736, 6181.88901923764, -172530.209723736, -9549.22402491856, 25876.59220416453, -24977.51563519426, 0.672, -0.714, 0.27, 192.0, 0.0, 0.0, 0.0, 0.0, 0.0, 0.0, 0.0, 0.0, 0.0, 1.6635912914679313E9, 0.0, 2022-09-19 17:41:31.467
138.0, 32853.06338704388, 47460.30836824279, -39704.99064981826, 6154.2846148353365, -172560.27282002842, -8909.338284652029, 25866.64567788192, -24985.182283542432, 0.672, -0.714, 0.27, 192.0, 0.0, 0.0, 0.0, 0.0, 0.0, 0.0, 0.0, 0.0, 0.0, 1.663591291472204E9, 0.0, 2022-09-19 17:41:31.472
139.0, 32411.66113754048, 47272.59841830712, -39656.17443992787, 6130.368248268158, -172977.579889009, -9760.939748399229, 25907.214094068302, -24961.22121348634, 0.678, -0.716, 0.274, 192.0, 21.0, 48.0, 233.0, 160.0, 8.0, 144.0, 0.0, 0.0, 0.0, 1.6635912914759908E9, 0.0, 2022-09-19 17:41:31.475
140.0, 32199.788951848623, 47235.360412044574, -39648.15016366842, 6142.438190274023, -173321.12620128706, -10449.328774133775, 25904.196608566835, -24961.355323953074, 0.678, -0.716, 0.274, 192.0, 0.0, 0.0, 0.0, 0.0, 0.0, 0.0, 0.0, 0.0, 0.0, 1.663591291479966E9, 0.0, 2022-09-19 17:41:31.479
141.0, 32323.25998821974, 47320.69937237494, -39658.29785565112, 6160.811324216285, -173453.58263892922, -10377.266750009865, 25887.45515196981, -24963.478739676328, 0.678, -0.716, 0.274, 192.0, 0.0, 0.0, 0.0, 0.0, 0.0, 0.0, 0.0, 0.0, 0.0, 1.6635912914839787E9, 0.0, 2022-09-19 17:41:31.483
142.0, 32725.23376050398, 47460.688347898526, -39686.30459145363, 6171.786030743841, -173390.81894049872, -9512.522460522945, 25851.580602119044, -24979.57199568415, 0.678, -0.716, 0.274, 192.0, 0.0, 0.0, 0.0, 0.0, 0.0, 0.0, 0.0, 0.0, 0.0, 1.6635912914891226E9, 0.0, 2022-09-19 17:41:31.489
143.0, 32894.883500919765, 47458.54258043082, -39702.934289328376, 6142.795818185308, -173416.14346696658, -8857.437534026807, 25829.765299530663, -24989.18324579993, 0.678, -0.716, 0.274, 192.0, 0.0, 0.0, 0.0, 0.0, 0.0, 0.0, 0.0, 0.0, 0.0, 1.663591291493E9, 0.0, 2022-09-19 17:41:31.493
144.0, 32446.261637957294, 47268.95508396091, -39665.40571038792, 6112.822128870742, -173833.24937024707, -9703.763986082553, 25857.123834743958, -24967.23383274482, 0.678, -0.716, 0.274, 192.0, 0.0, 0.0, 0.0, 0.0, 0.0, 0.0, 0.0, 0.0, 0.0, 1.6635912914959917E9, 0.0, 2022-09-19 17:41:31.495
145.0, 32231.304911530606, 47231.27004280926, -39637.57778854106, 6136.872605904652, -174172.1018161895, -10390.230761793944, 25865.729256359253, -24947.765463324246, 0.678, -0.716, 0.274, 192.0, 0.0, 0.0, 0.0, 0.0, 0.0, 0.0, 0.0, 0.0, 0.0, 1.6635912914999998E9, 0.0, 2022-09-19 17:41:31.499
146.0, 32346.796375131176, 47297.3641511636, -39665.316303410094, 6149.657803733087, -174306.36874513255, -10318.302848136766, 25825.943151228807, -24960.729475108325, 0.678, -0.716, 0.274, 192.0, 0.0, 0.0, 0.0, 0.0, 0.0, 0.0, 0.0, 0.0, 0.0, 1.6635912915041492E9, 0.0, 2022-09-19 17:41:31.504
147.0, 32751.25119104996, 47441.398792433596, -39693.077170023585, 6161.16895212757, -174233.50205820825, -9441.086285243784, 25797.556435770566, -24981.628356174035, 0.678, -0.716, 0.274, 192.0, 0.0, 0.0, 0.0, 0.0, 0.0, 0.0, 0.0, 0.0, 0.0, 1.663591291508017E9, 0.0, 2022-09-19 17:41:31.508
148.0, 32920.23037913208, 47438.470713909956, -39703.15780677293, 6134.749190181397, -174254.31153229612, -8772.746774285648, 25778.780970428106, -24985.674021920448, 0.678, -0.716, 0.274, 192.0, 0.0, 0.0, 0.0, 0.0, 0.0, 0.0, 0.0, 0.0, 0.0, 1.663591291512034E9, 0.0, 2022-09-19 17:41:31.512
149.0, 32461.840803842642, 47241.104810369594, -39662.54468709764, 6101.44509094299, -174677.36299960173, -9620.011999608518, 25812.040366177604, -24968.41847520095, 0.672, -0.72, 0.276, 192.0, 21.0, 0.0, 233.0, 128.0, 8.0, 160.0, 0.0, 0.0, 0.0, 1.6635912915160382E9, 0.0, 2022-09-19 17:41:31.516
150.0, 32246.504097760215, 47204.55970818517, -39651.614684058986, 6124.623849943144, -175014.94139611023, -10308.311618365244, 25809.514619054156, -24950.715893592347, 0.672, -0.72, 0.276, 192.0, 0.0, 0.0, 0.0, 0.0, 0.0, 0.0, 0.0, 0.0, 0.0, 1.6635912915210385E9, 0.0, 2022-09-19 17:41:31.521
151.0, 32360.140366570995, 47267.43516533794, -39669.13845171195, 6136.470274504456, -175150.1470983204, -10239.714114631906, 25788.14635135488, -24962.182338497918, 0.672, -0.72, 0.276, 192.0, 0.0, 0.0, 0.0, 0.0, 0.0, 0.0, 0.0, 0.0, 0.0, 1.6635912915240383E9, 0.0, 2022-09-19 17:41:31.524
152.0, 32761.018903376927, 47398.50579482386, -39694.619440391, 6144.203978085992, -175078.0180189631, -9363.726897683966, 25748.382597968888, -24983.23768177482, 0.672, -0.72, 0.276, 192.0, 0.0, 0.0, 0.0, 0.0, 0.0, 0.0, 0.0, 0.0, 0.0, 1.6635912915280688E9, 0.0, 2022-09-19 17:41:31.528
153.0, 32929.75222227004, 47396.40473084507, -39697.65927763692, 6118.812396384764, -175095.6311935939, -8681.61871214136, 25741.23003974319, -24980.443713717905, 0.672, -0.72, 0.276, 192.0, 0.0, 0.0, 0.0, 0.0, 0.0, 0.0, 0.0, 0.0, 0.0, 1.6635912915320635E9, 0.0, 2022-09-19 17:41:31.532
154.0, 32474.29072550425, 47214.48388272332, -39648.15016366842, 6097.7570531078645, -175508.1773410055, -9518.915059437164, 25781.463179762744, -24957.689637862404, 0.672, -0.72, 0.276, 192.0, 0.0, 0.0, 0.0, 0.0, 0.0, 0.0, 0.0, 0.0, 0.0, 1.6635912915360756E9, 0.0, 2022-09-19 17:41:31.536
155.0, 32244.023054125675, 47167.67932983391, -39663.081128964564, 6106.317771234247, -175855.0540632074, -10222.16799523449, 25753.00940907114, -24961.0423995307, 0.672, -0.72, 0.276, 192.0, 0.0, 0.0, 0.0, 0.0, 0.0, 0.0, 0.0, 0.0, 0.0, 1.6635912915402143E9, 0.0, 2022-09-19 17:41:31.540
156.0, 32361.21325030485, 47237.9979178903, -39671.97712325778, 6129.3400680232135, -175985.6329543153, -10147.334354798122, 25731.23880997167, -24950.000637769775, 0.672, -0.72, 0.276, 192.0, 0.0, 0.0, 0.0, 0.0, 0.0, 0.0, 0.0, 0.0, 0.0, 1.6635912915440996E9, 0.0, 2022-09-19 17:41:31.544
157.0, 32749.95478987155, 47368.42034678702, -39710.80210337664, 6128.915384878563, -175923.36099426282, -9278.298530375783, 25694.47019034269, -24979.52729219524, 0.672, -0.72, 0.276, 192.0, 0.0, 0.0, 0.0, 0.0, 0.0, 0.0, 0.0, 0.0, 0.0, 1.663591291549107E9, 0.0, 2022-09-19 17:41:31.549
158.0, 32940.81633577542, 47376.109346879646, -39709.19277777586, 6107.5918206682, -175920.54467446145, -8565.83667586287, 25686.04358268304, -24982.41066722997, 0.672, -0.72, 0.276, 192.0, 0.0, 0.0, 0.0, 0.0, 0.0, 0.0, 0.0, 0.0, 0.0, 1.6635912915521E9, 0.0, 2022-09-19 17:41:31.552
159.0, 32499.168217083006, 47188.108824266055, -39661.09182370804, 6081.864962800141, -176322.1608188344, -9383.95522641602, 25722.968664523207, -24964.864547832556, 0.676, -0.728, 0.27, 192.0, 21.0, 32.0, 233.0, 64.0, 8.0, 112.0, 0.0, 0.0, 0.0, 1.6635912915561035E9, 0.0, 2022-09-19 17:41:31.556
160.0, 32280.836377243566, 47151.29550114817, -39659.54955334062, 6096.01361704035, -176660.40976767658, -10079.005071998248, 25712.418641140302, -24953.286344204706, 0.676, -0.728, 0.27, 192.0, 0.0, 0.0, 0.0, 0.0, 0.0, 0.0, 0.0, 0.0, 0.0, 1.663591291560154E9, 0.0, 2022-09-19 17:41:31.560
161.0, 32394.204425120883, 47220.72001942635, -39682.90712629642, 6098.4052536970685, -176796.24131873148, -10010.161699075901, 25682.5120070591, -24966.7420943668, 0.676, -0.728, 0.27, 192.0, 0.0, 0.0, 0.0, 0.0, 0.0, 0.0, 0.0, 0.0, 0.0, 1.6635912915641303E9, 0.0, 2022-09-19 17:41:31.564
162.0, 32792.15488340317, 47358.965558882424, -39710.131551042985, 6095.20895423996, -176726.4144690531, -9134.487406550337, 25649.83375666544, -24992.42424874595, 0.676, -0.728, 0.27, 192.0, 0.0, 0.0, 0.0, 0.0, 0.0, 0.0, 0.0, 0.0, 0.0, 1.6635912915681243E9, 0.0, 2022-09-19 17:41:31.568
163.0, 32982.10000778437, 47370.029672387805, -39721.53094071519, 6060.139067189582, -176725.5203992749, -8410.536755387397, 25640.6024862054, -25001.119077339063, 0.676, -0.728, 0.27, 192.0, 0.0, 0.0, 0.0, 0.0, 0.0, 0.0, 0.0, 0.0, 0.0, 1.6635912915721543E9, 0.0, 2022-09-19 17:41:31.572
164.0, 32530.281845364792, 47187.080644021116, -39667.28325692216, 6035.283927355281, -177129.72934600466, -9224.006143093842, 25676.521739545078, -24973.961707825867, 0.676, -0.728, 0.27, 192.0, 0.0, 0.0, 0.0, 0.0, 0.0, 0.0, 0.0, 0.0, 0.0, 1.6635912915762415E9, 0.0, 2022-09-19 17:41:31.576
165.0, 32295.990859984264, 47154.73766979428, -39646.11615492298, 6059.803791022753, -177468.02299833574, -9920.352389854479, 25684.724829760176, -24953.018123271242, 0.676, -0.728, 0.27, 192.0, 0.0, 0.0, 0.0, 0.0, 0.0, 0.0, 0.0, 0.0, 0.0, 1.663591291580223E9, 0.0, 2022-09-19 17:41:31.580
166.0, 32403.346288603105, 47228.40901951898, -39669.920762767884, 6067.291625415281, -177599.1159795661, -9844.132941261882, 25649.945515387717, -24958.874280318534, 0.676, -0.728, 0.27, 192.0, 0.0, 0.0, 0.0, 0.0, 0.0, 0.0, 0.0, 0.0, 0.0, 1.6635912915832336E9, 0.0, 2022-09-19 17:41:31.583
167.0, 32792.98189794802, 47362.92181765102, -39711.53971094367, 6064.520009102823, -177532.06074620018, -8970.872637137489, 25607.968939300652, -24986.791609143213, 0.676, -0.728, 0.27, 192.0, 0.0, 0.0, 0.0, 0.0, 0.0, 0.0, 0.0, 0.0, 0.0, 1.6635912915882215E9, 0.0, 2022-09-19 17:41:31.588
168.0, 32986.27978399751, 47373.69535847847, -39718.8263796361, 6038.234357623382, -177521.84599898412, -8229.420570066044, 25590.601633858878, -24996.98400461483, 0.676, -0.728, 0.27, 192.0, 0.0, 0.0, 0.0, 0.0, 0.0, 0.0, 0.0, 0.0, 0.0, 1.6635912915922635E9, 0.0, 2022-09-19 17:41:31.592
169.0, 32533.634607033087, 47194.72494062483, -39669.49607962323, 6017.938973657963, -177919.93056773313, -9023.712161029836, 25629.091337810914, -24975.03459155972, 0.672, -0.724, 0.272, 192.0, 21.0, 0.0, 233.0, 96.0, 8.0, 128.0, 0.0, 0.0, 0.0, 1.663591291596243E9, 0.0, 2022-09-19 17:41:31.596
170.0, 32297.510778607226, 47159.36448089653, -39664.93632375435, 6037.183825633982, -178252.63628395039, -9718.560840911967, 25628.912523855273, -24972.240623502807, 0.672, -0.724, 0.272, 192.0, 0.0, 0.0, 0.0, 0.0, 0.0, 0.0, 0.0, 0.0, 0.0, 1.6635912916001997E9, 0.0, 2022-09-19 17:41:31.600
171.0, 32400.17234089045, 47231.314746298165, -39686.930440298376, 6053.701764786454, -178383.2598785472, -9648.689287744677, 25597.01658451755, -24979.37082998405, 0.672, -0.724, 0.272, 192.0, 0.0, 0.0, 0.0, 0.0, 0.0, 0.0, 0.0, 0.0, 0.0, 1.663591291604206E9, 0.0, 2022-09-19 17:41:31.604
172.0, 32791.260813624955, 47374.54472476777, -39717.9770133468, 6067.783363793298, -178311.80135152358, -8776.434812120773, 25558.750398010066, -24987.640975432514, 0.672, -0.724, 0.272, 192.0, 0.0, 0.0, 0.0, 0.0, 0.0, 0.0, 0.0, 0.0, 0.0, 1.6635912916074295E9, 0.0, 2022-09-19 17:41:31.607
173.0, 32983.23994675159, 47381.11613763763, -39741.55810374714, 6032.132331387083, -178307.06278169906, -8034.423951437945, 25527.7261767061, -25010.61856873257, 0.672, -0.724, 0.272, 192.0, 0.0, 0.0, 0.0, 0.0, 0.0, 0.0, 0.0, 0.0, 0.0, 1.6635912916112185E9, 0.0, 2022-09-19 17:41:31.611
174.0, 32525.498572051358, 47186.790071343195, -39681.85659430702, 6010.160566587516, -178708.433056883, -8830.45897846925, 25583.762000055554, -24983.908234108476, 0.672, -0.724, 0.272, 192.0, 0.0, 0.0, 0.0, 0.0, 0.0, 0.0, 0.0, 0.0, 0.0, 1.663591291616213E9, 0.0, 2022-09-19 17:41:31.616
175.0, 32278.06476093111, 47147.04866970166, -39666.52329761068, 6034.836892466175, -179052.33699707236, -9543.434923104634, 25586.578319856922, -24972.79941711419, 0.672, -0.724, 0.272, 192.0, 0.0, 0.0, 0.0, 0.0, 0.0, 0.0, 0.0, 0.0, 0.0, 1.663591291620202E9, 0.0, 2022-09-19 17:41:31.620
176.0, 32386.35896281707, 47225.97267937335, -39689.25502172173, 6052.606529308144, -179180.05486488997, -9475.999710082973, 25554.660028774742, -24982.90240560799, 0.672, -0.724, 0.272, 192.0, 0.0, 0.0, 0.0, 0.0, 0.0, 0.0, 0.0, 0.0, 0.0, 1.6635912916242018E9, 0.0, 2022-09-19 17:41:31.624
177.0, 32776.35220007327, 47363.97234964041, -39722.89439712696, 6061.279006156803, -179113.71488734664, -8615.055217153456, 25516.036214355972, -25003.823638418155, 0.672, -0.724, 0.272, 192.0, 0.0, 0.0, 0.0, 0.0, 0.0, 0.0, 0.0, 0.0, 0.0, 1.663591291628202E9, 0.0, 2022-09-19 17:41:31.628
178.0, 32975.260373981044, 47377.226934102415, -39732.90797864294, 6039.888386713074, -179105.44474189816, -7866.741164534232, 25501.060545570916, -25012.8537431781, 0.672, -0.724, 0.272, 192.0, 0.0, 0.0, 0.0, 0.0, 0.0, 0.0, 0.0, 0.0, 0.0, 1.6635912916321974E9, 0.0, 2022-09-19 17:41:31.632
179.0, 32530.997101187364, 47187.79589984368, -39681.29780069564, 6023.370447560603, -179496.5779181216, -8651.37680189333, 25535.459880287635, -24984.489379464314, 0.668, -0.722, 0.27, 192.0, 20.0, 224.0, 233.0, 112.0, 8.0, 112.0, 0.0, 0.0, 0.0, 1.6635912916352792E9, 0.0, 2022-09-19 17:41:31.635
180.0, 32289.084170947575, 47144.209998155835, -39667.03738773315, 6042.972927447907, -179838.38079433213, -9368.577226230767, 25538.410310555737, -24973.93935608141, 0.668, -0.722, 0.27, 192.0, 0.0, 0.0, 0.0, 0.0, 0.0, 0.0, 0.0, 0.0, 0.0, 1.6635912916403067E9, 0.0, 2022-09-19 17:41:31.640
181.0, 32386.73894247281, 47208.62772567603, -39704.0742282956, 6048.069125183717, -179976.9392582106, -9319.023408773352, 25491.672812899687, -24994.100629580098, 0.668, -0.722, 0.27, 192.0, 0.0, 0.0, 0.0, 0.0, 0.0, 0.0, 0.0, 0.0, 0.0, 1.6635912916442926E9, 0.0, 2022-09-19 17:41:31.644
182.0, 32780.15199663067, 47354.13758208008, -39722.20149304885, 6069.482096371901, -179904.4749026865, -8463.264520557466, 25467.93526028815, -25000.493228494317, 0.668, -0.722, 0.27, 192.0, 0.0, 0.0, 0.0, 0.0, 0.0, 0.0, 0.0, 0.0, 0.0, 1.6635912916482704E9, 0.0, 2022-09-19 17:41:31.648
183.0, 32985.87745259731, 47372.77893695581, -39716.45709472383, 6062.038965468284, -179891.68970485803, -7713.072921403996, 25471.22096672308, -24992.42424874595, 0.668, -0.722, 0.27, 192.0, 0.0, 0.0, 0.0, 0.0, 0.0, 0.0, 0.0, 0.0, 0.0, 1.6635912916512692E9, 0.0, 2022-09-19 17:41:31.651
184.0, 32533.4781448219, 47182.69970210787, -39673.42998664737, 6037.7649709898205, -180291.8082823525, -8508.884430990747, 25496.836065868865, -24970.161911268464, 0.668, -0.722, 0.27, 192.0, 0.0, 0.0, 0.0, 0.0, 0.0, 0.0, 0.0, 0.0, 0.0, 1.6635912916563118E9, 0.0, 2022-09-19 17:41:31.656
185.0, 32276.20956614132, 47138.33148936409, -39669.60783834551, 6056.67454679901, -180648.6985860704, -9250.895291673576, 25480.698106372132, -24959.768350096747, 0.668, -0.722, 0.27, 192.0, 0.0, 0.0, 0.0, 0.0, 0.0, 0.0, 0.0, 0.0, 0.0, 1.663591291660254E9, 0.0, 2022-09-19 17:41:31.660
186.0, 32373.059674866163, 47204.55970818517, -39693.05481827913, 6072.209009195449, -180793.40377967403, -9213.366712733115, 25452.624315336267, -24977.26976600525, 0.668, -0.722, 0.27, 192.0, 0.0, 0.0, 0.0, 0.0, 0.0, 0.0, 0.0, 0.0, 0.0, 1.6635912916642728E9, 0.0, 2022-09-19 17:41:31.664
187.0, 32762.203545833057, 47340.74888715135, -39718.021716835705, 6086.91645704704, -180731.08711613264, -8371.421202590609, 25433.17829766015, -24994.12298132455, 0.668, -0.722, 0.27, 192.0, 0.0, 0.0, 0.0, 0.0, 0.0, 0.0, 0.0, 0.0, 0.0, 1.663591291668275E9, 0.0, 2022-09-19 17:41:31.668
188.0, 32971.59468789038, 47350.24837854486, -39727.811780907134, 6059.692032300477, -180719.37480203807, -7610.612524820867, 25419.61078877578, -24998.772144171257, 0.668, -0.722, 0.27, 192.0, 0.0, 0.0, 0.0, 0.0, 0.0, 0.0, 0.0, 0.0, 0.0, 1.6635912916722808E9, 0.0, 2022-09-19 17:41:31.672
189.0, 32530.795935487266, 47165.48885887729, -39680.42608266188, 6036.66973551151, -181109.85977767227, -8384.854601008248, 25448.958629245597, -24971.905347335978, 0.668, -0.72, 0.276, 192.0, 20.0, 224.0, 233.0, 128.0, 8.0, 160.0, 0.0, 0.0, 0.0, 1.6635912916762888E9, 0.0, 2022-09-19 17:41:31.676
190.0, 32285.507891834724, 47135.98455619628, -39663.8634400205, 6061.01078522334, -181454.81424985104, -9112.13566209503, 25454.680675826155, -24954.582745383115, 0.668, -0.72, 0.276, 192.0, 0.0, 0.0, 0.0, 0.0, 0.0, 0.0, 0.0, 0.0, 0.0, 1.66359129167933E9, 0.0, 2022-09-19 17:41:31.679
191.0, 32379.765198202756, 47199.932897082916, -39686.12577749798, 6070.5773318502115, -181596.27844050867, -9069.533237163216, 25418.828477719842, -24968.530233923226, 0.668, -0.72, 0.276, 192.0, 0.0, 0.0, 0.0, 0.0, 0.0, 0.0, 0.0, 0.0, 0.0, 1.6635912916833751E9, 0.0, 2022-09-19 17:41:31.683
192.0, 32769.87019418123, 47339.22896852839, -39709.66216440942, 6085.709462846454, -181530.63136704345, -8224.637296752608, 25386.329041281828, -24980.93545209592, 0.668, -0.72, 0.276, 192.0, 0.0, 0.0, 0.0, 0.0, 0.0, 0.0, 0.0, 0.0, 0.0, 1.6635912916883385E9, 0.0, 2022-09-19 17:41:31.688
193.0, 32988.38084797631, 47363.435907773484, -39713.260795266724, 6067.626901582111, -181514.51575929116, -7455.424363067671, 25376.807198143866, -24984.80230388669, 0.668, -0.72, 0.276, 192.0, 0.0, 0.0, 0.0, 0.0, 0.0, 0.0, 0.0, 0.0, 0.0, 1.6635912916923468E9, 0.0, 2022-09-19 17:41:31.692
194.0, 32544.274037393814, 47178.81049857265, -39672.7147308248, 6038.189654134471, -181906.5430052928, -8226.559546775765, 25398.801314687887, -24966.697390877893, 0.668, -0.72, 0.276, 192.0, 0.0, 0.0, 0.0, 0.0, 0.0, 0.0, 0.0, 0.0, 0.0, 1.6635912916963282E9, 0.0, 2022-09-19 17:41:31.696
195.0, 32286.312554635115, 47130.68719276037, -39668.78082380066, 6045.610433293633, -182259.36529151982, -8968.548055714138, 25396.096753608796, -24970.69835313539, 0.668, -0.72, 0.276, 192.0, 0.0, 0.0, 0.0, 0.0, 0.0, 0.0, 0.0, 0.0, 0.0, 1.6635912917003484E9, 0.0, 2022-09-19 17:41:31.700
196.0, 32391.723381486343, 47213.23218503383, -39676.156899470916, 6069.549151605267, -182396.31442979746, -8930.617145373482, 25380.31642202335, -24969.156082767975, 0.668, -0.72, 0.276, 192.0, 0.0, 0.0, 0.0, 0.0, 0.0, 0.0, 0.0, 0.0, 0.0, 1.6635912917043717E9, 0.0, 2022-09-19 17:41:31.704
197.0, 32773.82645294982, 47353.64584370206, -39711.29384175466, 6080.993244766384, -182342.24555996008, -8107.22358312888, 25329.376796409702, -24982.589481185616, 0.668, -0.72, 0.276, 192.0, 0.0, 0.0, 0.0, 0.0, 0.0, 0.0, 0.0, 0.0, 0.0, 1.6635912917073753E9, 0.0, 2022-09-19 17:41:31.707
198.0, 32993.63350792331, 47376.89165793558, -39731.72333618681, 6049.432581595491, -182326.95696675265, -7337.7647802549345, 25299.58192105078, -24999.688565693923, 0.668, -0.72, 0.276, 192.0, 0.0, 0.0, 0.0, 0.0, 0.0, 0.0, 0.0, 0.0, 0.0, 1.6635912917113452E9, 0.0, 2022-09-19 17:41:31.711
199.0, 32560.92608701302, 47201.38576047251, -39660.08599520755, 6034.3675058326135, -182710.49054986128, -8100.518059792288, 25362.21150901455, -24961.735303608813, 0.668, -0.72, 0.276, 192.0, 0.0, 0.0, 0.0, 0.0, 0.0, 0.0, 0.0, 0.0, 0.0, 1.6635912917163515E9, 0.0, 2022-09-19 17:41:31.716
200.0, 32297.466075118315, 47145.21582665633, -39654.609817816, 6045.945709460462, -183066.97852217895, -8855.22471132573, 25359.417540957635, -24960.550661152683, 0.67, -0.722, 0.272, 192.0, 20.0, 240.0, 233.0, 112.0, 8.0, 128.0, 0.0, 0.0, 0.0, 1.663591291720336E9, 0.0, 2022-09-19 17:41:31.720
201.0, 32376.524195256734, 47201.63162966152, -39687.33277169857, 6044.761067004331, -183223.84306476632, -8844.562929220549, 25325.06290972983, -24985.003469586787, 0.67, -0.722, 0.272, 192.0, 0.0, 0.0, 0.0, 0.0, 0.0, 0.0, 0.0, 0.0, 0.0, 1.663591291724376E9, 0.0, 2022-09-19 17:41:31.724
202.0, 32764.215202834035, 47346.56034070973, -39704.40950446243, 6065.570541092222, -183165.0803285933, -8023.069265254649, 25299.067830928307, -24983.975289341844, 0.67, -0.722, 0.272, 192.0, 0.0, 0.0, 0.0, 0.0, 0.0, 0.0, 0.0, 0.0, 0.0, 1.663591291728443E9, 0.0, 2022-09-19 17:41:31.728
203.0, 32995.22048177964, 47375.79642245727, -39716.278280768194, 6049.790209506776, -183143.35443298274, -7244.043915753832, 25283.466313298504, -24985.249338775797, 0.67, -0.722, 0.272, 192.0, 0.0, 0.0, 0.0, 0.0, 0.0, 0.0, 0.0, 0.0, 0.0, 1.6635912917323725E9, 0.0, 2022-09-19 17:41:31.732
204.0, 32551.471299108423, 47190.29929522268, -39669.33961741205, 6020.531776014778, -183539.13677205288, -8017.30251518518, 25314.378775880192, -24971.614774658057, 0.67, -0.722, 0.272, 192.0, 0.0, 0.0, 0.0, 0.0, 0.0, 0.0, 0.0, 0.0, 0.0, 1.6635912917353814E9, 0.0, 2022-09-19 17:41:31.735
205.0, 32284.47971158978, 47143.56179756663, -39661.85178301952, 6039.374296590602, -183900.09509326163, -8785.822544792003, 25306.6227205542, -24966.250355988785, 0.67, -0.722, 0.272, 192.0, 0.0, 0.0, 0.0, 0.0, 0.0, 0.0, 0.0, 0.0, 0.0, 1.6635912917394333E9, 0.0, 2022-09-19 17:41:31.739
206.0, 32373.238488821804, 47212.96396410036, -39678.70499833882, 6055.489904342879, -184052.13165904663, -8777.083012709978, 25285.656784255123, -24973.537024681216, 0.67, -0.722, 0.272, 192.0, 0.0, 0.0, 0.0, 0.0, 0.0, 0.0, 0.0, 0.0, 0.0, 1.6635912917444031E9, 0.0, 2022-09-19 17:41:31.744
207.0, 32759.923667898616, 47357.53504723729, -39701.79435036115, 6067.24692192637, -183994.28534439628, -7966.921683182917, 25258.410007764105, -24992.22308304585, 0.67, -0.722, 0.272, 192.0, 0.0, 0.0, 0.0, 0.0, 0.0, 0.0, 0.0, 0.0, 0.0, 1.663591291748413E9, 0.0, 2022-09-19 17:41:31.748
208.0, 32982.34587697338, 47379.01507365883, -39730.33752803058, 6030.344191830658, -183983.37769310208, -7197.954618686988, 25223.94361781402, -25017.27938858025, 0.67, -0.722, 0.272, 192.0, 0.0, 0.0, 0.0, 0.0, 0.0, 0.0, 0.0, 0.0, 0.0, 1.66359129175259E9, 0.0, 2022-09-19 17:41:31.752
209.0, 32544.341092627183, 47194.85905109156, -39692.38426594547, 5999.454080993424, -184374.0638344364, -7960.104401124049, 25241.84736512272, -24993.94416736891, 0.67, -0.722, 0.272, 192.0, 0.0, 0.0, 0.0, 0.0, 0.0, 0.0, 0.0, 0.0, 0.0, 1.66359129175644E9, 0.0, 2022-09-19 17:41:31.756
210.0, 32287.184272668874, 47154.201227927355, -39662.432928375354, 6031.975869175896, -184723.22043457275, -8716.86741314738, 25257.448882752524, -24964.573975154635, 0.672, -0.716, 0.276, 192.0, 21.0, 0.0, 233.0, 160.0, 8.0, 160.0, 0.0, 0.0, 0.0, 1.6635912917594848E9, 0.0, 2022-09-19 17:41:31.759
211.0, 32373.8419859221, 47229.88423465303, -39672.26769593569, 6050.997203707362, -184875.72638699133, -8710.452462488707, 25239.23221102145, -24974.207577014873, 0.672, -0.716, 0.276, 192.0, 0.0, 0.0, 0.0, 0.0, 0.0, 0.0, 0.0, 0.0, 0.0, 1.6635912917634604E9, 0.0, 2022-09-19 17:41:31.763
212.0, 32745.037406091382, 47366.29693106376, -39717.66408892442, 6048.359697861636, -184834.04038358218, -7917.747845381242, 25189.32076565275, -24998.123943582053, 0.672, -0.716, 0.276, 192.0, 0.0, 0.0, 0.0, 0.0, 0.0, 0.0, 0.0, 0.0, 0.0, 1.6635912917674692E9, 0.0, 2022-09-19 17:41:31.767
213.0, 32983.32935372941, 47404.540765826794, -39724.50372272774, 6025.404456306035, -184810.90632807094, -7130.541757409783, 25177.116713180152, -25007.623434975558, 0.672, -0.716, 0.276, 192.0, 0.0, 0.0, 0.0, 0.0, 0.0, 0.0, 0.0, 0.0, 0.0, 1.6635912917714806E9, 0.0, 2022-09-19 17:41:31.771
214.0, 32544.721072282922, 47228.58783347462, -39671.19481220184, 6000.23639204936, -185202.73240837245, -7890.746938079231, 25222.960141057985, -24984.981117842333, 0.672, -0.716, 0.276, 192.0, 0.0, 0.0, 0.0, 0.0, 0.0, 0.0, 0.0, 0.0, 0.0, 1.663591291776468E9, 0.0, 2022-09-19 17:41:31.776
215.0, 32273.72852250678, 47182.520888152234, -39657.85082076202, 6021.76112195982, -185566.30588368248, -8670.152267235788, 25218.98153054494, -24962.919946064943, 0.672, -0.716, 0.276, 192.0, 0.0, 0.0, 0.0, 0.0, 0.0, 0.0, 0.0, 0.0, 0.0, 1.6635912917805316E9, 0.0, 2022-09-19 17:41:31.780
216.0, 32367.963477130354, 47253.264159353275, -39675.6651610929, 6045.431619337991, -185713.8273970875, -8665.123124733344, 25192.181788943028, -24966.473873433337, 0.672, -0.716, 0.276, 192.0, 0.0, 0.0, 0.0, 0.0, 0.0, 0.0, 0.0, 0.0, 0.0, 1.6635912917834916E9, 0.0, 2022-09-19 17:41:31.783
217.0, 32746.33380726979, 47389.92272495302, -39713.841940622566, 6057.568616577222, -185665.63703604188, -7873.826667526564, 25149.825233200223, -24982.209501529873, 0.672, -0.716, 0.276, 192.0, 0.0, 0.0, 0.0, 0.0, 0.0, 0.0, 0.0, 0.0, 0.0, 1.6635912917874985E9, 0.0, 2022-09-19 17:41:31.787
218.0, 32985.3857142193, 47419.42702763403, -39717.79819939115, 6039.754276246343, -185642.43592529726, -7080.652663785537, 25140.92923890701, -24996.201693558898, 0.672, -0.716, 0.276, 192.0, 0.0, 0.0, 0.0, 0.0, 0.0, 0.0, 0.0, 0.0, 0.0, 1.6635912917914913E9, 0.0, 2022-09-19 17:41:31.791
219.0, 32554.891116010087, 47234.801618433194, -39661.963541741796, 6026.276174339792, -186022.0132496373, -7818.9754866332405, 25183.08462894972, -24958.963687296357, 0.672, -0.716, 0.276, 192.0, 0.0, 0.0, 0.0, 0.0, 0.0, 0.0, 0.0, 0.0, 0.0, 1.6635912917955434E9, 0.0, 2022-09-19 17:41:31.795
220.0, 32281.551633066138, 47183.929048052916, -39655.03450096065, 6046.5715583052115, -186384.08915806882, -8596.41386227773, 25174.501559078883, -24949.285381947207, 0.67, -0.714, 0.278, 192.0, 20.0, 240.0, 233.0, 176.0, 8.0, 176.0, 0.0, 0.0, 0.0, 1.6635912917996824E9, 0.0, 2022-09-19 17:41:31.799
221.0, 32370.891555653998, 47252.61595876407, -39674.99460875924, 6063.983567235896, -186531.76713368503, -8592.70347269815, 25141.68919821849, -24958.427245429426, 0.67, -0.714, 0.278, 192.0, 0.0, 0.0, 0.0, 0.0, 0.0, 0.0, 0.0, 0.0, 0.0, 1.6635912918045084E9, 0.0, 2022-09-19 17:41:31.804
222.0, 32752.994627117474, 47394.30366686627, -39705.88471959648, 6077.05933774225, -186475.93247603567, -7798.4342334788125, 25105.412316967526, -24976.308640993673, 0.67, -0.714, 0.278, 192.0, 0.0, 0.0, 0.0, 0.0, 0.0, 0.0, 0.0, 0.0, 0.0, 1.6635912918085625E9, 0.0, 2022-09-19 17:41:31.808
223.0, 32989.5878421769, 47426.80310330428, -39712.88081561099, 6045.990412949373, -186455.45827811462, -7003.29327622572, 25101.478409943393, -24988.669155677457, 0.67, -0.714, 0.278, 192.0, 0.0, 0.0, 0.0, 0.0, 0.0, 0.0, 0.0, 0.0, 0.0, 1.6635912918125496E9, 0.0, 2022-09-19 17:41:31.812
224.0, 32556.96982824443, 47243.4517435374, -39664.89162026544, 6022.118749871105, -186840.5564833351, -7742.443113618268, 25123.20430555395, -24966.42916994443, 0.67, -0.714, 0.278, 192.0, 0.0, 0.0, 0.0, 0.0, 0.0, 0.0, 0.0, 0.0, 0.0, 1.6635912918155353E9, 0.0, 2022-09-19 17:41:31.815
225.0, 32291.63226981548, 47191.260420234255, -39647.8595909905, 6055.489904342879, -187194.5857637627, -8518.45097761762, 25124.83598289919, -24950.11239649205, 0.67, -0.714, 0.278, 192.0, 0.0, 0.0, 0.0, 0.0, 0.0, 0.0, 0.0, 0.0, 0.0, 1.6635912918195276E9, 0.0, 2022-09-19 17:41:31.819
226.0, 32376.099512112083, 47253.53238028674, -39673.80996630311, 6070.040889983284, -187350.08684993826, -8528.263393433499, 25091.755401105333, -24954.582745383115, 0.67, -0.714, 0.278, 192.0, 0.0, 0.0, 0.0, 0.0, 0.0, 0.0, 0.0, 0.0, 0.0, 1.6635912918235805E9, 0.0, 2022-09-19 17:41:31.823
227.0, 32747.563153214833, 47391.2861813648, -39704.588318418064, 6069.236227182892, -187306.4115412726, -7751.316756167025, 25062.072284468686, -24979.50494045078, 0.67, -0.714, 0.278, 192.0, 0.0, 0.0, 0.0, 0.0, 0.0, 0.0, 0.0, 0.0, 0.0, 1.6635912918275607E9, 0.0, 2022-09-19 17:41:31.827
228.0, 33002.68596442771, 47436.1461324866, -39702.75547537273, 6054.662889798033, -187271.16284026657, -6937.579147527117, 25064.083941469664, -24974.40874271497, 0.67, -0.714, 0.278, 192.0, 0.0, 0.0, 0.0, 0.0, 0.0, 0.0, 0.0, 0.0, 0.0, 1.6635912918325841E9, 0.0, 2022-09-19 17:41:31.832
229.0, 32562.222488191426, 47245.32929007165, -39666.165669699396, 6021.179976603982, -187500.02235174447, -7677.6901099312445, 25083.73112484588, -24959.388370441007, 0.67, -0.714, 0.278, 192.0, 0.0, 0.0, 0.0, 0.0, 0.0, 0.0, 0.0, 0.0, 0.0, 1.6635912918366482E9, 0.0, 2022-09-19 17:41:31.836
230.0, 32281.551633066138, 47190.634571389506, -39657.18026842836, 6034.3675058326135, -187500.02235174447, -8468.67364271565, 25081.20537772243, -24959.7907018412, 0.672, -0.718, 0.278, 192.0, 21.0, 0.0, 233.0, 144.0, 8.0, 176.0, 0.0, 0.0, 0.0, 1.6635912918406632E9, 0.0, 2022-09-19 17:41:31.840
231.0, 32361.190898560395, 47251.20779886339, -39681.83424256257, 6041.6988780139545, -187500.02235174447, -8485.593913268318, 25051.85753725261, -24970.161911268464, 0.672, -0.718, 0.278, 192.0, 0.0, 0.0, 0.0, 0.0, 0.0, 0.0, 0.0, 0.0, 0.0, 1.6635912918435931E9, 0.0, 2022-09-19 17:41:31.843
232.0, 32731.49224895147, 47388.98395168591, -39719.362821503026, 6048.538511817278, -187500.02235174447, -7721.119549407906, 25006.505847752793, -24996.313452281174, 0.672, -0.718, 0.278, 192.0, 0.0, 0.0, 0.0, 0.0, 0.0, 0.0, 0.0, 0.0, 0.0, 1.6635912918475912E9, 0.0, 2022-09-19 17:41:31.847
233.0, 32982.07765603992, 47429.90999578357, -39735.29961529966, 6025.538566772767, -187500.02235174447, -6918.647219973472, 24977.873263105546, -25007.66813846447, 0.672, -0.718, 0.278, 192.0, 0.0, 0.0, 0.0, 0.0, 0.0, 0.0, 0.0, 0.0, 0.0, 1.6635912918516176E9, 0.0, 2022-09-19 17:41:31.851
234.0, 32558.847374778674, 47257.44393556642, -39682.638905362954, 6005.645514207544, -187500.02235174447, -7643.6484031258115, 25025.705996239903, -24982.075391063143, 0.672, -0.718, 0.278, 192.0, 0.0, 0.0, 0.0, 0.0, 0.0, 0.0, 0.0, 0.0, 0.0, 1.6635912918556175E9, 0.0, 2022-09-19 17:41:31.855
235.0, 32279.227051642785, 47205.163205285455, -39657.38143412846, 6028.33253482968, -187500.02235174447, -8441.471569713542, 25041.19575514743, -24967.524405422737, 0.672, -0.718, 0.278, 192.0, 0.0, 0.0, 0.0, 0.0, 0.0, 0.0, 0.0, 0.0, 0.0, 1.663591291859622E9, 0.0, 2022-09-19 17:41:31.859
236.0, 32374.8925179115, 47283.86369751259, -39667.28325692216, 6053.478247341901, -187500.02235174447, -8450.635784940217, 25017.726423469358, -24968.37377171204, 0.672, -0.718, 0.278, 192.0, 0.0, 0.0, 0.0, 0.0, 0.0, 0.0, 0.0, 0.0, 0.0, 1.6635912918646204E9, 0.0, 2022-09-19 17:41:31.864
237.0, 32739.225952533005, 47403.87021349314, -39715.652431923445, 6045.76689550482, -187500.02235174447, -7698.365473552403, 24966.7420943668, -25005.544722741215, 0.672, -0.718, 0.278, 192.0, 0.0, 0.0, 0.0, 0.0, 0.0, 0.0, 0.0, 0.0, 0.0, 1.6635912918676376E9, 0.0, 2022-09-19 17:41:31.867
238.0, 32987.24090900909, 47435.07324875275, -39727.02946985119, 6021.090569626162, -187500.02235174447, -6896.027254584701, 24950.7382453368, -25011.62439723306, 0.672, -0.718, 0.278, 192.0, 0.0, 0.0, 0.0, 0.0, 0.0, 0.0, 0.0, 0.0, 0.0, 1.663591291871644E9, 0.0, 2022-09-19 17:41:31.871
239.0, 32562.69187482499, 47252.504200041796, -39679.71082683931, 5992.033301834262, -187500.02235174447, -7620.6931615702115, 24983.08121956363, -24992.379545257038, 0.672, -0.718, 0.278, 192.0, 0.0, 0.0, 0.0, 0.0, 0.0, 0.0, 0.0, 0.0, 0.0, 1.6635912918756392E9, 0.0, 2022-09-19 17:41:31.875
240.0, 32292.168711682407, 47211.39934198849, -39665.00337898772, 6014.385046289569, -187500.02235174447, -8420.505633414465, 24985.159931797974, -24978.9461468394, 0.674, -0.718, 0.278, 192.0, 21.0, 16.0, 233.0, 144.0, 8.0, 176.0, 0.0, 0.0, 0.0, 1.6635912918798156E9, 0.0, 2022-09-19 17:41:31.879
241.0, 32378.871128424544, 47285.80829928021, -39684.80702457512, 6034.6580785105325, -187500.02235174447, -8450.658136684673, 24958.494300662795, -24981.56130094067, 0.674, -0.718, 0.278, 192.0, 0.0, 0.0, 0.0, 0.0, 0.0, 0.0, 0.0, 0.0, 0.0, 1.6635912918836648E9, 0.0, 2022-09-19 17:41:31.883
242.0, 32740.4776502225, 47405.97127747194, -39713.28314701118, 6039.597814035155, -187500.02235174447, -7716.1351103943725, 24927.224210169818, -25003.33190004014, 0.674, -0.718, 0.278, 192.0, 0.0, 0.0, 0.0, 0.0, 0.0, 0.0, 0.0, 0.0, 0.0, 1.663591291889686E9, 0.0, 2022-09-19 17:41:31.889
243.0, 33000.361383004354, 47442.13640000062, -39718.73697265828, 6021.917584171008, -187500.02235174447, -6908.298362290664, 24915.511896075237, -25015.89358042402, 0.674, -0.718, 0.278, 192.0, 0.0, 0.0, 0.0, 0.0, 0.0, 0.0, 0.0, 0.0, 0.0, 1.6635912918926508E9, 0.0, 2022-09-19 17:41:31.892
244.0, 32583.05431402377, 47263.16598214698, -39671.954771513316, 6002.6056769616225, -187500.02235174447, -7624.6494203388, 24941.596381854582, -24993.51948422426, 0.674, -0.718, 0.278, 192.0, 0.0, 0.0, 0.0, 0.0, 0.0, 0.0, 0.0, 0.0, 0.0, 1.6635912918966892E9, 0.0, 2022-09-19 17:41:31.896
245.0, 32306.00444150024, 47207.71130415336, -39662.83525977555, 6017.067255624206, -187500.02235174447, -8433.357886476266, 24936.03079748521, -24985.584614942625, 0.674, -0.718, 0.278, 192.0, 0.0, 0.0, 0.0, 0.0, 0.0, 0.0, 0.0, 0.0, 0.0, 1.6635912918997035E9, 0.0, 2022-09-19 17:41:31.899
246.0, 32391.678677997435, 47273.3583776186, -39677.676818093874, 6032.28879359827, -187500.02235174447, -8468.986567138025, 24906.861770971034, -24984.154103297486, 0.674, -0.718, 0.278, 192.0, 0.0, 0.0, 0.0, 0.0, 0.0, 0.0, 0.0, 0.0, 0.0, 1.663591291903716E9, 0.0, 2022-09-19 17:41:31.903
247.0, 32759.588391731788, 47405.188966416, -39716.99353659076, 6037.496750056356, -187500.02235174447, -7733.122436180406, 24852.25645926672, -25009.27746406525, 0.674, -0.718, 0.278, 192.0, 0.0, 0.0, 0.0, 0.0, 0.0, 0.0, 0.0, 0.0, 0.0, 1.6635912919077053E9, 0.0, 2022-09-19 17:41:31.907
248.0, 33019.85210416938, 47440.1470947441, -39730.046955352664, 6014.005066633829, -187500.02235174447, -6921.4188362859295, 24852.47997671127, -25034.28906611074, 0.674, -0.718, 0.278, 192.0, 0.0, 0.0, 0.0, 0.0, 0.0, 0.0, 0.0, 0.0, 0.0, 1.663591291911733E9, 0.0, 2022-09-19 17:41:31.911
249.0, 32608.848227125196, 47257.71215649988, -39662.611742331, 6005.243182807349, -187500.02235174447, -7625.722304072655, 24911.48858207328, -24988.51269346627, 0.674, -0.718, 0.278, 192.0, 0.0, 0.0, 0.0, 0.0, 0.0, 0.0, 0.0, 0.0, 0.0, 1.6635912919157412E9, 0.0, 2022-09-19 17:41:31.915
250.0, 32311.97235726981, 47185.42661493142, -39649.42421310237, 6025.449159794946, -187500.02235174447, -8463.53274149093, 24906.906474459945, -24971.95005082489, 0.672, -0.71, 0.272, 192.0, 21.0, 0.0, 233.0, 208.0, 8.0, 128.0, 0.0, 0.0, 0.0, 1.6635912919207206E9, 0.0, 2022-09-19 17:41:31.920
251.0, 32382.961497659864, 47239.18256034644, -39676.983914015764, 6034.09928489915, -187500.02235174447, -8529.693905078639, 24873.82589266609, -24983.908234108476, 0.672, -0.71, 0.272, 192.0, 0.0, 0.0, 0.0, 0.0, 0.0, 0.0, 0.0, 0.0, 0.0, 1.6635912919238136E9, 0.0, 2022-09-19 17:41:31.923
252.0, 32755.90035389666, 47374.924704423516, -39707.896376597455, 6044.67166002651, -187500.02235174447, -7805.9444196157965, 24832.944552057335, -25004.38243202954, 0.672, -0.71, 0.272, 192.0, 0.0, 0.0, 0.0, 0.0, 0.0, 0.0, 0.0, 0.0, 0.0, 1.6635912919277432E9, 0.0, 2022-09-19 17:41:31.927
253.0, 33030.69270023021, 47422.98095500242, -39722.223844793305, 6027.416113307013, -187500.02235174447, -6988.295255696208, 24812.313891925085, -25011.780859444247, 0.672, -0.71, 0.272, 192.0, 0.0, 0.0, 0.0, 0.0, 0.0, 0.0, 0.0, 0.0, 0.0, 1.6635912919317353E9, 0.0, 2022-09-19 17:41:31.931
254.0, 32610.099924814695, 47238.28849056822, -39683.421216418894, 6000.214040304904, -187500.02235174447, -7705.562735267012, 24829.971770044776, -24992.625414446047, 0.672, -0.71, 0.272, 192.0, 0.0, 0.0, 0.0, 0.0, 0.0, 0.0, 0.0, 0.0, 0.0, 1.663591291935758E9, 0.0, 2022-09-19 17:41:31.935
255.0, 32311.055935747143, 47168.70751007885, -39667.99851274473, 6011.747540443843, -187500.02235174447, -8554.258472235022, 24836.073796281078, -24994.815885402666, 0.672, -0.71, 0.272, 192.0, 0.0, 0.0, 0.0, 0.0, 0.0, 0.0, 0.0, 0.0, 0.0, 1.6635912919398253E9, 0.0, 2022-09-19 17:41:31.939
0.0, 32394.673811754445, 47242.62472899255, -39674.01113200321, 6033.629898265588, -187500.02235174447, -8614.51877528653, 24827.311912454596, -24999.91208313848, 0.672, -0.71, 0.272, 192.0, 0.0, 0.0, 0.0, 0.0, 0.0, 0.0, 0.0, 0.0, 0.0, 1.663591291943766E9, 0.0, 2022-09-19 17:41:31.943
1.0, 32769.110234869746, 47384.3347888392, -39699.290954982156, 6051.265424640826, -187500.02235174447, -7899.173545738882, 24794.611310316483, -25010.909141410488, 0.672, -0.71, 0.272, 192.0, 0.0, 0.0, 0.0, 0.0, 0.0, 0.0, 0.0, 0.0, 0.0, 1.6635912919488068E9, 0.0, 2022-09-19 17:41:31.948
2.0, 33047.3000463605, 47431.69813534, -39713.73018190029, 6036.66973551151, -187500.02235174447, -7089.816879012214, 24778.406295586385, -25015.200676345907, 0.672, -0.71, 0.272, 192.0, 0.0, 0.0, 0.0, 0.0, 0.0, 0.0, 0.0, 0.0, 0.0, 1.663591291951868E9, 0.0, 2022-09-19 17:41:31.951
3.0, 32632.921055903564, 47248.525589528756, -39673.072358736084, 6006.09254909665, -187500.02235174447, -7813.231088308226, 24804.848409277012, -24993.407725501984, 0.672, -0.71, 0.272, 192.0, 0.0, 0.0, 0.0, 0.0, 0.0, 0.0, 0.0, 0.0, 0.0, 1.6635912919548063E9, 0.0, 2022-09-19 17:41:31.954
4.0, 32337.319235482126, 47178.676388105916, -39656.12973643896, 6016.128482357083, -187500.02235174447, -8677.416584183764, 24800.62392957496, -24990.680812678434, 0.678, -0.714, 0.272, 192.0, 21.0, 48.0, 233.0, 176.0, 8.0, 128.0, 0.0, 0.0, 0.0, 1.6635912919597807E9, 0.0, 2022-09-19 17:41:31.959
5.0, 32420.735945789333, 47236.410944033974, -39678.43677740536, 6024.488034783368, -187500.02235174447, -8752.92077695379, 24762.13422562292, -25005.745888441314, 0.678, -0.714, 0.272, 192.0, 0.0, 0.0, 0.0, 0.0, 0.0, 0.0, 0.0, 0.0, 0.0, 1.6635912919638011E9, 0.0, 2022-09-19 17:41:31.963
6.0, 32795.194720649095, 47365.00052988536, -39708.90220509794, 6033.361677332125, -187500.02235174447, -8051.0760010571485, 24729.768899651637, -25020.67685373746, 0.678, -0.714, 0.272, 192.0, 0.0, 0.0, 0.0, 0.0, 0.0, 0.0, 0.0, 0.0, 0.0, 1.6635912919678168E9, 0.0, 2022-09-19 17:41:31.967
7.0, 33079.97829675416, 47415.604879332175, -39722.89439712696, 6013.155700344527, -187500.02235174447, -7235.460845882994, 24717.430736712307, -25033.484403310347, 0.678, -0.714, 0.272, 192.0, 0.0, 0.0, 0.0, 0.0, 0.0, 0.0, 0.0, 0.0, 0.0, 1.6635912919718316E9, 0.0, 2022-09-19 17:41:31.971
8.0, 32680.619678571187, 47247.765630217276, -39669.13845171195, 5993.307351268215, -187500.02235174447, -7938.602022958044, 24747.51618474915, -25001.47670525035, 0.678, -0.714, 0.272, 192.0, 0.0, 0.0, 0.0, 0.0, 0.0, 0.0, 0.0, 0.0, 0.0, 1.6635912919768193E9, 0.0, 2022-09-19 17:41:31.976
9.0, 32381.240413336804, 47183.2361439748, -39648.77601251317, 6012.8204241776975, -187500.02235174447, -8805.916763057323, 24755.51810926415, -24984.489379464314, 0.678, -0.714, 0.272, 192.0, 0.0, 0.0, 0.0, 0.0, 0.0, 0.0, 0.0, 0.0, 0.0, 1.6635912919798295E9, 0.0, 2022-09-19 17:41:31.979
10.0, 32455.38114969506, 47232.11940909856, -39673.206469202814, 6024.465683038912, -187500.02235174447, -8893.75911876668, 24724.560943193548, -24994.212388302374, 0.678, -0.714, 0.272, 192.0, 0.0, 0.0, 0.0, 0.0, 0.0, 0.0, 0.0, 0.0, 0.0, 1.663591291982856E9, 0.0, 2022-09-19 17:41:31.982
11.0, 32828.9011512877, 47366.78866944178, -39698.016905548204, 6041.184787891482, -187500.02235174447, -8197.636389450598, 24701.44923942676, -25009.031594876244, 0.678, -0.714, 0.272, 192.0, 0.0, 0.0, 0.0, 0.0, 0.0, 0.0, 0.0, 0.0, 0.0, 1.6635912919878583E9, 0.0, 2022-09-19 17:41:31.987
12.0, 33115.74108788265, 47414.21907117595, -39714.33367900058, 6022.297563826748, -187500.02235174447, -7375.762745828956, 24679.58923334947, -25020.788612459735, 0.678, -0.714, 0.272, 192.0, 0.0, 0.0, 0.0, 0.0, 0.0, 0.0, 0.0, 0.0, 0.0, 1.6635912919918475E9, 0.0, 2022-09-19 17:41:31.991
13.0, 32707.397068428647, 47229.079571852635, -39679.308495439116, 5988.904057610519, -187500.02235174447, -8074.902960646506, 24695.771896335114, -24999.46504824937, 0.678, -0.714, 0.272, 192.0, 0.0, 0.0, 0.0, 0.0, 0.0, 0.0, 0.0, 0.0, 0.0, 1.663591291995857E9, 0.0, 2022-09-19 17:41:31.995
14.0, 32403.927433958943, 47165.15358271046, -39664.46693712079, 6000.683426938466, -187500.02235174447, -8948.319726982085, 24698.722326603216, -24994.65942319148, 0.68, -0.714, 0.272, 192.0, 21.0, 64.0, 233.0, 176.0, 8.0, 128.0, 0.0, 0.0, 0.0, 1.663591291999878E9, 0.0, 2022-09-19 17:41:31.999
15.0, 32482.538519208258, 47234.466342266365, -39680.42608266188, 6018.184842846971, -187500.02235174447, -9032.161120433942, 24676.907024014836, -24999.04036510472, 0.68, -0.714, 0.272, 192.0, 0.0, 0.0, 0.0, 0.0, 0.0, 0.0, 0.0, 0.0, 0.0, 1.6635912920038884E9, 0.0, 2022-09-19 17:41:32.003
16.0, 32851.051730042906, 47370.856686932646, -39705.013001562715, 6035.95447968894, -187500.02235174447, -8332.484463749464, 24642.708854998215, -25000.04619360521, 0.68, -0.714, 0.272, 192.0, 0.0, 0.0, 0.0, 0.0, 0.0, 0.0, 0.0, 0.0, 0.0, 1.6635912920078893E9, 0.0, 2022-09-19 17:41:32.007
17.0, 33155.25897207963, 47436.05672550878, -39712.61259467752, 6024.309220827726, -187500.02235174447, -7479.541895334947, 24632.628218248872, -24999.196827315907, 0.68, -0.714, 0.272, 192.0, 0.0, 0.0, 0.0, 0.0, 0.0, 0.0, 0.0, 0.0, 0.0, 1.663591292010894E9, 0.0, 2022-09-19 17:41:32.010
18.0, 32739.583580444287, 47242.512970270276, -39691.64665837844, 5974.286016736748, -187500.02235174447, -8172.602435660653, 24633.79050896055, -24996.156990069987, 0.68, -0.714, 0.272, 192.0, 0.0, 0.0, 0.0, 0.0, 0.0, 0.0, 0.0, 0.0, 0.0, 1.66359129201586E9, 0.0, 2022-09-19 17:41:32.015
19.0, 32422.14410569002, 47160.705585563854, -39684.56115538611, 5977.035281304751, -187500.02235174447, -9054.937548033899, 24627.77788970207, -25000.09089709412, 0.68, -0.714, 0.272, 192.0, 0.0, 0.0, 0.0, 0.0, 0.0, 0.0, 0.0, 0.0, 0.0, 1.66359129201995E9, 0.0, 2022-09-19 17:41:32.019
20.0, 32492.038010601762, 47217.85899613607, -39691.91487931191, 5991.6309704340665, -187500.02235174447, -9145.640927033535, 24623.016968133088, -25003.913045395977, 0.68, -0.714, 0.272, 192.0, 0.0, 0.0, 0.0, 0.0, 0.0, 0.0, 0.0, 0.0, 0.0, 1.6635912920240076E9, 0.0, 2022-09-19 17:41:32.024
21.0, 32860.28300050295, 47353.95876812444, -39714.736010400775, 6010.317028798703, -187500.02235174447, -8447.148912805189, 24593.28914800753, -25005.924702396955, 0.68, -0.714, 0.272, 192.0, 0.0, 0.0, 0.0, 0.0, 0.0, 0.0, 0.0, 0.0, 0.0, 1.663591292027933E9, 0.0, 2022-09-19 17:41:32.027
22.0, 33154.029626134594, 47404.74193152689, -39734.29378679917, 5987.808822132209, -187500.02235174447, -7594.720434513144, 24567.71875235066, -25021.7050339824, 0.68, -0.714, 0.272, 192.0, 0.0, 0.0, 0.0, 0.0, 0.0, 0.0, 0.0, 0.0, 0.0, 1.663591292032911E9, 0.0, 2022-09-19 17:41:32.032
23.0, 32766.942115657585, 47237.70734521239, -39685.9693152868, 5971.492048679835, -187500.02235174447, -8248.888939486616, 24585.935424081734, -24981.918928851956, 0.68, -0.714, 0.272, 192.0, 0.0, 0.0, 0.0, 0.0, 0.0, 0.0, 0.0, 0.0, 0.0, 1.663591292035962E9, 0.0, 2022-09-19 17:41:32.035
24.0, 32460.32088521968, 47171.6355886025, -39675.26282969271, 5984.076080808173, -187500.02235174447, -9118.416502286971, 24592.015098573578, -24978.454408461384, 0.674, -0.714, 0.266, 192.0, 21.0, 16.0, 233.0, 176.0, 8.0, 80.0, 0.0, 0.0, 0.0, 1.6635912920389664E9, 0.0, 2022-09-19 17:41:32.038
25.0, 32517.630758003088, 47216.92022286895, -39691.69136186736, 5983.18201102996, -187500.02235174447, -9219.692256413968, 24578.514644922572, -25003.57776922915, 0.674, -0.714, 0.266, 192.0, 0.0, 0.0, 0.0, 0.0, 0.0, 0.0, 0.0, 0.0, 0.0, 1.663591292043948E9, 0.0, 2022-09-19 17:41:32.043
26.0, 32869.87189887428, 47342.78289589678, -39721.24036803727, 5988.6134849326, -187500.02235174447, -8542.88143430727, 24541.72367354914, -25026.935342184945, 0.674, -0.714, 0.266, 192.0, 0.0, 0.0, 0.0, 0.0, 0.0, 0.0, 0.0, 0.0, 0.0, 1.663591292047963E9, 0.0, 2022-09-19 17:41:32.047
27.0, 33178.66124852434, 47411.693324052496, -39734.67376645491, 5987.026511076273, -187500.02235174447, -7672.437449984247, 24520.534219805508, -25021.19094385993, 0.674, -0.714, 0.266, 192.0, 0.0, 0.0, 0.0, 0.0, 0.0, 0.0, 0.0, 0.0, 0.0, 1.6635912920519547E9, 0.0, 2022-09-19 17:41:32.051
28.0, 32793.853615981774, 47244.41286854898, -39683.644733863446, 5966.485257921846, -187500.02235174447, -8313.2619635179, 24551.401978898288, -24992.51365572377, 0.674, -0.714, 0.266, 192.0, 0.0, 0.0, 0.0, 0.0, 0.0, 0.0, 0.0, 0.0, 0.0, 1.6635912920559826E9, 0.0, 2022-09-19 17:41:32.055
29.0, 32479.163405795505, 47167.61227460054, -39661.80707953061, 5982.109127296106, -187500.02235174447, -9188.176296731985, 24555.8946795338, -24972.866472347556, 0.674, -0.714, 0.266, 192.0, 0.0, 0.0, 0.0, 0.0, 0.0, 0.0, 0.0, 0.0, 0.0, 1.6635912920599778E9, 0.0, 2022-09-19 17:41:32.059
30.0, 32541.52477282581, 47221.21175780437, -39681.387207673455, 5991.250990778326, -187500.02235174447, -9281.964216466453, 24532.04536819999, -24994.36885051356, 0.674, -0.714, 0.266, 192.0, 0.0, 0.0, 0.0, 0.0, 0.0, 0.0, 0.0, 0.0, 0.0, 1.6635912920639975E9, 0.0, 2022-09-19 17:41:32.063
31.0, 32905.32176558039, 47351.23185530089, -39704.387152717965, 6006.204307818926, -187500.02235174447, -8592.547010486962, 24509.358347577854, -25001.09672559461, 0.674, -0.714, 0.266, 192.0, 0.0, 0.0, 0.0, 0.0, 0.0, 0.0, 0.0, 0.0, 0.0, 1.6635912920669868E9, 0.0, 2022-09-19 17:41:32.066
32.0, 33206.66798432684, 47393.25313487687, -39735.90311239995, 5977.057633049207, -187500.02235174447, -7724.561718054023, 24470.46631222562, -25018.62049324757, 0.674, -0.714, 0.266, 192.0, 0.0, 0.0, 0.0, 0.0, 0.0, 0.0, 0.0, 0.0, 0.0, 1.66359129207117E9, 0.0, 2022-09-19 17:41:32.071
33.0, 32806.83997951031, 47211.51110071076, -39694.15005375744, 5943.038277988229, -187500.02235174447, -8375.936254970582, 24489.08531535689, -25001.789629672723, 0.674, -0.714, 0.266, 192.0, 0.0, 0.0, 0.0, 0.0, 0.0, 0.0, 0.0, 0.0, 0.0, 1.6635912920759935E9, 0.0, 2022-09-19 17:41:32.075
34.0, 32490.853368145632, 47137.81739924162, -39669.31726566759, 5959.243292718326, -187500.02235174447, -9252.169341107528, 24496.930777660702, -24991.865455134568, 0.682, -0.716, 0.268, 192.0, 21.0, 80.0, 233.0, 160.0, 8.0, 96.0, 0.0, 0.0, 0.0, 1.663591292080042E9, 0.0, 2022-09-19 17:41:32.080
35.0, 32558.64620907858, 47189.24876323328, -39684.9187832974, 5972.4978771803235, -187500.02235174447, -9344.727914896956, 24484.525559488007, -25005.61177797458, 0.682, -0.716, 0.268, 192.0, 0.0, 0.0, 0.0, 0.0, 0.0, 0.0, 0.0, 0.0, 0.0, 1.6635912920840416E9, 0.0, 2022-09-19 17:41:32.084
36.0, 32918.59870178684, 47315.87139557259, -39710.95856558783, 5977.6611301494995, -187500.02235174447, -8664.541979377505, 24451.60143990534, -25035.29489461123, 0.682, -0.716, 0.268, 192.0, 0.0, 0.0, 0.0, 0.0, 0.0, 0.0, 0.0, 0.0, 0.0, 1.6635912920880156E9, 0.0, 2022-09-19 17:41:32.088
37.0, 33227.27629271463, 47362.07245136171, -39728.14705707396, 5966.351147455114, -187500.02235174447, -7793.561553187556, 24424.667587836695, -25043.743854015334, 0.682, -0.716, 0.268, 192.0, 0.0, 0.0, 0.0, 0.0, 0.0, 0.0, 0.0, 0.0, 0.0, 1.6635912920920622E9, 0.0, 2022-09-19 17:41:32.092
38.0, 32837.66303511417, 47178.899905550476, -39676.00043725973, 5949.117952480073, -187500.02235174447, -8436.353020233277, 24462.3749807328, -24997.721612181856, 0.682, -0.716, 0.268, 192.0, 0.0, 0.0, 0.0, 0.0, 0.0, 0.0, 0.0, 0.0, 0.0, 1.663591292095104E9, 0.0, 2022-09-19 17:41:32.095
39.0, 32520.804705715742, 47108.11193086051, -39652.03936720364, 5968.340452711636, -187500.02235174447, -9321.549155896802, 24473.439094238176, -24971.50301593578, 0.682, -0.716, 0.268, 192.0, 0.0, 0.0, 0.0, 0.0, 0.0, 0.0, 0.0, 0.0, 0.0, 1.6635912920990496E9, 0.0, 2022-09-19 17:41:32.099
40.0, 32577.332267443213, 47154.46944886082, -39685.23170771977, 5969.368632956581, -187500.02235174447, -9431.363276405726, 24433.60828561882, -25000.560283727682, 0.682, -0.716, 0.268, 192.0, 0.0, 0.0, 0.0, 0.0, 0.0, 0.0, 0.0, 0.0, 0.0, 1.6635912921050806E9, 0.0, 2022-09-19 17:41:32.105
41.0, 32927.71821352461, 47270.676168283964, -39724.63783319448, 5970.553275412712, -187500.02235174447, -8766.667099793804, 24382.802770471906, -25029.28227535275, 0.682, -0.716, 0.268, 192.0, 0.0, 0.0, 0.0, 0.0, 0.0, 0.0, 0.0, 0.0, 0.0, 1.6635912921080692E9, 0.0, 2022-09-19 17:41:32.108
42.0, 33253.11490930497, 47343.49815171935, -39725.33073727259, 5967.491086422335, -187500.02235174447, -7874.832496027053, 24377.170130869166, -25023.314359583183, 0.682, -0.716, 0.268, 192.0, 0.0, 0.0, 0.0, 0.0, 0.0, 0.0, 0.0, 0.0, 0.0, 1.663591292112064E9, 0.0, 2022-09-19 17:41:32.112
43.0, 32871.57063145288, 47169.24395194578, -39672.46886163579, 5946.927481523452, -187500.02235174447, -8504.190564655133, 24423.482945380565, -24990.41259174497, 0.682, -0.716, 0.268, 192.0, 0.0, 0.0, 0.0, 0.0, 0.0, 0.0, 0.0, 0.0, 0.0, 1.6635912921160705E9, 0.0, 2022-09-19 17:41:32.116
44.0, 32538.842563491176, 47079.12171830198, -39663.81873653159, 5950.570815869667, -187500.02235174447, -9407.692779027555, 24419.236113934054, -24994.70412668039, 0.682, -0.716, 0.268, 192.0, 0.0, 0.0, 0.0, 0.0, 0.0, 0.0, 0.0, 0.0, 0.0, 1.6635912921190891E9, 0.0, 2022-09-19 17:41:32.119
45.0, 32591.391514705603, 47123.35582057903, -39693.16657700141, 5954.191798471427, -187500.02235174447, -9528.727475253043, 24385.68614550664, -25007.981062886844, 0.678, -0.714, 0.252, 192.0, 21.0, 48.0, 233.0, 176.0, 7.0, 224.0, 0.0, 0.0, 0.0, 1.6635912921231763E9, 0.0, 2022-09-19 17:41:32.123
46.0, 32941.48688810907, 47254.49350529832, -39720.63687093698, 5960.249121218815, -187500.02235174447, -8874.558970279571, 24350.280982289434, -25021.57092351567, 0.678, -0.714, 0.252, 192.0, 0.0, 0.0, 0.0, 0.0, 0.0, 0.0, 0.0, 0.0, 0.0, 1.6635912921270924E9, 0.0, 2022-09-19 17:41:32.127
47.0, 33273.097368848015, 47339.29602376176, -39729.46580999682, 5952.426010659458, -187500.02235174447, -7978.544590299677, 24327.929237834127, -25020.542743270726, 0.678, -0.714, 0.252, 192.0, 0.0, 0.0, 0.0, 0.0, 0.0, 0.0, 0.0, 0.0, 0.0, 1.6635912921321073E9, 0.0, 2022-09-19 17:41:32.132
48.0, 32892.9612508966, 47169.802745557165, -39678.90616403892, 5928.576699325646, -187500.02235174447, -8604.102862370357, 24364.92137490766, -24992.938338868422, 0.678, -0.714, 0.252, 192.0, 0.0, 0.0, 0.0, 0.0, 0.0, 0.0, 0.0, 0.0, 0.0, 1.6635912921361525E9, 0.0, 2022-09-19 17:41:32.136
49.0, 32564.815290548242, 47080.48517471376, -39659.90718125191, 5936.913900007475, -187500.02235174447, -9510.35434131078, 24379.29354659242, -24985.383449242527, 0.678, -0.714, 0.252, 192.0, 0.0, 0.0, 0.0, 0.0, 0.0, 0.0, 0.0, 0.0, 0.0, 1.6635912921401715E9, 0.0, 2022-09-19 17:41:32.140
50.0, 32635.625616982656, 47141.5277888212, -39667.79734704463, 5963.84775207612, -187500.02235174447, -9619.408502508224, 24363.58027024034, -24980.51076895127, 0.678, -0.714, 0.252, 192.0, 0.0, 0.0, 0.0, 0.0, 0.0, 0.0, 0.0, 0.0, 0.0, 1.6635912921441205E9, 0.0, 2022-09-19 17:41:32.144
51.0, 32987.06209505345, 47266.92107521547, -39703.202510261835, 5968.899246323019, -187500.02235174447, -8966.894026624444, 24318.943836563092, -25008.09282160912, 0.678, -0.714, 0.252, 192.0, 0.0, 0.0, 0.0, 0.0, 0.0, 0.0, 0.0, 0.0, 0.0, 1.6635912921471317E9, 0.0, 2022-09-19 17:41:32.147
52.0, 33306.3120611086, 47321.25816598632, -39729.24229255227, 5948.134475724039, -187500.02235174447, -8078.523943248266, 24287.874911770217, -25025.594237517624, 0.678, -0.714, 0.252, 192.0, 0.0, 0.0, 0.0, 0.0, 0.0, 0.0, 0.0, 0.0, 0.0, 1.6635912921511328E9, 0.0, 2022-09-19 17:41:32.151
53.0, 32918.95632969813, 47137.48212307479, -39668.80317554512, 5926.073303946651, -187500.02235174447, -8704.037511830034, 24332.466641958552, -24992.89363537951, 0.678, -0.714, 0.252, 192.0, 0.0, 0.0, 0.0, 0.0, 0.0, 0.0, 0.0, 0.0, 0.0, 1.6635912921551309E9, 0.0, 2022-09-19 17:41:32.155
54.0, 32574.62770636412, 47040.76612481668, -39664.89162026544, 5926.967373724863, -187500.02235174447, -9625.242307811059, 24320.262589485956, -24999.018013360266, 0.678, -0.714, 0.252, 192.0, 0.0, 0.0, 0.0, 0.0, 0.0, 0.0, 0.0, 0.0, 0.0, 1.6635912921592095E9, 0.0, 2022-09-19 17:41:32.159
55.0, 32637.436108283535, 47096.44432025484, -39684.94113504185, 5945.809894300687, -187500.02235174447, -9740.040867333517, 24288.880740270706, -24997.721612181856, 0.682, -0.712, 0.256, 192.0, 21.0, 80.0, 233.0, 192.0, 8.0, 0.0, 0.0, 0.0, 0.0, 1.6635912921641853E9, 0.0, 2022-09-19 17:41:32.164
56.0, 32981.205938006155, 47216.87551938004, -39708.18694927537, 5958.148057240017, -187500.02235174447, -9097.919952621454, 24266.46194058203, -25011.289121066227, 0.682, -0.712, 0.256, 192.0, 0.0, 0.0, 0.0, 0.0, 0.0, 0.0, 0.0, 0.0, 0.0, 1.6635912921682186E9, 0.0, 2022-09-19 17:41:32.168
57.0, 33307.96609019829, 47289.3622266486, -39712.34437374406, 5955.041164760729, -187500.02235174447, -8198.99984586237, 24262.080998668793, -25009.858609421088, 0.682, -0.712, 0.256, 192.0, 0.0, 0.0, 0.0, 0.0, 0.0, 0.0, 0.0, 0.0, 0.0, 1.6635912921722207E9, 0.0, 2022-09-19 17:41:32.172
58.0, 32921.90675996623, 47109.07305587209, -39675.62045760399, 5923.50285333429, -187500.02235174447, -8812.532879416094, 24284.61155707974, -24987.55156845469, 0.682, -0.712, 0.256, 192.0, 0.0, 0.0, 0.0, 0.0, 0.0, 0.0, 0.0, 0.0, 0.0, 1.6635912921752005E9, 0.0, 2022-09-19 17:41:32.175
59.0, 32575.946459286984, 47015.48630183772, -39659.996588229726, 5932.063571460673, -187500.02235174447, -9734.095303308404, 24284.656260568652, -24975.23575725982, 0.682, -0.712, 0.256, 192.0, 0.0, 0.0, 0.0, 0.0, 0.0, 0.0, 0.0, 0.0, 0.0, 1.6635912921791916E9, 0.0, 2022-09-19 17:41:32.179
60.0, 32624.449744755002, 47071.63388390945, -39674.03348374766, 5949.475580391358, -187500.02235174447, -9861.612005425932, 24260.76224574593, -24978.812036372667, 0.682, -0.712, 0.256, 192.0, 0.0, 0.0, 0.0, 0.0, 0.0, 0.0, 0.0, 0.0, 0.0, 1.663591292183179E9, 0.0, 2022-09-19 17:41:32.183
61.0, 32962.36341743034, 47202.033961061716, -39715.495969712254, 5954.549426382712, -187500.02235174447, -9225.235489038883, 24213.667120178598, -24999.062716849177, 0.682, -0.712, 0.256, 192.0, 0.0, 0.0, 0.0, 0.0, 0.0, 0.0, 0.0, 0.0, 0.0, 1.6635912921872077E9, 0.0, 2022-09-19 17:41:32.187
62.0, 33281.83690093004, 47277.09111894263, -39735.38902227748, 5936.198644184905, -187500.02235174447, -8330.204585815023, 24184.296927964322, -25017.458202535894, 0.682, -0.712, 0.256, 192.0, 0.0, 0.0, 0.0, 0.0, 0.0, 0.0, 0.0, 0.0, 0.0, 1.6635912921921818E9, 0.0, 2022-09-19 17:41:32.192
63.0, 32893.408285785714, 47100.48998600125, -39683.354161185525, 5906.35906533707, -187500.02235174447, -8937.836758832545, 24224.35125402823, -25002.52723723975, 0.682, -0.712, 0.256, 192.0, 0.0, 0.0, 0.0, 0.0, 0.0, 0.0, 0.0, 0.0, 0.0, 1.6635912921962104E9, 0.0, 2022-09-19 17:41:32.196
64.0, 32544.229333904903, 47003.88574646542, -39661.20358243032, 5927.146187680506, -187500.02235174447, -9864.13775254938, 24235.84005067826, -24974.386390970518, 0.682, -0.712, 0.256, 192.0, 0.0, 0.0, 0.0, 0.0, 0.0, 0.0, 0.0, 0.0, 0.0, 1.6635912921992435E9, 0.0, 2022-09-19 17:41:32.199
65.0, 32596.957099074974, 47052.701956355806, -39676.73804482676, 5951.5989961146115, -187500.02235174447, -9994.157850045902, 24209.420288732086, -24972.37473396954, 0.674, -0.712, 0.258, 192.0, 21.0, 16.0, 233.0, 192.0, 8.0, 16.0, 0.0, 0.0, 0.0, 1.6635912922032156E9, 0.0, 2022-09-19 17:41:32.203
66.0, 32941.24101892007, 47175.70360609336, -39699.290954982156, 5960.673804363466, -187500.02235174447, -9357.7589819144, 24181.92764305206, -24992.938338868422, 0.674, -0.712, 0.258, 192.0, 0.0, 0.0, 0.0, 0.0, 0.0, 0.0, 0.0, 0.0, 0.0, 1.663591292207226E9, 0.0, 2022-09-19 17:41:32.207
67.0, 33267.285915289634, 47238.869635924064, -39712.09850455505, 5947.642737346022, -187500.02235174447, -8456.2460727985, 24160.06763697477, -25003.71187969588, 0.674, -0.712, 0.258, 192.0, 0.0, 0.0, 0.0, 0.0, 0.0, 0.0, 0.0, 0.0, 0.0, 1.663591292211285E9, 0.0, 2022-09-19 17:41:32.211
68.0, 32877.404436755714, 47053.953654045305, -39684.047065263636, 5908.5718880381455, -187500.02235174447, -9064.504094660771, 24172.204634214002, -24983.975289341844, 0.674, -0.712, 0.258, 192.0, 0.0, 0.0, 0.0, 0.0, 0.0, 0.0, 0.0, 0.0, 0.0, 1.6635912922152936E9, 0.0, 2022-09-19 17:41:32.215
69.0, 32522.81636271672, 46965.172525068825, -39659.4601463628, 5920.507719577279, -187500.02235174447, -10003.50087922822, 24189.348422211224, -24970.07250429064, 0.674, -0.712, 0.258, 192.0, 0.0, 0.0, 0.0, 0.0, 0.0, 0.0, 0.0, 0.0, 0.0, 1.663591292220295E9, 0.0, 2022-09-19 17:41:32.220
70.0, 32561.149604457572, 47007.35026685599, -39678.01209426071, 5923.279335889738, -187500.02235174447, -10153.592843245608, 24167.667230089573, -24985.0481730757, 0.674, -0.712, 0.258, 192.0, 0.0, 0.0, 0.0, 0.0, 0.0, 0.0, 0.0, 0.0, 0.0, 1.663591292224276E9, 0.0, 2022-09-19 17:41:32.224
71.0, 32899.82323644438, 47125.3227740911, -39713.46196096682, 5928.6437545590115, -187500.02235174447, -9532.057885176884, 24121.19795336699, -24994.14533306901, 0.674, -0.712, 0.258, 192.0, 0.0, 0.0, 0.0, 0.0, 0.0, 0.0, 0.0, 0.0, 0.0, 1.663591292227383E9, 0.0, 2022-09-19 17:41:32.227
72.0, 33245.2470952567, 47197.09422553709, -39729.53286523019, 5916.685571275422, -187500.02235174447, -8618.653848010761, 24095.96283387695, -24993.743001668812, 0.674, -0.712, 0.258, 192.0, 0.0, 0.0, 0.0, 0.0, 0.0, 0.0, 0.0, 0.0, 0.0, 1.663591292231315E9, 0.0, 2022-09-19 17:41:32.231
73.0, 32862.51817494848, 47008.62431628994, -39694.77590260219, 5876.564189978146, -187500.02235174447, -9218.440558724471, 24122.986092923416, -24980.399010228994, 0.674, -0.712, 0.258, 192.0, 0.0, 0.0, 0.0, 0.0, 0.0, 0.0, 0.0, 0.0, 0.0, 1.6635912922363288E9, 0.0, 2022-09-19 17:41:32.236
74.0, 32515.932025424485, 46926.504007161144, -39668.46789937829, 5889.5505535066795, -187500.02235174447, -10152.922290911949, 24139.034645442327, -24965.691562377404, 0.674, -0.712, 0.258, 192.0, 0.0, 0.0, 0.0, 0.0, 0.0, 0.0, 0.0, 0.0, 0.0, 1.6635912922393186E9, 0.0, 2022-09-19 17:41:32.239
75.0, 32581.35558144517, 47004.31042961007, -39675.441643648344, 5908.1025014045845, -187500.02235174447, -10285.065804131724, 24121.01913941135, -24967.725571122835, 0.684, -0.72, 0.254, 192.0, 21.0, 96.0, 233.0, 128.0, 7.0, 240.0, 0.0, 0.0, 0.0, 1.6635912922432945E9, 0.0, 2022-09-19 17:41:32.243
76.0, 32935.22839966159, 47145.14877142296, -39702.26373699471, 5909.622420027545, -187500.02235174447, -9658.926386705207, 24087.446819239478, -24992.066620834667, 0.684, -0.72, 0.254, 192.0, 0.0, 0.0, 0.0, 0.0, 0.0, 0.0, 0.0, 0.0, 0.0, 1.6635912922473094E9, 0.0, 2022-09-19 17:41:32.247
77.0, 33275.44430201582, 47220.22828104834, -39725.62130995051, 5881.816849925143, -187500.02235174447, -8745.365887327896, 24055.640286879574, -25015.580656001646, 0.684, -0.72, 0.254, 192.0, 0.0, 0.0, 0.0, 0.0, 0.0, 0.0, 0.0, 0.0, 0.0, 1.6635912922523057E9, 0.0, 2022-09-19 17:41:32.252
78.0, 32902.75131496803, 47035.53581661413, -39669.33961741205, 5851.083201299096, -187500.02235174447, -9322.979667541942, 24103.517723502842, -24989.85379813359, 0.684, -0.72, 0.254, 192.0, 0.0, 0.0, 0.0, 0.0, 0.0, 0.0, 0.0, 0.0, 0.0, 1.6635912922553089E9, 0.0, 2022-09-19 17:41:32.255
79.0, 32538.68610127999, 46928.135684506386, -39651.10059393652, 5861.767335148733, -187500.02235174447, -10271.051260358247, 24102.847171169185, -24973.84994910359, 0.684, -0.72, 0.254, 192.0, 0.0, 0.0, 0.0, 0.0, 0.0, 0.0, 0.0, 0.0, 0.0, 1.6635912922593305E9, 0.0, 2022-09-19 17:41:32.259
80.0, 32584.216604735448, 46986.138461367904, -39671.64184709094, 5878.419384767936, -187500.02235174447, -10417.388131307142, 24070.750066131364, -24989.78674290022, 0.684, -0.72, 0.254, 192.0, 0.0, 0.0, 0.0, 0.0, 0.0, 0.0, 0.0, 0.0, 0.0, 1.6635912922633793E9, 0.0, 2022-09-19 17:41:32.263
81.0, 32926.24299839056, 47120.49479728875, -39691.08786476706, 5890.3775680515255, -187500.02235174447, -9795.450841838223, 24045.4255396635, -24999.442696504917, 0.684, -0.72, 0.254, 192.0, 0.0, 0.0, 0.0, 0.0, 0.0, 0.0, 0.0, 0.0, 0.0, 1.6635912922673182E9, 0.0, 2022-09-19 17:41:32.267
82.0, 33275.26548806018, 47203.93385934042, -39705.862367852016, 5878.374681279026, -187500.02235174447, -8862.377269551429, 24029.46639412241, -25007.176400086453, 0.684, -0.72, 0.254, 192.0, 0.0, 0.0, 0.0, 0.0, 0.0, 0.0, 0.0, 0.0, 0.0, 1.6635912922713697E9, 0.0, 2022-09-19 17:41:32.271
83.0, 32900.829064944875, 47022.19182517431, -39672.155937213414, 5842.924814572909, -187500.02235174447, -9420.85795651173, 24044.88909779657, -24991.351365012095, 0.684, -0.72, 0.254, 192.0, 0.0, 0.0, 0.0, 0.0, 0.0, 0.0, 0.0, 0.0, 0.0, 1.6635912922763455E9, 0.0, 2022-09-19 17:41:32.276
84.0, 32545.458679849948, 46933.09777177546, -39646.94316946783, 5861.074431070618, -187500.02235174447, -10343.04622924879, 24061.116464271126, -24974.699315392892, 0.684, -0.72, 0.254, 192.0, 0.0, 0.0, 0.0, 0.0, 0.0, 0.0, 0.0, 0.0, 0.0, 1.6635912922803495E9, 0.0, 2022-09-19 17:41:32.280
85.0, 32586.3400204587, 46982.226906088224, -39670.23368719026, 5875.647768455478, -187500.02235174447, -10477.760193080925, 24032.394472646058, -24983.148274796997, 0.682, -0.722, 0.254, 192.0, 21.0, 80.0, 233.0, 112.0, 7.0, 240.0, 0.0, 0.0, 0.0, 1.6635912922833457E9, 0.0, 2022-09-19 17:41:32.283
86.0, 32922.487905322065, 47107.508433760224, -39696.89931832544, 5890.154050606972, -187500.02235174447, -9848.357420963934, 24003.337204854157, -24992.558359212682, 0.682, -0.722, 0.254, 192.0, 0.0, 0.0, 0.0, 0.0, 0.0, 0.0, 0.0, 0.0, 0.0, 1.6635912922873805E9, 0.0, 2022-09-19 17:41:32.287
87.0, 33273.499700248205, 47185.180745742415, -39725.46484773932, 5879.894599901986, -187500.02235174447, -8900.486993847728, 23967.350896281114, -25006.751716941802, 0.682, -0.722, 0.254, 192.0, 0.0, 0.0, 0.0, 0.0, 0.0, 0.0, 0.0, 0.0, 0.0, 1.663591292291395E9, 0.0, 2022-09-19 17:41:32.291
88.0, 32899.063277132904, 47005.83034823303, -39680.87311755099, 5845.96465181883, -187500.02235174447, -9440.572195121313, 23994.08358264966, -24995.41938250296, 0.682, -0.722, 0.254, 192.0, 0.0, 0.0, 0.0, 0.0, 0.0, 0.0, 0.0, 0.0, 0.0, 1.6635912922953837E9, 0.0, 2022-09-19 17:41:32.295
89.0, 32534.48397332239, 46911.95302152074, -39650.54180032513, 5864.226027038816, -187500.02235174447, -10363.833351592226, 24012.32260612519, -24975.906309593476, 0.682, -0.722, 0.254, 192.0, 0.0, 0.0, 0.0, 0.0, 0.0, 0.0, 0.0, 0.0, 0.0, 1.6635912922993703E9, 0.0, 2022-09-19 17:41:32.299
90.0, 32573.57717437472, 46959.025795343616, -39680.53784138415, 5874.932512632909, -187500.02235174447, -10496.312140978831, 23971.038934116237, -24994.57001621366, 0.682, -0.722, 0.254, 192.0, 0.0, 0.0, 0.0, 0.0, 0.0, 0.0, 0.0, 0.0, 0.0, 1.663591292303396E9, 0.0, 2022-09-19 17:41:32.303
91.0, 32926.824143746395, 47096.51137548821, -39703.0236963062, 5903.83331821362, -187500.02235174447, -9846.94926106325, 23941.624038413054, -24994.32414702465, 0.682, -0.722, 0.254, 192.0, 0.0, 0.0, 0.0, 0.0, 0.0, 0.0, 0.0, 0.0, 0.0, 1.663591292308412E9, 0.0, 2022-09-19 17:41:32.308
92.0, 33278.64060147293, 47174.80953631515, -39722.93910061588, 5894.914972175953, -187500.02235174447, -8881.488011060717, 23917.841782312607, -25011.713804210878, 0.682, -0.722, 0.254, 192.0, 0.0, 0.0, 0.0, 0.0, 0.0, 0.0, 0.0, 0.0, 0.0, 1.6635912923114078E9, 0.0, 2022-09-19 17:41:32.311
93.0, 32908.1157336373, 47003.01402843166, -39676.82745180457, 5862.951977604864, -187500.02235174447, -9392.158316631117, 23953.26929727427, -25001.543760483713, 0.682, -0.722, 0.254, 192.0, 0.0, 0.0, 0.0, 0.0, 0.0, 0.0, 0.0, 0.0, 0.0, 1.6635912923154435E9, 0.0, 2022-09-19 17:41:32.315
94.0, 32541.94945597046, 46917.85388205694, -39651.99466371473, 5881.682739458411, -187500.02235174447, -10305.56235379724, 23963.595803212622, -24977.672097405448, 0.682, -0.722, 0.254, 192.0, 0.0, 0.0, 0.0, 0.0, 0.0, 0.0, 0.0, 0.0, 0.0, 1.663591292319512E9, 0.0, 2022-09-19 17:41:32.319
95.0, 32586.608241392165, 46982.3386648105, -39669.80900404561, 5897.664236743955, -187500.02235174447, -10426.082959900255, 23945.625000670552, -24993.76535341327, 0.672, -0.716, 0.262, 192.0, 21.0, 0.0, 233.0, 160.0, 8.0, 48.0, 0.0, 0.0, 0.0, 1.6635912923235247E9, 0.0, 2022-09-19 17:41:32.323
96.0, 32926.824143746395, 47112.64933498494, -39705.504739940734, 5910.292972361204, -187500.02235174447, -9789.929960957761, 23892.58431107811, -25013.43488853394, 0.672, -0.716, 0.262, 192.0, 0.0, 0.0, 0.0, 0.0, 0.0, 0.0, 0.0, 0.0, 0.0, 1.6635912923275044E9, 0.0, 2022-09-19 17:41:32.327
97.0, 33288.25185158871, 47196.91541158145, -39726.09069658407, 5902.268696101749, -187500.02235174447, -8814.723350372715, 23871.283098612203, -25020.43098454845, 0.672, -0.716, 0.262, 192.0, 0.0, 0.0, 0.0, 0.0, 0.0, 0.0, 0.0, 0.0, 0.0, 1.6635912923315048E9, 0.0, 2022-09-19 17:41:32.331
98.0, 32928.34406236935, 47029.210272933284, -39675.28518143716, 5870.73038467531, -187500.02235174447, -9304.874754533143, 23912.92439853244, -24998.28040579324, 0.672, -0.716, 0.262, 192.0, 0.0, 0.0, 0.0, 0.0, 0.0, 0.0, 0.0, 0.0, 0.0, 1.6635912923364532E9, 0.0, 2022-09-19 17:41:32.336
99.0, 32557.372159644627, 46934.550635165055, -39647.501963079216, 5887.985931394807, -187500.02235174447, -10215.64128585354, 23920.30047420269, -24980.778989884733, 0.672, -0.716, 0.262, 192.0, 0.0, 0.0, 0.0, 0.0, 0.0, 0.0, 0.0, 0.0, 0.0, 1.6635912923397183E9, 0.0, 2022-09-19 17:41:32.339
100.0, 32602.276814255336, 46987.52426952413, -39662.164707441894, 5910.494138061302, -187500.02235174447, -10330.886880265103, 23901.01091873776, -24982.924757352444, 0.672, -0.716, 0.262, 192.0, 0.0, 0.0, 0.0, 0.0, 0.0, 0.0, 0.0, 0.0, 0.0, 1.6635912923425317E9, 0.0, 2022-09-19 17:41:32.342
101.0, 32935.18369617268, 47114.370419308, -39697.23459449227, 5917.825510242643, -187500.02235174447, -9695.784413312009, 23859.95076417336, -25004.248321562805, 0.672, -0.716, 0.262, 192.0, 0.0, 0.0, 0.0, 0.0, 0.0, 0.0, 0.0, 0.0, 0.0, 1.6635912923475175E9, 0.0, 2022-09-19 17:41:32.347
102.0, 33299.87475870547, 47210.63938267701, -39716.121818557, 5910.225917127838, -187500.02235174447, -8711.01125610009, 23836.86141215103, -25021.079185137653, 0.672, -0.716, 0.262, 192.0, 0.0, 0.0, 0.0, 0.0, 0.0, 0.0, 0.0, 0.0, 0.0, 1.6635912923515515E9, 0.0, 2022-09-19 17:41:32.351
103.0, 32936.055414206436, 47032.78655204613, -39674.50287038122, 5885.571942993634, -187500.02235174447, -9190.00913977732, 23865.404589820457, -25002.348423284107, 0.672, -0.716, 0.262, 192.0, 0.0, 0.0, 0.0, 0.0, 0.0, 0.0, 0.0, 0.0, 0.0, 1.663591292355566E9, 0.0, 2022-09-19 17:41:32.355
104.0, 32562.11072946915, 46931.689611874775, -39646.22791364526, 5908.92951594943, -187500.02235174447, -10098.585200141097, 23881.34138361709, -24982.164798040965, 0.672, -0.716, 0.262, 192.0, 0.0, 0.0, 0.0, 0.0, 0.0, 0.0, 0.0, 0.0, 0.0, 1.6635912923595164E9, 0.0, 2022-09-19 17:41:32.359
105.0, 32603.483808455923, 46984.752653211675, -39672.26769593569, 5927.772036525254, -187500.02235174447, -10222.056236512213, 23844.818633177118, -24991.91015862348, 0.67, -0.718, 0.262, 192.0, 20.0, 240.0, 233.0, 144.0, 8.0, 48.0, 0.0, 0.0, 0.0, 1.6635912923636212E9, 0.0, 2022-09-19 17:41:32.363
106.0, 32941.41983287571, 47117.67847748739, -39702.643716650455, 5936.198644184905, -187500.02235174447, -9593.592237662344, 23810.486353693766, -25012.697280966913, 0.67, -0.718, 0.262, 192.0, 0.0, 0.0, 0.0, 0.0, 0.0, 0.0, 0.0, 0.0, 0.0, 1.663591292367571E9, 0.0, 2022-09-19 17:41:32.367
107.0, 33317.86791299199, 47213.43335073392, -39722.983804104784, 5919.300725376693, -187500.02235174447, -8601.979446647101, 23786.793504571142, -25028.924647441465, 0.67, -0.718, 0.262, 192.0, 0.0, 0.0, 0.0, 0.0, 0.0, 0.0, 0.0, 0.0, 0.0, 1.6635912923705769E9, 0.0, 2022-09-19 17:41:32.370
108.0, 32967.169042488225, 47045.772915574664, -39679.53201288367, 5887.02480638323, -187500.02235174447, -9064.302928960673, 23814.017929317706, -24999.84502790511, 0.67, -0.718, 0.262, 192.0, 0.0, 0.0, 0.0, 0.0, 0.0, 0.0, 0.0, 0.0, 0.0, 1.6635912923765984E9, 0.0, 2022-09-19 17:41:32.376
109.0, 32583.613107635156, 46940.38444046789, -39663.99755048723, 5895.630227998523, -187500.02235174447, -9987.094698798026, 23804.965472813306, -24987.104533565587, 0.67, -0.718, 0.262, 192.0, 0.0, 0.0, 0.0, 0.0, 0.0, 0.0, 0.0, 0.0, 0.0, 1.6635912923795395E9, 0.0, 2022-09-19 17:41:32.379
110.0, 32627.64604421211, 47002.432883075824, -39676.26865819319, 5919.211318398871, -187500.02235174447, -10114.387883471, 23790.03450751716, -24992.08897257912, 0.67, -0.718, 0.262, 192.0, 0.0, 0.0, 0.0, 0.0, 0.0, 0.0, 0.0, 0.0, 0.0, 1.6635912923835433E9, 0.0, 2022-09-19 17:41:32.383
111.0, 32978.59078390489, 47148.680347046895, -39692.719542112296, 5946.949833267908, -187500.02235174447, -9474.658605415656, 23774.701210820822, -24998.213350559876, 0.67, -0.718, 0.262, 192.0, 0.0, 0.0, 0.0, 0.0, 0.0, 0.0, 0.0, 0.0, 0.0, 1.6635912923875988E9, 0.0, 2022-09-19 17:41:32.387
112.0, 33357.475204166796, 47244.36816506006, -39722.916748871416, 5935.237519173327, -187500.02235174447, -8477.144953864212, 23734.669236501366, -25016.09474612412, 0.67, -0.718, 0.262, 192.0, 0.0, 0.0, 0.0, 0.0, 0.0, 0.0, 0.0, 0.0, 0.0, 1.6635912923916247E9, 0.0, 2022-09-19 17:41:32.391
113.0, 32998.61794693684, 47061.46384018229, -39683.197698974334, 5886.108384860562, -187500.02235174447, -8942.687087379347, 23764.46411186029, -25016.430022290948, 0.67, -0.718, 0.262, 192.0, 0.0, 0.0, 0.0, 0.0, 0.0, 0.0, 0.0, 0.0, 0.0, 1.6635912923956091E9, 0.0, 2022-09-19 17:41:32.395
114.0, 32615.017308594863, 46960.88099013341, -39643.54570431062, 5902.045178657196, -187500.02235174447, -9865.881188616895, 23794.32604245258, -24996.335804025628, 0.67, -0.718, 0.262, 192.0, 0.0, 0.0, 0.0, 0.0, 0.0, 0.0, 0.0, 0.0, 0.0, 1.66359129239867E9, 0.0, 2022-09-19 17:41:32.398
115.0, 32668.862660987696, 47033.770028802166, -39650.362986369495, 5937.942080252419, -187500.02235174447, -9989.26281801019, 23779.75270506772, -24985.56226319817, 0.67, -0.718, 0.258, 192.0, 20.0, 240.0, 233.0, 144.0, 8.0, 16.0, 0.0, 0.0, 0.0, 1.6635912924036024E9, 0.0, 2022-09-19 17:41:32.403
116.0, 33016.05230761198, 47166.82996354461, -39679.911992539404, 5958.282167706749, -187500.02235174447, -9362.341089527737, 23745.822756984566, -24991.954862112387, 0.67, -0.718, 0.258, 192.0, 0.0, 0.0, 0.0, 0.0, 0.0, 0.0, 0.0, 0.0, 0.0, 1.6635912924076288E9, 0.0, 2022-09-19 17:41:32.407
117.0, 33395.65198369646, 47253.64413900902, -39717.41821973541, 5936.153940695995, -187500.02235174447, -8367.397888588654, 23701.186323307316, -25011.13265885504, 0.67, -0.718, 0.258, 192.0, 0.0, 0.0, 0.0, 0.0, 0.0, 0.0, 0.0, 0.0, 0.0, 1.6635912924115949E9, 0.0, 2022-09-19 17:41:32.411
118.0, 33049.91520046177, 47077.378282234466, -39677.58741111606, 5899.966466422852, -187500.02235174447, -8816.198565506766, 23722.26401832867, -24990.99373710081, 0.67, -0.718, 0.258, 192.0, 0.0, 0.0, 0.0, 0.0, 0.0, 0.0, 0.0, 0.0, 0.0, 1.6635912924156184E9, 0.0, 2022-09-19 17:41:32.415
119.0, 32660.57016379478, 46964.680786690806, -39658.05198646212, 5907.029617670729, -187500.02235174447, -9747.50634998159, 23726.063814886074, -24984.176455041943, 0.67, -0.718, 0.258, 192.0, 0.0, 0.0, 0.0, 0.0, 0.0, 0.0, 0.0, 0.0, 0.0, 1.6635912924196346E9, 0.0, 2022-09-19 17:41:32.419
120.0, 32715.84602783275, 47031.78072354564, -39675.37458841498, 5935.148112195506, -187500.02235174447, -9872.76552590913, 23699.55464596208, -24982.90240560799, 0.67, -0.718, 0.258, 192.0, 0.0, 0.0, 0.0, 0.0, 0.0, 0.0, 0.0, 0.0, 0.0, 1.663591292423693E9, 0.0, 2022-09-19 17:41:32.423
121.0, 33074.122139706866, 47169.91450427944, -39686.349294942534, 5957.924539795464, -187500.02235174447, -9242.87101541412, 23698.459410483767, -24989.80909464468, 0.67, -0.718, 0.258, 192.0, 0.0, 0.0, 0.0, 0.0, 0.0, 0.0, 0.0, 0.0, 0.0, 1.6635912924266737E9, 0.0, 2022-09-19 17:41:32.426
122.0, 33471.91613577797, 47257.26512161078, -39713.99840283375, 5946.078115234151, -187500.02235174447, -8234.96380269096, 23664.39535193388, -25005.61177797458, 0.67, -0.718, 0.258, 192.0, 0.0, 0.0, 0.0, 0.0, 0.0, 0.0, 0.0, 0.0, 0.0, 1.663591292431685E9, 0.0, 2022-09-19 17:41:32.431
123.0, 33132.95193111324, 47079.054663068615, -39673.51939362519, 5913.489271818313, -187500.02235174447, -8678.33300570643, 23690.92687260233, -24988.445638232904, 0.67, -0.718, 0.258, 192.0, 0.0, 0.0, 0.0, 0.0, 0.0, 0.0, 0.0, 0.0, 0.0, 1.663591292435711E9, 0.0, 2022-09-19 17:41:32.435
124.0, 32745.350330513756, 46969.82168791553, -39648.35132936852, 5922.497024833801, -187500.02235174447, -9616.346313517846, 23705.16493382036, -24974.296983992695, 0.67, -0.718, 0.258, 192.0, 0.0, 0.0, 0.0, 0.0, 0.0, 0.0, 0.0, 0.0, 0.0, 1.6635912924396474E9, 0.0, 2022-09-19 17:41:32.439
125.0, 32784.555290288365, 47020.336630384525, -39675.50869888171, 5933.024696472251, -187500.02235174447, -9759.956271643196, 23669.424494436324, -24990.501998722793, 0.67, -0.714, 0.264, 192.0, 20.0, 240.0, 233.0, 176.0, 8.0, 64.0, 0.0, 0.0, 0.0, 1.663591292443705E9, 0.0, 2022-09-19 17:41:32.443
126.0, 33138.11518408241, 47158.1798384404, -39694.64179213546, 5962.4619439198905, -187500.02235174447, -9133.012191416286, 23642.87062202342, -24992.75952491278, 0.67, -0.714, 0.264, 192.0, 0.0, 0.0, 0.0, 0.0, 0.0, 0.0, 0.0, 0.0, 0.0, 1.663591292447652E9, 0.0, 2022-09-19 17:41:32.447
127.0, 33541.340654056155, 47260.72964200135, -39723.274376782705, 5953.588301371134, -187500.02235174447, -8111.60452504212, 23613.81335423152, -25010.61856873257, 0.67, -0.714, 0.264, 192.0, 0.0, 0.0, 0.0, 0.0, 0.0, 0.0, 0.0, 0.0, 0.0, 1.6635912924516675E9, 0.0, 2022-09-19 17:41:32.451
128.0, 33201.97411799122, 47082.31801775909, -39690.57377464459, 5914.271582874248, -187500.02235174447, -8547.59765238734, 23635.315732397525, -24997.319280781663, 0.67, -0.714, 0.264, 192.0, 0.0, 0.0, 0.0, 0.0, 0.0, 0.0, 0.0, 0.0, 0.0, 1.6635912924547727E9, 0.0, 2022-09-19 17:41:32.454
129.0, 32823.78260180743, 46983.43390028881, -39650.67591079187, 5936.578623840645, -187500.02235174447, -9480.313596762848, 23660.17087223183, -24966.697390877893, 0.67, -0.714, 0.264, 192.0, 0.0, 0.0, 0.0, 0.0, 0.0, 0.0, 0.0, 0.0, 0.0, 1.6635912924587424E9, 0.0, 2022-09-19 17:41:32.458
130.0, 32865.28979126093, 47036.02755499215, -39669.98781800125, 5946.480446634347, -187500.02235174447, -9621.777787420486, 23630.241886406173, -24980.600175929092, 0.67, -0.714, 0.264, 192.0, 0.0, 0.0, 0.0, 0.0, 0.0, 0.0, 0.0, 0.0, 0.0, 1.663591292463765E9, 0.0, 2022-09-19 17:41:32.463
131.0, 33209.752525061675, 47163.47720187631, -39700.47559743829, 5950.79433331422, -187500.02235174447, -9001.002788663243, 23592.400383043336, -25000.493228494317, 0.67, -0.714, 0.264, 192.0, 0.0, 0.0, 0.0, 0.0, 0.0, 0.0, 0.0, 0.0, 0.0, 1.6635912924677126E9, 0.0, 2022-09-19 17:41:32.467
132.0, 33611.63689036809, 47257.756859988796, -39733.24325480977, 5934.991649984318, -187500.02235174447, -7972.330805341102, 23545.61818189838, -25019.581618259148, 0.67, -0.714, 0.264, 192.0, 0.0, 0.0, 0.0, 0.0, 0.0, 0.0, 0.0, 0.0, 0.0, 1.6635912924717433E9, 0.0, 2022-09-19 17:41:32.471
133.0, 33278.618249728475, 47082.29566601464, -39689.992629288754, 5901.575792023635, -187500.02235174447, -8386.128650442202, 23588.600586485933, -25000.582635472136, 0.67, -0.714, 0.264, 192.0, 0.0, 0.0, 0.0, 0.0, 0.0, 0.0, 0.0, 0.0, 0.0, 1.6635912924757512E9, 0.0, 2022-09-19 17:41:32.475
134.0, 32888.78147468346, 46971.5874757275, -39657.40378587291, 5922.117045178062, -187500.02235174447, -9317.592897128212, 23609.879447207386, -24980.8460451181, 0.67, -0.714, 0.264, 192.0, 0.0, 0.0, 0.0, 0.0, 0.0, 0.0, 0.0, 0.0, 0.0, 1.6635912924797468E9, 0.0, 2022-09-19 17:41:32.479
135.0, 32921.97381519959, 47018.48143559473, -39676.96156227131, 5941.518359365268, -187500.02235174447, -9459.30295697486, 23585.47134226219, -24992.781876657235, 0.67, -0.712, 0.266, 192.0, 20.0, 240.0, 233.0, 192.0, 8.0, 80.0, 0.0, 0.0, 0.0, 1.6635912924827597E9, 0.0, 2022-09-19 17:41:32.482
136.0, 33263.46376698778, 47148.43447785789, -39697.94985031484, 5960.494990407824, -187500.02235174447, -8839.690248929292, 23556.257612259105, -24998.101591837596, 0.67, -0.712, 0.266, 192.0, 0.0, 0.0, 0.0, 0.0, 0.0, 0.0, 0.0, 0.0, 0.0, 1.6635912924867744E9, 0.0, 2022-09-19 17:41:32.486
137.0, 33678.781530711836, 47263.478906569355, -39717.19470229086, 5958.483333406846, -187500.02235174447, -7794.165050287849, 23528.250876456605, -25001.52140873926, 0.67, -0.712, 0.266, 192.0, 0.0, 0.0, 0.0, 0.0, 0.0, 0.0, 0.0, 0.0, 0.0, 1.6635912924917686E9, 0.0, 2022-09-19 17:41:32.491
138.0, 33345.2711516942, 47094.63382895396, -39684.829376319576, 5919.770112010255, -187500.02235174447, -8203.3360842867, 23547.428673199258, -24987.12688531004, 0.67, -0.712, 0.266, 192.0, 0.0, 0.0, 0.0, 0.0, 0.0, 0.0, 0.0, 0.0, 0.0, 1.6635912924957552E9, 0.0, 2022-09-19 17:41:32.495
139.0, 32939.87756250829, 46973.64383621739, -39664.86926852098, 5925.26864114626, -187500.02235174447, -9150.401848602516, 23552.815443612988, -24976.576861927137, 0.67, -0.712, 0.266, 192.0, 0.0, 0.0, 0.0, 0.0, 0.0, 0.0, 0.0, 0.0, 0.0, 1.6635912924997747E9, 0.0, 2022-09-19 17:41:32.499
140.0, 32979.84248159439, 47029.72436305575, -39679.04027450565, 5945.631080345044, -187500.02235174447, -9288.669739803045, 23532.117728247373, -24987.171588798952, 0.67, -0.712, 0.266, 192.0, 0.0, 0.0, 0.0, 0.0, 0.0, 0.0, 0.0, 0.0, 0.0, 1.6635912925037832E9, 0.0, 2022-09-19 17:41:32.503
141.0, 33320.88539849346, 47164.59478909907, -39713.73018190029, 5953.1859699709385, -187500.02235174447, -8672.789773081515, 23485.804913735978, -25003.153086084498, 0.67, -0.712, 0.266, 192.0, 0.0, 0.0, 0.0, 0.0, 0.0, 0.0, 0.0, 0.0, 0.0, 1.6635912925067573E9, 0.0, 2022-09-19 17:41:32.506
142.0, 33732.42571740457, 47263.344796102625, -39735.500780999755, 5945.251100689305, -187500.02235174447, -7625.8564145393875, 23460.34627680138, -25008.13752509803, 0.67, -0.712, 0.266, 192.0, 0.0, 0.0, 0.0, 0.0, 0.0, 0.0, 0.0, 0.0, 0.0, 1.6635912925107665E9, 0.0, 2022-09-19 17:41:32.510
143.0, 33403.29628030018, 47083.8602881265, -39685.05289376413, 5913.109292162573, -187500.02235174447, -8022.845747810095, 23507.955492491186, -24990.18907430042, 0.67, -0.712, 0.266, 192.0, 0.0, 0.0, 0.0, 0.0, 0.0, 0.0, 0.0, 0.0, 0.0, 1.6635912925147624E9, 0.0, 2022-09-19 17:41:32.514
144.0, 33006.39635400729, 46968.324121037025, -39656.26384690569, 5924.754551023788, -187500.02235174447, -8965.888198123956, 23519.354882163392, -24976.42039971595, 0.67, -0.712, 0.266, 192.0, 0.0, 0.0, 0.0, 0.0, 0.0, 0.0, 0.0, 0.0, 0.0, 1.6635912925198364E9, 0.0, 2022-09-19 17:41:32.519
145.0, 33043.67906375874, 47019.62137456195, -39688.584469388064, 5941.026620987252, -187500.02235174447, -9111.934496394933, 23478.22767236563, -24982.120094552054, 0.68, -0.718, 0.262, 192.0, 21.0, 64.0, 233.0, 144.0, 8.0, 48.0, 0.0, 0.0, 0.0, 1.663591292523841E9, 0.0, 2022-09-19 17:41:32.523
146.0, 33379.983410833294, 47143.450038844356, -39717.5746819466, 5947.039240245729, -187500.02235174447, -8506.045759444924, 23445.16944231623, -25000.403821516495, 0.68, -0.718, 0.262, 192.0, 0.0, 0.0, 0.0, 0.0, 0.0, 0.0, 0.0, 0.0, 0.0, 1.6635912925278444E9, 0.0, 2022-09-19 17:41:32.527
147.0, 33799.68211647059, 47241.21656909187, -39729.30934778564, 5939.953737253397, -187500.02235174447, -7452.339822332839, 23435.602895689357, -25011.020900132764, 0.68, -0.718, 0.262, 192.0, 0.0, 0.0, 0.0, 0.0, 0.0, 0.0, 0.0, 0.0, 0.0, 1.6635912925308163E9, 0.0, 2022-09-19 17:41:32.530
148.0, 33485.260127217785, 47066.09065128454, -39690.976106044785, 5905.308533347671, -187500.02235174447, -7833.034733895628, 23457.55230874447, -24987.216292287863, 0.68, -0.718, 0.262, 192.0, 0.0, 0.0, 0.0, 0.0, 0.0, 0.0, 0.0, 0.0, 0.0, 1.663591292534809E9, 0.0, 2022-09-19 17:41:32.534
149.0, 33087.04144800203, 46939.19979801176, -39667.28325692216, 5915.411521841469, -187500.02235174447, -8775.205466175732, 23462.872023924832, -24969.826635101635, 0.68, -0.718, 0.262, 192.0, 0.0, 0.0, 0.0, 0.0, 0.0, 0.0, 0.0, 0.0, 0.0, 1.6635912925388649E9, 0.0, 2022-09-19 17:41:32.538
150.0, 33125.46409672071, 46994.96740042775, -39677.52035588269, 5934.8128360286755, -187500.02235174447, -8913.361598653984, 23442.241363792582, -24976.822731116146, 0.68, -0.718, 0.262, 192.0, 0.0, 0.0, 0.0, 0.0, 0.0, 0.0, 0.0, 0.0, 0.0, 1.6635912925448363E9, 0.0, 2022-09-19 17:41:32.544
151.0, 33466.77523455325, 47128.45201831484, -39707.270527752706, 5945.876949534053, -187500.02235174447, -8280.002567768404, 23407.48440116458, -24998.70508893789, 0.68, -0.718, 0.262, 192.0, 0.0, 0.0, 0.0, 0.0, 0.0, 0.0, 0.0, 0.0, 0.0, 1.6635912925478652E9, 0.0, 2022-09-19 17:41:32.547
152.0, 33917.18523707214, 47249.53141802924, -39721.08390582608, 5952.470714148369, -187500.02235174447, -7115.5884403691825, 23389.0218602445, -24998.436868004428, 0.68, -0.718, 0.262, 192.0, 0.0, 0.0, 0.0, 0.0, 0.0, 0.0, 0.0, 0.0, 0.0, 1.6635912925519E9, 0.0, 2022-09-19 17:41:32.551
