%OpenBCI Raw EEG Data
%Number of channels = 8
%Sample Rate = 250 Hz
%Board = OpenBCI_GUI$BoardCytonSerial
Sample Index, EXG Channel 0, EXG Channel 1, EXG Channel 2, EXG Channel 3, EXG Channel 4, EXG Channel 5, EXG Channel 6, EXG Channel 7, Accel Channel 0, Accel Channel 1, Accel Channel 2, Other, Other, Other, Other, Other, Other, Other, Analog Channel 0, Analog Channel 1, Analog Channel 2, Timestamp, Other, Timestamp (Formatted)
213.0, 7035.34567777463, -2399.1021393659285, -73104.39772658322, -32289.620612814502, -61643.317239679964, -187500.02235174447, -46510.71685680352, -33478.57695562565, 0.0, 0.0, 0.0, 192.0, 0.0, 0.0, 0.0, 0.0, 0.0, 0.0, 0.0, 0.0, 0.0, 1.6635924494791937E9, 0.0, 2022-09-19 18:00:49.479
214.0, 6892.227458027299, -2437.8377125069755, -73014.29784468387, -32215.882207856444, -61552.12212230231, -187500.02235174447, -46456.446821266036, -33390.75695166075, 0.51, -0.858, 0.108, 192.0, 15.0, 240.0, 229.0, 48.0, 3.0, 96.0, 0.0, 0.0, 0.0, 1.6635924494792268E9, 0.0, 2022-09-19 18:00:49.479
215.0, 6865.919454803402, -2415.0836366514727, -73006.69825156906, -32188.434265665328, -61541.3262297304, -187500.02235174447, -46422.271003993876, -33387.98533534829, 0.51, -0.858, 0.108, 192.0, 0.0, 0.0, 0.0, 0.0, 0.0, 0.0, 0.0, 0.0, 0.0, 1.6635924494792457E9, 0.0, 2022-09-19 18:00:49.479
0.0, 0.0, 0.0, 0.0, 0.0, 0.0, 0.0, 0.0, 0.0, 0.51, -0.858, 0.108, 192.0, 0.0, 0.0, 0.0, 0.0, 0.0, 0.0, 0.0, 0.0, 0.0, 1.6635924495354965E9, 0.0, 2022-09-19 18:00:49.535
1.0, 2873.2720462408124, 7124.238565473386, -72390.46065693625, -30496.340155165217, -57551.741010158185, -187500.02235174447, -42571.937152378225, -29023.82958219404, 0.5, -0.868, 0.11, 192.0, 15.0, 160.0, 228.0, 224.0, 3.0, 112.0, 0.0, 0.0, 0.0, 1.6635924495524948E9, 0.0, 2022-09-19 18:00:49.552
2.0, 3013.9762775869704, 7182.3307493127295, -72472.26804164267, -30558.746225684434, -57613.83415625503, -187500.02235174447, -42672.318836727005, -29081.43002765537, 0.5, -0.868, 0.11, 192.0, 0.0, 0.0, 0.0, 0.0, 0.0, 0.0, 0.0, 0.0, 0.0, 1.6635924495554924E9, 0.0, 2022-09-19 18:00:49.555
3.0, 2787.776623699263, 7058.747954219336, -72380.67059286483, -30514.020385029366, -57501.4719368782, -187500.02235174447, -42704.21477606473, -28996.4933987252, 0.5, -0.868, 0.11, 192.0, 0.0, 0.0, 0.0, 0.0, 0.0, 0.0, 0.0, 0.0, 0.0, 1.6635924495594685E9, 0.0, 2022-09-19 18:00:49.559
4.0, 2621.725514140787, 7006.400168705007, -72329.1274701509, -30458.185727380005, -57420.178642294246, -187500.02235174447, -42705.48882549868, -28929.572275826013, 0.5, -0.868, 0.11, 192.0, 0.0, 0.0, 0.0, 0.0, 0.0, 0.0, 0.0, 0.0, 0.0, 1.6635924495636008E9, 0.0, 2022-09-19 18:00:49.563
5.0, 2665.5349332731885, 7073.611864282116, -72379.32948819752, -30484.672544559548, -57454.24270084414, -187500.02235174447, -42745.230227140215, -28974.476930436726, 0.5, -0.868, 0.11, 192.0, 0.0, 0.0, 0.0, 0.0, 0.0, 0.0, 0.0, 0.0, 0.0, 1.6635924495665262E9, 0.0, 2022-09-19 18:00:49.566
6.0, 2856.3964791770554, 7192.679606995536, -72452.5538030331, -30546.586876700745, -57562.46984749674, -187500.02235174447, -42700.7279039297, -29075.953850263817, 0.5, -0.868, 0.11, 192.0, 0.0, 0.0, 0.0, 0.0, 0.0, 0.0, 0.0, 0.0, 0.0, 1.6635924495705237E9, 0.0, 2022-09-19 18:00:49.570
7.0, 2942.5848057967196, 7232.309249914796, -72493.4574953863, -30601.594519805258, -57627.06638897257, -187500.02235174447, -42708.01457262213, -29124.680653176387, 0.5, -0.868, 0.11, 192.0, 0.0, 0.0, 0.0, 0.0, 0.0, 0.0, 0.0, 0.0, 0.0, 1.663592449574545E9, 0.0, 2022-09-19 18:00:49.574
8.0, 2655.2084273348364, 7084.228942898387, -72392.62877614841, -30533.309940494295, -57507.3727974144, -187500.02235174447, -42707.96986913322, -29018.75573620269, 0.498, -0.872, 0.112, 192.0, 15.0, 144.0, 228.0, 192.0, 3.0, 128.0, 0.0, 0.0, 0.0, 1.663592449578532E9, 0.0, 2022-09-19 18:00:49.578
9.0, 2481.2000967502713, 7015.385569976041, -72345.4218918588, -30464.153643149573, -57437.881223902856, -187500.02235174447, -42685.618124677916, -28951.365226669936, 0.498, -0.872, 0.112, 192.0, 0.0, 0.0, 0.0, 0.0, 0.0, 0.0, 0.0, 0.0, 0.0, 1.6635924495825176E9, 0.0, 2022-09-19 18:00:49.582
10.0, 2555.586702297533, 7031.72469517287, -72371.34991542697, -30447.8368696972, -57465.53033179407, -187500.02235174447, -42675.00104606165, -28951.87931679241, 0.498, -0.872, 0.112, 192.0, 0.0, 0.0, 0.0, 0.0, 0.0, 0.0, 0.0, 0.0, 0.0, 1.6635924495875134E9, 0.0, 2022-09-19 18:00:49.587
11.0, 2789.4306527889553, 7099.78575703928, -72482.28162315865, -30485.41015212657, -57556.658393938356, -187500.02235174447, -42770.01831174115, -29036.078338155552, 0.498, -0.872, 0.112, 192.0, 0.0, 0.0, 0.0, 0.0, 0.0, 0.0, 0.0, 0.0, 0.0, 1.663592449591572E9, 0.0, 2022-09-19 18:00:49.591
12.0, 2930.827788213228, 7110.559297866738, -72536.7751761407, -30547.27978077886, -57608.89442073041, -187500.02235174447, -42857.34657732804, -29092.94117604985, 0.498, -0.872, 0.112, 192.0, 0.0, 0.0, 0.0, 0.0, 0.0, 0.0, 0.0, 0.0, 0.0, 1.6635924495945537E9, 0.0, 2022-09-19 18:00:49.594
13.0, 2658.605892492043, 6945.022278430734, -72382.97282254373, -30497.79301855481, -57472.21350338621, -187500.02235174447, -42728.9358054323, -29014.441849522813, 0.498, -0.872, 0.112, 192.0, 0.0, 0.0, 0.0, 0.0, 0.0, 0.0, 0.0, 0.0, 0.0, 1.663592449598574E9, 0.0, 2022-09-19 18:00:49.598
14.0, 2500.489652215201, 6879.889295087969, -72327.78636548357, -30455.145890134085, -57406.07469154295, -187500.02235174447, -42663.06521452251, -28973.135825769405, 0.498, -0.872, 0.112, 192.0, 0.0, 0.0, 0.0, 0.0, 0.0, 0.0, 0.0, 0.0, 0.0, 1.663592449602552E9, 0.0, 2022-09-19 18:00:49.602
15.0, 2586.208592201304, 6952.912444223457, -72373.74155208368, -30502.956271523988, -57440.317564048484, -187500.02235174447, -42686.78041538959, -29018.93455015833, 0.498, -0.872, 0.112, 192.0, 0.0, 0.0, 0.0, 0.0, 0.0, 0.0, 0.0, 0.0, 0.0, 1.6635924496065068E9, 0.0, 2022-09-19 18:00:49.606
16.0, 2818.1079409251142, 7049.248462825831, -72461.38274209294, -30554.253525048916, -57542.57679493151, -187500.02235174447, -42701.64432545237, -29109.436763457867, 0.498, -0.872, 0.112, 192.0, 0.0, 0.0, 0.0, 0.0, 0.0, 0.0, 0.0, 0.0, 0.0, 1.6635924496105807E9, 0.0, 2022-09-19 18:00:49.610
17.0, 2905.7491309343736, 6994.821965077158, -72485.81319878259, -30534.22636201696, -57582.76523146215, -187500.02235174447, -42717.73758146019, -29114.91294084942, 0.498, -0.872, 0.112, 192.0, 0.0, 0.0, 0.0, 0.0, 0.0, 0.0, 0.0, 0.0, 0.0, 1.663592449615556E9, 0.0, 2022-09-19 18:00:49.615
18.0, 2648.2123313203256, 6801.38996856093, -72356.19543268626, -30431.20717182245, -57460.14356138034, -187500.02235174447, -42670.865973337415, -28976.64504964889, 0.496, -0.87, 0.10400000000000001, 192.0, 15.0, 128.0, 228.0, 208.0, 3.0, 64.0, 0.0, 0.0, 0.0, 1.663592449619586E9, 0.0, 2022-09-19 18:00:49.619
19.0, 2543.0250219136506, 6748.148113268389, -72312.69893797624, -30383.620307877103, -57411.237944512126, -187500.02235174447, -42627.54829258303, -28928.454688603248, 0.496, -0.87, 0.10400000000000001, 192.0, 0.0, 0.0, 0.0, 0.0, 0.0, 0.0, 0.0, 0.0, 0.0, 1.663592449622614E9, 0.0, 2022-09-19 18:00:49.622
20.0, 2630.554453200633, 6813.571669289073, -72354.8319762745, -30422.422936251514, -57467.31847135049, -187500.02235174447, -42624.03906870355, -28978.902575838874, 0.496, -0.87, 0.10400000000000001, 192.0, 0.0, 0.0, 0.0, 0.0, 0.0, 0.0, 0.0, 0.0, 0.0, 1.6635924496265748E9, 0.0, 2022-09-19 18:00:49.626
21.0, 2864.733679858885, 6953.47123783484, -72474.34675387702, -30520.99412929942, -57595.930408946326, -187500.02235174447, -42694.02238059311, -29082.83818755605, 0.496, -0.87, 0.10400000000000001, 192.0, 0.0, 0.0, 0.0, 0.0, 0.0, 0.0, 0.0, 0.0, 0.0, 1.6635924496306179E9, 0.0, 2022-09-19 18:00:49.630
22.0, 2927.0950468891915, 6992.229162720342, -72530.11435629301, -30565.027065876373, -57648.34524969402, -187500.02235174447, -42816.80051288611, -29119.22682752929, 0.496, -0.87, 0.10400000000000001, 192.0, 0.0, 0.0, 0.0, 0.0, 0.0, 0.0, 0.0, 0.0, 0.0, 1.6635924496346197E9, 0.0, 2022-09-19 18:00:49.634
23.0, 2663.009186149739, 6889.724062648304, -72412.18655254682, -30493.12150396365, -57529.590431402976, -187500.02235174447, -42789.08434976153, -29002.148390072394, 0.496, -0.87, 0.10400000000000001, 192.0, 0.0, 0.0, 0.0, 0.0, 0.0, 0.0, 0.0, 0.0, 0.0, 1.6635924496385844E9, 0.0, 2022-09-19 18:00:49.638
24.0, 2551.384574339935, 6906.242001800776, -72357.3800751424, -30463.8407187272, -57499.50498336613, -187500.02235174447, -42693.508290470636, -28964.77627334312, 0.496, -0.87, 0.10400000000000001, 192.0, 0.0, 0.0, 0.0, 0.0, 0.0, 0.0, 0.0, 0.0, 0.0, 1.6635924496426208E9, 0.0, 2022-09-19 18:00:49.642
25.0, 2638.4669707378116, 7013.2845059972415, -72404.18462803181, -30480.73863753541, -57560.6370044514, -187500.02235174447, -42712.21670057973, -29010.418535520857, 0.496, -0.87, 0.10400000000000001, 192.0, 0.0, 0.0, 0.0, 0.0, 0.0, 0.0, 0.0, 0.0, 0.0, 1.6635924496476126E9, 0.0, 2022-09-19 18:00:49.647
26.0, 2856.731755343885, 7145.31626049474, -72491.37878315196, -30533.08642304974, -57670.00409007122, -187500.02235174447, -42721.179750106305, -29106.396926211946, 0.496, -0.87, 0.10400000000000001, 192.0, 0.0, 0.0, 0.0, 0.0, 0.0, 0.0, 0.0, 0.0, 0.0, 1.6635924496506596E9, 0.0, 2022-09-19 18:00:49.650
27.0, 2893.947409861971, 7148.669022163037, -72501.72764083477, -30571.978458401976, -57694.70276769433, -187500.02235174447, -42754.50620108917, -29135.834173659587, 0.496, -0.87, 0.10400000000000001, 192.0, 0.0, 0.0, 0.0, 0.0, 0.0, 0.0, 0.0, 0.0, 0.0, 1.663592449654677E9, 0.0, 2022-09-19 18:00:49.654
28.0, 2610.32612446858, 7006.713093127381, -72384.60449988896, -30477.184710167017, -57570.15884758936, -187500.02235174447, -42733.83083746801, -29003.668308695356, 0.504, -0.88, 0.1, 192.0, 15.0, 192.0, 228.0, 128.0, 3.0, 32.0, 0.0, 0.0, 0.0, 1.6635924496586134E9, 0.0, 2022-09-19 18:00:49.658
29.0, 2514.3700855219467, 6973.3642904000635, -72337.30820862153, -30423.36170951864, -57538.57583267401, -187500.02235174447, -42661.142964499355, -28951.6334476034, 0.504, -0.88, 0.1, 192.0, 0.0, 0.0, 0.0, 0.0, 0.0, 0.0, 0.0, 0.0, 0.0, 1.6635924496625872E9, 0.0, 2022-09-19 18:00:49.662
30.0, 2616.6740198938874, 7037.15616907551, -72369.04768574807, -30463.013704182355, -57599.864315970466, -187500.02235174447, -42636.82426653198, -29003.31068078407, 0.504, -0.88, 0.1, 192.0, 0.0, 0.0, 0.0, 0.0, 0.0, 0.0, 0.0, 0.0, 0.0, 1.6635924496666732E9, 0.0, 2022-09-19 18:00:49.666
31.0, 2861.4926769128656, 7148.333745996207, -72472.98329746525, -30539.546077197323, -57731.04670417866, -187500.02235174447, -42683.986447332674, -29113.817705371108, 0.504, -0.88, 0.1, 192.0, 0.0, 0.0, 0.0, 0.0, 0.0, 0.0, 0.0, 0.0, 0.0, 1.663592449670672E9, 0.0, 2022-09-19 18:00:49.670
32.0, 2896.2049360519572, 7123.523309650816, -72502.24173095725, -30569.162138600608, -57765.93777727339, -187500.02235174447, -42776.99205601121, -29131.788507913174, 0.504, -0.88, 0.1, 192.0, 0.0, 0.0, 0.0, 0.0, 0.0, 0.0, 0.0, 0.0, 0.0, 1.6635924496756768E9, 0.0, 2022-09-19 18:00:49.675
33.0, 2621.971383329795, 6991.804479575691, -72373.09335149448, -30487.75708529438, -57638.97986876725, -187500.02235174447, -42719.52572101662, -29011.49141925471, 0.504, -0.88, 0.1, 192.0, 0.0, 0.0, 0.0, 0.0, 0.0, 0.0, 0.0, 0.0, 0.0, 1.6635924496786675E9, 0.0, 2022-09-19 18:00:49.678
34.0, 2555.4078883418906, 7026.561442203694, -72343.85726974694, -30457.13519539061, -57602.59122879401, -187500.02235174447, -42669.63662739237, -28974.052247292075, 0.504, -0.88, 0.1, 192.0, 0.0, 0.0, 0.0, 0.0, 0.0, 0.0, 0.0, 0.0, 0.0, 1.6635924496826622E9, 0.0, 2022-09-19 18:00:49.682
35.0, 2678.2530758682583, 7130.228832987408, -72402.10591579747, -30479.151663679084, -57655.631918386454, -187500.02235174447, -42689.75319740215, -29010.239721565216, 0.504, -0.88, 0.1, 192.0, 0.0, 0.0, 0.0, 0.0, 0.0, 0.0, 0.0, 0.0, 0.0, 1.6635924496868236E9, 0.0, 2022-09-19 18:00:49.686
36.0, 2941.1095906626692, 7260.472447928482, -72504.5663123806, -30551.973647114475, -57764.88724528399, -187500.02235174447, -42716.68704947079, -29130.492106734768, 0.504, -0.88, 0.1, 192.0, 0.0, 0.0, 0.0, 0.0, 0.0, 0.0, 0.0, 0.0, 0.0, 1.6635924496907492E9, 0.0, 2022-09-19 18:00:49.690
37.0, 2943.6353377861187, 7221.647467809614, -72500.05126000062, -30566.077597865773, -57761.28861442669, -187500.02235174447, -42760.094137203, -29130.603865457044, 0.504, -0.88, 0.1, 192.0, 0.0, 0.0, 0.0, 0.0, 0.0, 0.0, 0.0, 0.0, 0.0, 1.663592449694651E9, 0.0, 2022-09-19 18:00:49.694
38.0, 2660.2152180928256, 7066.124029889587, -72373.33922068348, -30466.277058872827, -57626.88757501693, -187500.02235174447, -42703.58892721998, -29003.93652962882, 0.5, -0.878, 0.098, 192.0, 15.0, 160.0, 228.0, 144.0, 3.0, 16.0, 0.0, 0.0, 0.0, 1.6635924496986923E9, 0.0, 2022-09-19 18:00:49.698
39.0, 2604.738188354753, 7051.058954126711, -72350.11575819443, -30429.910770644045, -57600.57957179303, -187500.02235174447, -42650.19060971625, -28984.870491608443, 0.5, -0.878, 0.098, 192.0, 0.0, 0.0, 0.0, 0.0, 0.0, 0.0, 0.0, 0.0, 0.0, 1.6635924497036982E9, 0.0, 2022-09-19 18:00:49.703
40.0, 2732.478407916833, 7126.987830041388, -72401.36830823045, -30464.444215827494, -57666.22664525827, -187500.02235174447, -42652.53754288406, -29041.040425424628, 0.5, -0.878, 0.098, 192.0, 0.0, 0.0, 0.0, 0.0, 0.0, 0.0, 0.0, 0.0, 0.0, 1.6635924497067437E9, 0.0, 2022-09-19 18:00:49.706
41.0, 2984.49432665042, 7246.681421599558, -72517.35151020903, -30553.962952371, -57788.177763006424, -187500.02235174447, -42711.52379650161, -29146.875935420507, 0.5, -0.878, 0.098, 192.0, 0.0, 0.0, 0.0, 0.0, 0.0, 0.0, 0.0, 0.0, 0.0, 1.663592449710662E9, 0.0, 2022-09-19 18:00:49.710
42.0, 2967.797573542306, 7207.051778680298, -72512.72469910678, -30582.640240507157, -57775.21375122235, -187500.02235174447, -42776.45561414428, -29145.937162153383, 0.5, -0.878, 0.098, 192.0, 0.0, 0.0, 0.0, 0.0, 0.0, 0.0, 0.0, 0.0, 0.0, 1.6635924497146857E9, 0.0, 2022-09-19 18:00:49.714
43.0, 2696.670913299431, 7067.487486301361, -72387.17495050133, -30501.793980812312, -57641.52796763516, -187500.02235174447, -42724.197235607775, -29043.32030335907, 0.5, -0.878, 0.098, 192.0, 0.0, 0.0, 0.0, 0.0, 0.0, 0.0, 0.0, 0.0, 0.0, 1.6635924497186787E9, 0.0, 2022-09-19 18:00:49.718
44.0, 2652.347404044557, 7066.30284384523, -72377.45194166327, -30465.964134450453, -57626.97698199475, -187500.02235174447, -42712.55197674656, -29027.294102584616, 0.5, -0.878, 0.098, 192.0, 0.0, 0.0, 0.0, 0.0, 0.0, 0.0, 0.0, 0.0, 0.0, 1.6635924497227566E9, 0.0, 2022-09-19 18:00:49.722
45.0, 2808.5190425537876, 7152.6923361649915, -72437.51107901467, -30493.45678013048, -57682.498715221736, -187500.02235174447, -42747.01836669664, -29076.22207119728, 0.5, -0.878, 0.098, 192.0, 0.0, 0.0, 0.0, 0.0, 0.0, 0.0, 0.0, 0.0, 0.0, 1.6635924497267563E9, 0.0, 2022-09-19 18:00:49.726
46.0, 3075.398871350154, 7260.427744439572, -72543.123071566, -30571.24085083495, -57800.18064977892, -187500.02235174447, -42786.60330612699, -29187.6902207959, 0.5, -0.878, 0.098, 192.0, 0.0, 0.0, 0.0, 0.0, 0.0, 0.0, 0.0, 0.0, 0.0, 1.6635924497317688E9, 0.0, 2022-09-19 18:00:49.731
47.0, 2999.559402413297, 7178.732118455425, -72521.28541723316, -30568.89391766714, -57775.28080645571, -187500.02235174447, -42835.88890265094, -29158.208269859348, 0.5, -0.878, 0.098, 192.0, 0.0, 0.0, 0.0, 0.0, 0.0, 0.0, 0.0, 0.0, 0.0, 1.6635924497347996E9, 0.0, 2022-09-19 18:00:49.734
48.0, 2735.2500242292913, 7036.284451041753, -72385.27505222263, -30475.620088055148, -57652.88265381845, -187500.02235174447, -42733.87554095692, -29042.493288814225, 0.5, -0.872, 0.10200000000000001, 192.0, 15.0, 160.0, 228.0, 192.0, 3.0, 48.0, 0.0, 0.0, 0.0, 1.663592449737852E9, 0.0, 2022-09-19 18:00:49.737
49.0, 2683.1704596484255, 7028.1931195489315, -72346.20420291474, -30441.533677760803, -57634.57657510955, -187500.02235174447, -42602.22376611517, -29022.242608337714, 0.5, -0.872, 0.10200000000000001, 192.0, 0.0, 0.0, 0.0, 0.0, 0.0, 0.0, 0.0, 0.0, 0.0, 1.663592449742771E9, 0.0, 2022-09-19 18:00:49.742
50.0, 2787.843678932629, 7069.20857062442, -72406.44215422179, -30466.5899832952, -57687.97489261328, -187500.02235174447, -42625.1119524374, -29072.288164173147, 0.5, -0.872, 0.10200000000000001, 192.0, 0.0, 0.0, 0.0, 0.0, 0.0, 0.0, 0.0, 0.0, 0.0, 1.663592449746762E9, 0.0, 2022-09-19 18:00:49.746
51.0, 3025.6215364481855, 7137.3143359797405, -72543.90538262193, -30584.316621341306, -57807.17674579343, -187500.02235174447, -42763.625712826935, -29199.268424423746, 0.5, -0.872, 0.10200000000000001, 192.0, 0.0, 0.0, 0.0, 0.0, 0.0, 0.0, 0.0, 0.0, 0.0, 1.6635924497507393E9, 0.0, 2022-09-19 18:00:49.750
52.0, 2963.5283903513423, 7041.559462733205, -72516.85977183102, -30607.78595301938, -57781.136963503006, -187500.02235174447, -42811.592556428026, -29180.336496870103, 0.5, -0.872, 0.10200000000000001, 192.0, 0.0, 0.0, 0.0, 0.0, 0.0, 0.0, 0.0, 0.0, 0.0, 1.6635924497549367E9, 0.0, 2022-09-19 18:00:49.754
53.0, 2697.8332040111072, 6888.65117891445, -72389.52188366913, -30480.023381712843, -57647.76410433819, -187500.02235174447, -42718.85516868295, -29048.818832495075, 0.5, -0.872, 0.10200000000000001, 192.0, 0.0, 0.0, 0.0, 0.0, 0.0, 0.0, 0.0, 0.0, 0.0, 1.6635924497598388E9, 0.0, 2022-09-19 18:00:49.759
54.0, 2681.382320092001, 6867.104097259534, -72391.8911685814, -30418.69019492748, -57639.069275745074, -187500.02235174447, -42682.466528709716, -29024.142506616416, 0.5, -0.872, 0.10200000000000001, 192.0, 0.0, 0.0, 0.0, 0.0, 0.0, 0.0, 0.0, 0.0, 0.0, 1.663592449762828E9, 0.0, 2022-09-19 18:00:49.762
55.0, 2822.958269471916, 6928.504339278262, -72464.19906189431, -30445.624046996123, -57688.287817035656, -187500.02235174447, -42716.88821517089, -29068.60012633802, 0.5, -0.872, 0.10200000000000001, 192.0, 0.0, 0.0, 0.0, 0.0, 0.0, 0.0, 0.0, 0.0, 0.0, 1.6635924497658172E9, 0.0, 2022-09-19 18:00:49.765
56.0, 3070.0344526808803, 7043.2805470562635, -72569.94516491237, -30522.692861878022, -57787.10487927257, -187500.02235174447, -42765.41385238336, -29175.15089215647, 0.5, -0.872, 0.10200000000000001, 192.0, 0.0, 0.0, 0.0, 0.0, 0.0, 0.0, 0.0, 0.0, 0.0, 1.663592449770816E9, 0.0, 2022-09-19 18:00:49.770
57.0, 2977.006492257892, 6987.065909751166, -72522.9170945784, -30528.61607415868, -57732.70073326835, -187500.02235174447, -42790.42545442885, -29146.652417975954, 0.5, -0.872, 0.10200000000000001, 192.0, 0.0, 0.0, 0.0, 0.0, 0.0, 0.0, 0.0, 0.0, 0.0, 1.663592449774815E9, 0.0, 2022-09-19 18:00:49.774
58.0, 2714.127625719026, 6890.104042304045, -72402.79881987558, -30457.17989887952, -57613.007141710186, -187500.02235174447, -42702.180767319296, -29033.5525910321, 0.498, -0.864, 0.092, 192.0, 15.0, 144.0, 229.0, 0.0, 2.0, 224.0, 0.0, 0.0, 0.0, 1.663592449778877E9, 0.0, 2022-09-19 18:00:49.778
59.0, 2691.0829771856042, 6930.717161979337, -72401.12243904143, -30426.73682293139, -57613.56593532157, -187500.02235174447, -42649.09537423794, -29029.819849708063, 0.498, -0.864, 0.092, 192.0, 0.0, 0.0, 0.0, 0.0, 0.0, 0.0, 0.0, 0.0, 0.0, 1.6635924497828934E9, 0.0, 2022-09-19 18:00:49.782
60.0, 2843.2313016928797, 7054.724640217381, -72472.08922768703, -30466.07589317273, -57680.33059600957, -187500.02235174447, -42681.30423799804, -29095.019888284194, 0.498, -0.864, 0.092, 192.0, 0.0, 0.0, 0.0, 0.0, 0.0, 0.0, 0.0, 0.0, 0.0, 1.663592449786878E9, 0.0, 2022-09-19 18:00:49.786
61.0, 3085.948894733059, 7194.378339574139, -72590.35230760006, -30561.316676296792, -57785.29438797169, -187500.02235174447, -42793.93467830833, -29192.495845853788, 0.498, -0.864, 0.092, 192.0, 0.0, 0.0, 0.0, 0.0, 0.0, 0.0, 0.0, 0.0, 0.0, 1.6635924497898953E9, 0.0, 2022-09-19 18:00:49.789
62.0, 2992.250381976412, 7145.338612239196, -72548.15221406844, -30559.126205340173, -57717.41214006092, -187500.02235174447, -42866.108461154516, -29132.123784080006, 0.498, -0.864, 0.092, 192.0, 0.0, 0.0, 0.0, 0.0, 0.0, 0.0, 0.0, 0.0, 0.0, 1.6635924497938607E9, 0.0, 2022-09-19 18:00:49.793
63.0, 2762.5415042092213, 7057.317442574196, -72411.35953800197, -30461.20321288147, -57588.934312931815, -187500.02235174447, -42729.20402636576, -29022.64493973791, 0.498, -0.864, 0.092, 192.0, 0.0, 0.0, 0.0, 0.0, 0.0, 0.0, 0.0, 0.0, 0.0, 1.663592449798926E9, 0.0, 2022-09-19 18:00:49.798
64.0, 2760.0157570857714, 7096.030663970789, -72387.66668887934, -30407.916654100023, -57573.980995891216, -187500.02235174447, -42637.561874099, -29015.559436745578, 0.498, -0.864, 0.092, 192.0, 0.0, 0.0, 0.0, 0.0, 0.0, 0.0, 0.0, 0.0, 0.0, 1.6635924498028948E9, 0.0, 2022-09-19 18:00:49.802
65.0, 2918.020238640337, 7176.452240520984, -72456.62182052396, -30447.389834808095, -57644.4560461588, -187500.02235174447, -42668.78726110307, -29075.976202008274, 0.498, -0.864, 0.092, 192.0, 0.0, 0.0, 0.0, 0.0, 0.0, 0.0, 0.0, 0.0, 0.0, 1.663592449806945E9, 0.0, 2022-09-19 18:00:49.806
66.0, 3146.1868460401115, 7261.478276428971, -72561.33974329708, -30540.28368476435, -57760.506303370756, -187500.02235174447, -42744.22439863973, -29172.960421199852, 0.498, -0.864, 0.092, 192.0, 0.0, 0.0, 0.0, 0.0, 0.0, 0.0, 0.0, 0.0, 0.0, 1.663592449810926E9, 0.0, 2022-09-19 18:00:49.810
67.0, 3014.6021264317187, 7179.290912066807, -72504.43220191386, -30528.638425903137, -57696.44620376184, -187500.02235174447, -42805.13290228044, -29116.969301339308, 0.498, -0.864, 0.092, 192.0, 0.0, 0.0, 0.0, 0.0, 0.0, 0.0, 0.0, 0.0, 0.0, 1.6635924498138287E9, 0.0, 2022-09-19 18:00:49.813
68.0, 2806.373275086078, 7117.868318303624, -72404.89988385438, -30444.17118360653, -57591.527115288634, -187500.02235174447, -42749.23118939772, -29017.28052106864, 0.5, -0.862, 0.096, 192.0, 15.0, 160.0, 229.0, 16.0, 3.0, 0.0, 0.0, 0.0, 0.0, 1.663592449818088E9, 0.0, 2022-09-19 18:00:49.818
69.0, 2844.9523860159384, 7182.37545280164, -72417.66272993835, -30418.466677482927, -57600.37840609293, -187500.02235174447, -42724.26429084114, -29012.56430298857, 0.5, -0.862, 0.096, 192.0, 0.0, 0.0, 0.0, 0.0, 0.0, 0.0, 0.0, 0.0, 0.0, 1.6635924498219223E9, 0.0, 2022-09-19 18:00:49.821
70.0, 3015.40678923211, 7290.244971542951, -72479.13002719046, -30448.350959819672, -57685.136221067456, -187500.02235174447, -42707.634592966395, -29075.193890952338, 0.5, -0.862, 0.096, 192.0, 0.0, 0.0, 0.0, 0.0, 0.0, 0.0, 0.0, 0.0, 0.0, 1.6635924498259232E9, 0.0, 2022-09-19 18:00:49.825
71.0, 3205.195451402122, 7375.829801062322, -72560.7809496857, -30504.476190146946, -57790.68115838542, -187500.02235174447, -42728.75699147666, -29166.85839496355, 0.5, -0.862, 0.096, 192.0, 0.0, 0.0, 0.0, 0.0, 0.0, 0.0, 0.0, 0.0, 0.0, 1.6635924498309257E9, 0.0, 2022-09-19 18:00:49.830
72.0, 3033.8246266632827, 7266.641529398147, -72486.77432379418, -30464.153643149573, -57708.11381436751, -187500.02235174447, -42757.56839007955, -29094.70696386182, 0.5, -0.862, 0.096, 192.0, 0.0, 0.0, 0.0, 0.0, 0.0, 0.0, 0.0, 0.0, 0.0, 1.663592449834918E9, 0.0, 2022-09-19 18:00:49.834
73.0, 2810.016609432293, 7155.262786777353, -72378.34601144148, -30397.29957548375, -57612.291885887615, -187500.02235174447, -42650.68234809427, -29009.613872720467, 0.5, -0.862, 0.096, 192.0, 0.0, 0.0, 0.0, 0.0, 0.0, 0.0, 0.0, 0.0, 0.0, 1.6635924498389068E9, 0.0, 2022-09-19 18:00:49.838
74.0, 2836.615185334109, 7180.855534178679, -72384.35863069995, -30386.43662767847, -57621.32199064756, -187500.02235174447, -42597.105216634896, -29004.964709873762, 0.5, -0.862, 0.096, 192.0, 0.0, 0.0, 0.0, 0.0, 0.0, 0.0, 0.0, 0.0, 0.0, 1.663592449841952E9, 0.0, 2022-09-19 18:00:49.841
75.0, 2998.240649490434, 7261.76884910689, -72475.86667249998, -30424.233427552397, -57690.54534322564, -187500.02235174447, -42673.21290650522, -29065.068550714084, 0.5, -0.862, 0.096, 192.0, 0.0, 0.0, 0.0, 0.0, 0.0, 0.0, 0.0, 0.0, 0.0, 1.6635924498459525E9, 0.0, 2022-09-19 18:00:49.845
76.0, 3217.0195242189798, 7342.8162745018335, -72587.3348220986, -30496.027230742842, -57787.59661765059, -187500.02235174447, -42806.04932380311, -29160.91283093844, 0.5, -0.862, 0.096, 192.0, 0.0, 0.0, 0.0, 0.0, 0.0, 0.0, 0.0, 0.0, 0.0, 1.6635924498499784E9, 0.0, 2022-09-19 18:00:49.849
77.0, 3067.4416503240645, 7219.926383486555, -72490.44000988484, -30451.457852298958, -57692.825221160085, -187500.02235174447, -42793.8005678416, -29072.57873685107, 0.5, -0.862, 0.096, 192.0, 0.0, 0.0, 0.0, 0.0, 0.0, 0.0, 0.0, 0.0, 0.0, 1.6635924498539762E9, 0.0, 2022-09-19 18:00:49.853
78.0, 2854.4071739205333, 7106.088948975676, -72369.07003749252, -30361.96146749991, -57589.224885609736, -187500.02235174447, -42654.8174208185, -28972.621735646935, 0.5, -0.862, 0.096, 192.0, 0.0, 0.0, 0.0, 0.0, 0.0, 0.0, 0.0, 0.0, 0.0, 1.6635924498589797E9, 0.0, 2022-09-19 18:00:49.858
79.0, 2894.3944447510776, 7128.038362030788, -72378.45777016375, -30359.189851187453, -57604.55818230608, -187500.02235174447, -42615.05366743251, -28987.955032343274, 0.496, -0.866, 0.094, 192.0, 15.0, 128.0, 228.0, 240.0, 2.0, 240.0, 0.0, 0.0, 0.0, 1.6635924498630385E9, 0.0, 2022-09-19 18:00:49.863
80.0, 3084.116051687724, 7213.690246783525, -72450.20686986529, -30414.756287903347, -57699.50839275222, -187500.02235174447, -42626.02837396006, -29074.344524663036, 0.496, -0.866, 0.094, 192.0, 0.0, 0.0, 0.0, 0.0, 0.0, 0.0, 0.0, 0.0, 0.0, 1.6635924498670304E9, 0.0, 2022-09-19 18:00:49.867
81.0, 3275.64814992525, 7279.58318943777, -72532.99773132775, -30488.98643123942, -57790.345882218586, -187500.02235174447, -42704.10301734245, -29157.224793103316, 0.496, -0.866, 0.094, 192.0, 0.0, 0.0, 0.0, 0.0, 0.0, 0.0, 0.0, 0.0, 0.0, 1.6635924498700287E9, 0.0, 2022-09-19 18:00:49.870
82.0, 3076.56116206183, 7158.257920534364, -72452.1514716329, -30461.806709981767, -57687.34904376853, -187500.02235174447, -42737.87650321442, -29076.244422941738, 0.496, -0.866, 0.094, 192.0, 0.0, 0.0, 0.0, 0.0, 0.0, 0.0, 0.0, 0.0, 0.0, 1.6635924498740344E9, 0.0, 2022-09-19 18:00:49.874
83.0, 2893.2321540394014, 7086.017082454811, -72395.37804071642, -30419.45015423896, -57599.73020550373, -187500.02235174447, -42751.46636384325, -29009.233893064727, 0.496, -0.866, 0.094, 192.0, 0.0, 0.0, 0.0, 0.0, 0.0, 0.0, 0.0, 0.0, 0.0, 1.6635924498780377E9, 0.0, 2022-09-19 18:00:49.878
84.0, 2959.5721315827527, 7137.582556913204, -72435.99116039171, -30408.676613411502, -57627.87105177296, -187500.02235174447, -42804.52940518015, -29019.470992025257, 0.496, -0.866, 0.094, 192.0, 0.0, 0.0, 0.0, 0.0, 0.0, 0.0, 0.0, 0.0, 0.0, 1.6635924498820176E9, 0.0, 2022-09-19 18:00:49.882
85.0, 3159.3520235242872, 7232.4657121259825, -72498.41958265539, -30448.485070286402, -57717.34508482755, -187500.02235174447, -42757.92601799083, -29082.391152666947, 0.496, -0.866, 0.094, 192.0, 0.0, 0.0, 0.0, 0.0, 0.0, 0.0, 0.0, 0.0, 0.0, 1.663592449887009E9, 0.0, 2022-09-19 18:00:49.887
86.0, 3314.361371321842, 7273.056480056821, -72541.4243389874, -30490.998088240398, -57802.21465852436, -187500.02235174447, -42711.2332238237, -29163.01389491724, 0.496, -0.866, 0.094, 192.0, 0.0, 0.0, 0.0, 0.0, 0.0, 0.0, 0.0, 0.0, 0.0, 1.6635924498910525E9, 0.0, 2022-09-19 18:00:49.891
87.0, 3067.106374157235, 7097.662341316026, -72425.03880560861, -30410.375345990105, -57695.84270666155, -187500.02235174447, -42670.12836577039, -29057.80423376611, 0.496, -0.866, 0.094, 192.0, 0.0, 0.0, 0.0, 0.0, 0.0, 0.0, 0.0, 0.0, 0.0, 1.6635924498950708E9, 0.0, 2022-09-19 18:00:49.895
88.0, 2870.925113073005, 6960.9814239718235, -72348.59583957146, -30323.71763273688, -57606.45808058478, -187500.02235174447, -42621.58037681346, -28965.670343121332, 0.496, -0.866, 0.094, 192.0, 0.0, 0.0, 0.0, 0.0, 0.0, 0.0, 0.0, 0.0, 0.0, 1.6635924498980496E9, 0.0, 2022-09-19 18:00:49.898
89.0, 2935.275785359834, 6980.874476537047, -72394.37221221594, -30339.72148176688, -57628.429845384344, -187500.02235174447, -42676.655075151335, -28987.128017798426, 0.498, -0.876, 0.092, 192.0, 15.0, 144.0, 228.0, 160.0, 2.0, 224.0, 0.0, 0.0, 0.0, 1.6635924499020119E9, 0.0, 2022-09-19 18:00:49.902
90.0, 3148.891407119204, 7059.373803064085, -72471.46337884228, -30392.024563792296, -57729.14680589996, -187500.02235174447, -42682.35476998744, -29071.37174265048, 0.498, -0.876, 0.092, 192.0, 0.0, 0.0, 0.0, 0.0, 0.0, 0.0, 0.0, 0.0, 0.0, 1.6635924499060657E9, 0.0, 2022-09-19 18:00:49.906
91.0, 3268.74146088856, 7048.15322734752, -72521.6206934, -30445.31112257375, -57795.06210029866, -187500.02235174447, -42709.04275286708, -29141.466813262323, 0.498, -0.876, 0.092, 192.0, 0.0, 0.0, 0.0, 0.0, 0.0, 0.0, 0.0, 0.0, 0.0, 1.6635924499101496E9, 0.0, 2022-09-19 18:00:49.910
92.0, 3008.790672873339, 6873.653158384938, -72413.08062232503, -30388.738857357366, -57682.09638382154, -187500.02235174447, -42691.54133695857, -29042.649751025412, 0.498, -0.876, 0.092, 192.0, 0.0, 0.0, 0.0, 0.0, 0.0, 0.0, 0.0, 0.0, 0.0, 1.6635924499140766E9, 0.0, 2022-09-19 18:00:49.914
93.0, 2829.3508683861337, 6795.8020324471045, -72345.46659534772, -30321.52716178026, -57616.06933070056, -187500.02235174447, -42634.09735370843, -28963.077540764516, 0.498, -0.876, 0.092, 192.0, 0.0, 0.0, 0.0, 0.0, 0.0, 0.0, 0.0, 0.0, 0.0, 1.663592449919122E9, 0.0, 2022-09-19 18:00:49.919
94.0, 2889.5664679487313, 6848.373335405986, -72383.2857469661, -30328.791478728235, -57660.817523100086, -187500.02235174447, -42661.9699790442, -28989.899634110887, 0.498, -0.876, 0.092, 192.0, 0.0, 0.0, 0.0, 0.0, 0.0, 0.0, 0.0, 0.0, 0.0, 1.663592449923168E9, 0.0, 2022-09-19 18:00:49.923
95.0, 3107.585383365796, 6954.164141912955, -72489.36712615099, -30423.004081607352, -57779.75115534677, -187500.02235174447, -42729.1369711324, -29103.20062675484, 0.498, -0.876, 0.092, 192.0, 0.0, 0.0, 0.0, 0.0, 0.0, 0.0, 0.0, 0.0, 0.0, 1.6635924499261377E9, 0.0, 2022-09-19 18:00:49.926
96.0, 3271.736594645571, 7003.270924481264, -72551.3261617811, -30500.117599978163, -57864.15134241001, -187500.02235174447, -42802.6518586459, -29172.803958988665, 0.498, -0.876, 0.092, 192.0, 0.0, 0.0, 0.0, 0.0, 0.0, 0.0, 0.0, 0.0, 0.0, 1.663592449930131E9, 0.0, 2022-09-19 18:00:49.930
97.0, 3036.3950772756434, 6870.255693227732, -72428.32451204355, -30403.31219474223, -57747.922271242416, -187500.02235174447, -42766.53143960613, -29043.879096970453, 0.498, -0.876, 0.092, 192.0, 0.0, 0.0, 0.0, 0.0, 0.0, 0.0, 0.0, 0.0, 0.0, 1.6635924499341795E9, 0.0, 2022-09-19 18:00:49.934
98.0, 2881.966874833927, 6804.295695340121, -72342.91849647982, -30315.648652988515, -57674.40738372891, -187500.02235174447, -42652.02345276159, -28966.87733732192, 0.498, -0.876, 0.092, 192.0, 0.0, 0.0, 0.0, 0.0, 0.0, 0.0, 0.0, 0.0, 0.0, 1.6635924499382074E9, 0.0, 2022-09-19 18:00:49.938
99.0, 2949.0668116887587, 6847.412210394408, -72363.25858393415, -30326.735118238346, -57706.68330272238, -187500.02235174447, -42617.937042467245, -28993.945299857296, 0.498, -0.88, 0.098, 192.0, 15.0, 144.0, 228.0, 128.0, 3.0, 16.0, 0.0, 0.0, 0.0, 1.6635924499421225E9, 0.0, 2022-09-19 18:00:49.942
100.0, 3166.7057474500834, 6956.198150658388, -72464.82491073906, -30404.832113365188, -57808.67431267194, -187500.02235174447, -42666.663845379815, -29094.170521994893, 0.498, -0.88, 0.098, 192.0, 0.0, 0.0, 0.0, 0.0, 0.0, 0.0, 0.0, 0.0, 0.0, 1.6635924499471357E9, 0.0, 2022-09-19 18:00:49.947
101.0, 3275.067004569412, 6971.263226421264, -72528.25916150321, -30463.393683838094, -57850.42737131446, -187500.02235174447, -42769.213648940764, -29155.123729124516, 0.498, -0.88, 0.098, 192.0, 0.0, 0.0, 0.0, 0.0, 0.0, 0.0, 0.0, 0.0, 0.0, 1.6635924499512029E9, 0.0, 2022-09-19 18:00:49.951
102.0, 3018.111350311202, 6820.500710070219, -72408.40910773387, -30400.294709240763, -57711.913610924916, -187500.02235174447, -42743.620901539434, -29058.65360005541, 0.498, -0.88, 0.098, 192.0, 0.0, 0.0, 0.0, 0.0, 0.0, 0.0, 0.0, 0.0, 0.0, 1.6635924499541867E9, 0.0, 2022-09-19 18:00:49.954
103.0, 2870.545133417265, 6792.091642867523, -72339.81160400053, -30335.72051950938, -57666.85249410302, -187500.02235174447, -42639.05944097751, -28999.443828993302, 0.498, -0.88, 0.098, 192.0, 0.0, 0.0, 0.0, 0.0, 0.0, 0.0, 0.0, 0.0, 0.0, 1.6635924499581304E9, 0.0, 2022-09-19 18:00:49.958
104.0, 2949.4467913444987, 6879.621074154506, -72368.95827877025, -30326.15397288251, -57702.257657320224, -187500.02235174447, -42620.172216912775, -29020.052137381095, 0.498, -0.88, 0.098, 192.0, 0.0, 0.0, 0.0, 0.0, 0.0, 0.0, 0.0, 0.0, 0.0, 1.6635924499621575E9, 0.0, 2022-09-19 18:00:49.962
105.0, 3186.3529308262982, 6994.821965077158, -72477.02896321166, -30395.77965686079, -57807.91435336046, -187500.02235174447, -42673.861107094424, -29110.397888469448, 0.498, -0.88, 0.098, 192.0, 0.0, 0.0, 0.0, 0.0, 0.0, 0.0, 0.0, 0.0, 0.0, 1.6635924499662828E9, 0.0, 2022-09-19 18:00:49.966
106.0, 3295.518850746018, 7010.870517596069, -72524.30290273463, -30455.972904678933, -57846.09113289013, -187500.02235174447, -42753.902703988875, -29145.266609819726, 0.498, -0.88, 0.098, 192.0, 0.0, 0.0, 0.0, 0.0, 0.0, 0.0, 0.0, 0.0, 0.0, 1.6635924499702108E9, 0.0, 2022-09-19 18:00:49.970
107.0, 3038.496141254442, 6869.205161238332, -72399.20018901827, -30378.278240952284, -57719.8261284621, -187500.02235174447, -42722.16322686234, -29018.487515269222, 0.498, -0.88, 0.098, 192.0, 0.0, 0.0, 0.0, 0.0, 0.0, 0.0, 0.0, 0.0, 0.0, 1.6635924499752245E9, 0.0, 2022-09-19 18:00:49.975
108.0, 2904.2292123114125, 6837.219814922788, -72361.06811297752, -30329.216161872886, -57689.807735658615, -187500.02235174447, -42665.56860990151, -28970.744189112687, 0.498, -0.88, 0.098, 192.0, 0.0, 0.0, 0.0, 0.0, 0.0, 0.0, 0.0, 0.0, 0.0, 1.6635924499791782E9, 0.0, 2022-09-19 18:00:49.979
109.0, 2962.120230450658, 6907.001961112257, -72407.40327923337, -30355.658275563514, -57731.136111156484, -187500.02235174447, -42685.10403455544, -29008.295119797604, 0.502, -0.882, 0.096, 192.0, 15.0, 176.0, 228.0, 112.0, 3.0, 0.0, 0.0, 0.0, 0.0, 1.6635924499823117E9, 0.0, 2022-09-19 18:00:49.982
110.0, 3205.6648380356837, 7015.810253120691, -72504.40985016941, -30422.512343229337, -57831.942478649915, -187500.02235174447, -42720.419790794826, -29106.24046400076, 0.502, -0.882, 0.096, 192.0, 0.0, 0.0, 0.0, 0.0, 0.0, 0.0, 0.0, 0.0, 0.0, 1.6635924499861999E9, 0.0, 2022-09-19 18:00:49.986
111.0, 3299.3409990478754, 7024.907413114001, -72552.60021121505, -30480.582175324223, -57869.53811282374, -187500.02235174447, -42835.50892299521, -29146.20538308685, 0.502, -0.882, 0.096, 192.0, 0.0, 0.0, 0.0, 0.0, 0.0, 0.0, 0.0, 0.0, 0.0, 1.6635924499902537E9, 0.0, 2022-09-19 18:00:49.990
112.0, 3038.339679043255, 6897.435414485385, -72415.4946107262, -30436.72805270291, -57746.11177994154, -187500.02235174447, -42748.40417485287, -29044.437890581834, 0.502, -0.882, 0.096, 192.0, 0.0, 0.0, 0.0, 0.0, 0.0, 0.0, 0.0, 0.0, 0.0, 1.6635924499941928E9, 0.0, 2022-09-19 18:00:49.994
113.0, 2920.925965419527, 6874.1225450185, -72345.824223259, -30373.53967112776, -57690.098308336535, -187500.02235174447, -42609.71160050769, -28984.088180552506, 0.502, -0.882, 0.096, 192.0, 0.0, 0.0, 0.0, 0.0, 0.0, 0.0, 0.0, 0.0, 0.0, 1.6635924499983356E9, 0.0, 2022-09-19 18:00:49.998
114.0, 3008.9024315956153, 6931.2759555907205, -72383.79983708858, -30352.506679595313, -57735.4276460919, -187500.02235174447, -42592.18783285473, -29008.138657586416, 0.502, -0.882, 0.096, 192.0, 0.0, 0.0, 0.0, 0.0, 0.0, 0.0, 0.0, 0.0, 0.0, 1.6635924500032413E9, 0.0, 2022-09-19 18:00:50.003
115.0, 3235.2138442055993, 7026.226166036865, -72484.00270748172, -30404.20626452044, -57855.83649347264, -187500.02235174447, -42619.14403666783, -29112.18602802587, 0.502, -0.882, 0.096, 192.0, 0.0, 0.0, 0.0, 0.0, 0.0, 0.0, 0.0, 0.0, 0.0, 1.6635924500072572E9, 0.0, 2022-09-19 18:00:50.007
116.0, 3276.4975162145515, 7003.695607625915, -72515.89864681943, -30441.041939382787, -57876.66831930498, -187500.02235174447, -42702.91837488632, -29134.24719980326, 0.502, -0.882, 0.096, 192.0, 0.0, 0.0, 0.0, 0.0, 0.0, 0.0, 0.0, 0.0, 0.0, 1.6635924500102363E9, 0.0, 2022-09-19 18:00:50.010
117.0, 3006.376684472166, 6855.682355842871, -72399.80368611857, -30368.130548969573, -57735.897032725465, -187500.02235174447, -42683.91939209931, -29016.431154779337, 0.502, -0.882, 0.096, 192.0, 0.0, 0.0, 0.0, 0.0, 0.0, 0.0, 0.0, 0.0, 0.0, 1.663592450014256E9, 0.0, 2022-09-19 18:00:50.014
118.0, 2929.3302213347224, 6840.550224846629, -72388.42664819081, -30320.61074025759, -57686.29851177913, -187500.02235174447, -42696.88340388339, -28974.052247292075, 0.502, -0.882, 0.096, 192.0, 0.0, 0.0, 0.0, 0.0, 0.0, 0.0, 0.0, 0.0, 0.0, 1.6635924500182667E9, 0.0, 2022-09-19 18:00:50.018
119.0, 3073.5660283048187, 6920.390656040986, -72473.18446316534, -30330.24434211783, -57725.972858187306, -187500.02235174447, -42795.298134720106, -29017.41463153537, 0.506, -0.88, 0.098, 192.0, 15.0, 208.0, 228.0, 128.0, 3.0, 16.0, 0.0, 0.0, 0.0, 1.6635924500222678E9, 0.0, 2022-09-19 18:00:50.022
120.0, 3343.8433222583917, 7034.831587652157, -72549.00158035774, -30396.20434000544, -57837.619821741566, -187500.02235174447, -42738.524703803625, -29139.231638816793, 0.506, -0.88, 0.098, 192.0, 0.0, 0.0, 0.0, 0.0, 0.0, 0.0, 0.0, 0.0, 0.0, 1.6635924500262775E9, 0.0, 2022-09-19 18:00:50.026
121.0, 3355.421525886241, 7003.785014603736, -72537.89276336346, -30424.658110697048, -57849.82387421416, -187500.02235174447, -42722.722020473724, -29155.079025635605, 0.506, -0.88, 0.098, 192.0, 0.0, 0.0, 0.0, 0.0, 0.0, 0.0, 0.0, 0.0, 0.0, 1.6635924500303023E9, 0.0, 2022-09-19 18:00:50.030
122.0, 3088.2511244119555, 6870.83683858357, -72406.15158154388, -30331.76426074079, -57711.779500458186, -187500.02235174447, -42665.70272036824, -29027.025881651152, 0.506, -0.88, 0.098, 192.0, 0.0, 0.0, 0.0, 0.0, 0.0, 0.0, 0.0, 0.0, 0.0, 1.6635924500352948E9, 0.0, 2022-09-19 18:00:50.035
123.0, 3028.6390219496516, 6869.048699027146, -72367.21484270273, -30278.70121940389, -57675.36850874049, -187500.02235174447, -42587.13633860783, -28982.188282273804, 0.506, -0.88, 0.098, 192.0, 0.0, 0.0, 0.0, 0.0, 0.0, 0.0, 0.0, 0.0, 0.0, 1.6635924500382574E9, 0.0, 2022-09-19 18:00:50.038
124.0, 3162.8388956593153, 6947.123342409533, -72418.73561367221, -30296.8508359016, -57723.581221530585, -187500.02235174447, -42596.59112651242, -29021.03561413713, 0.506, -0.88, 0.098, 192.0, 0.0, 0.0, 0.0, 0.0, 0.0, 0.0, 0.0, 0.0, 0.0, 1.6635924500423656E9, 0.0, 2022-09-19 18:00:50.042
125.0, 3428.668192466282, 7050.880140171068, -72542.78779539917, -30396.807837105735, -57845.33117357864, -187500.02235174447, -42680.20900251973, -29144.014912130227, 0.506, -0.88, 0.098, 192.0, 0.0, 0.0, 0.0, 0.0, 0.0, 0.0, 0.0, 0.0, 0.0, 1.6635924500462909E9, 0.0, 2022-09-19 18:00:50.046
126.0, 3448.449486309229, 7028.528395715761, -72577.83533070509, -30447.70275923047, -57840.68201073194, -187500.02235174447, -42819.214501287286, -29157.895345436973, 0.506, -0.88, 0.098, 192.0, 0.0, 0.0, 0.0, 0.0, 0.0, 0.0, 0.0, 0.0, 0.0, 1.663592450050357E9, 0.0, 2022-09-19 18:00:50.050
127.0, 3204.5472508129183, 6909.572411724617, -72485.29910866013, -30359.145147698542, -57710.99718940225, -187500.02235174447, -42869.57298154509, -29022.913160671374, 0.506, -0.88, 0.098, 192.0, 0.0, 0.0, 0.0, 0.0, 0.0, 0.0, 0.0, 0.0, 0.0, 1.663592450054282E9, 0.0, 2022-09-19 18:00:50.054
128.0, 3175.1323551097344, 6917.283763561698, -72437.33226505903, -30308.71961220737, -57699.530744496675, -187500.02235174447, -42735.50721830216, -28996.538102214112, 0.506, -0.88, 0.098, 192.0, 0.0, 0.0, 0.0, 0.0, 0.0, 0.0, 0.0, 0.0, 0.0, 1.6635924500593855E9, 0.0, 2022-09-19 18:00:50.059
129.0, 3258.459658439119, 6972.447868877396, -72432.23606732322, -30293.006335855287, -57749.442189865375, -187500.02235174447, -42578.19564082571, -29030.356291574994, 0.504, -0.874, 0.10400000000000001, 192.0, 15.0, 192.0, 228.0, 176.0, 3.0, 64.0, 0.0, 0.0, 0.0, 1.6635924500633533E9, 0.0, 2022-09-19 18:00:50.063
130.0, 3493.9352862757787, 7062.011308909811, -72539.94912385335, -30348.48336559336, -57864.71013602139, -187500.02235174447, -42623.659089047804, -29125.462964232323, 0.504, -0.874, 0.10400000000000001, 192.0, 0.0, 0.0, 0.0, 0.0, 0.0, 0.0, 0.0, 0.0, 0.0, 1.6635924500663323E9, 0.0, 2022-09-19 18:00:50.066
131.0, 3476.6797395562817, 7013.709189141892, -72534.36118773952, -30357.37935988657, -57847.56634802418, -187500.02235174447, -42691.273116025106, -29110.397888469448, 0.504, -0.874, 0.10400000000000001, 192.0, 0.0, 0.0, 0.0, 0.0, 0.0, 0.0, 0.0, 0.0, 0.0, 1.663592450070374E9, 0.0, 2022-09-19 18:00:50.070
132.0, 3208.212936903589, 6874.591931652061, -72402.53059894212, -30261.937411062412, -57711.51127952472, -187500.02235174447, -42624.86608324839, -28991.106628311474, 0.504, -0.874, 0.10400000000000001, 192.0, 0.0, 0.0, 0.0, 0.0, 0.0, 0.0, 0.0, 0.0, 0.0, 1.6635924500744374E9, 0.0, 2022-09-19 18:00:50.074
133.0, 3171.5337242524297, 6876.134202019478, -72389.3877732024, -30237.79752705068, -57701.117718353, -187500.02235174447, -42593.37247531086, -28971.101817023973, 0.504, -0.874, 0.10400000000000001, 192.0, 0.0, 0.0, 0.0, 0.0, 0.0, 0.0, 0.0, 0.0, 0.0, 1.66359245007837E9, 0.0, 2022-09-19 18:00:50.078
134.0, 3289.5285832319955, 6950.856083733569, -72463.32734386055, -30286.501978218792, -57759.947509759375, -187500.02235174447, -42648.93891202676, -29029.238704352225, 0.504, -0.874, 0.10400000000000001, 192.0, 0.0, 0.0, 0.0, 0.0, 0.0, 0.0, 0.0, 0.0, 0.0, 1.6635924500823772E9, 0.0, 2022-09-19 18:00:50.082
135.0, 3524.4901209461837, 7051.975375649378, -72587.1336563985, -30378.524110141294, -57883.10562170811, -187500.02235174447, -42733.67437525682, -29146.451252275856, 0.504, -0.874, 0.10400000000000001, 192.0, 0.0, 0.0, 0.0, 0.0, 0.0, 0.0, 0.0, 0.0, 0.0, 1.6635924500863874E9, 0.0, 2022-09-19 18:00:50.086
136.0, 3464.900370228335, 6990.19515397491, -72559.59630722956, -30390.39288644706, -57860.17273189697, -187500.02235174447, -42769.437166385316, -29127.22875204429, 0.504, -0.874, 0.10400000000000001, 192.0, 0.0, 0.0, 0.0, 0.0, 0.0, 0.0, 0.0, 0.0, 0.0, 1.6635924500914326E9, 0.0, 2022-09-19 18:00:50.091
137.0, 3195.6065530307956, 6865.092440258556, -72427.83277366552, -30286.367867752062, -57731.94077395687, -187500.02235174447, -42687.89800261235, -29000.896692382896, 0.504, -0.874, 0.10400000000000001, 192.0, 0.0, 0.0, 0.0, 0.0, 0.0, 0.0, 0.0, 0.0, 0.0, 1.6635924500944388E9, 0.0, 2022-09-19 18:00:50.094
138.0, 3170.170267840656, 6891.1322225489885, -72408.40910773387, -30245.97826552132, -57706.102157366535, -187500.02235174447, -42622.25092914712, -28990.056096322074, 0.504, -0.874, 0.10400000000000001, 192.0, 0.0, 0.0, 0.0, 0.0, 0.0, 0.0, 0.0, 0.0, 0.0, 1.6635924500984342E9, 0.0, 2022-09-19 18:00:50.098
139.0, 3301.6655804712273, 6969.51979035375, -72462.4556258268, -30278.32123974815, -57761.5344836157, -187500.02235174447, -42618.76405701209, -29039.364044590482, 0.498, -0.868, 0.106, 192.0, 15.0, 144.0, 228.0, 224.0, 3.0, 80.0, 0.0, 0.0, 0.0, 1.6635924501024957E9, 0.0, 2022-09-19 18:00:50.102
140.0, 3542.9750136107227, 7064.2911868442525, -72578.88586269449, -30359.502775609828, -57861.31267086419, -187500.02235174447, -42700.48203474069, -29142.360883040536, 0.498, -0.868, 0.106, 192.0, 0.0, 0.0, 0.0, 0.0, 0.0, 0.0, 0.0, 0.0, 0.0, 1.6635924501065896E9, 0.0, 2022-09-19 18:00:50.106
141.0, 3473.30462614353, 6990.999816775301, -72562.83731017559, -30365.82831929068, -57808.13787080501, -187500.02235174447, -42787.676189860846, -29120.65733917443, 0.498, -0.868, 0.106, 192.0, 0.0, 0.0, 0.0, 0.0, 0.0, 0.0, 0.0, 0.0, 0.0, 1.6635924501105297E9, 0.0, 2022-09-19 18:00:50.110
142.0, 3220.68521030965, 6874.4578211853295, -72465.1601869059, -30283.909175861976, -57672.73100289476, -187500.02235174447, -42782.17766072484, -29011.714936699267, 0.498, -0.868, 0.106, 192.0, 0.0, 0.0, 0.0, 0.0, 0.0, 0.0, 0.0, 0.0, 0.0, 1.6635924501144872E9, 0.0, 2022-09-19 18:00:50.114
143.0, 3225.2896696674434, 6905.929077378402, -72465.2048903948, -30279.394123482005, -57660.99633705573, -187500.02235174447, -42745.163171906854, -29011.781991932632, 0.498, -0.868, 0.106, 192.0, 0.0, 0.0, 0.0, 0.0, 0.0, 0.0, 0.0, 0.0, 0.0, 1.6635924501195624E9, 0.0, 2022-09-19 18:00:50.119
144.0, 3352.135819451311, 6993.52556389875, -72509.17077173838, -30334.692339264435, -57719.04381740616, -187500.02235174447, -42689.14970030185, -29079.93246077686, 0.498, -0.868, 0.106, 192.0, 0.0, 0.0, 0.0, 0.0, 0.0, 0.0, 0.0, 0.0, 0.0, 1.6635924501225796E9, 0.0, 2022-09-19 18:00:50.122
145.0, 3577.530810538627, 7086.866448744113, -72616.95088350188, -30425.06044209724, -57812.54116446271, -187500.02235174447, -42750.21466615375, -29190.081857452617, 0.498, -0.868, 0.106, 192.0, 0.0, 0.0, 0.0, 0.0, 0.0, 0.0, 0.0, 0.0, 0.0, 1.663592450125534E9, 0.0, 2022-09-19 18:00:50.125
146.0, 3468.454297596729, 7002.533316914239, -72546.54288846767, -30382.54742414325, -57724.40823607543, -187500.02235174447, -42727.907625187356, -29130.000368356752, 0.498, -0.868, 0.106, 192.0, 0.0, 0.0, 0.0, 0.0, 0.0, 0.0, 0.0, 0.0, 0.0, 1.663592450130492E9, 0.0, 2022-09-19 18:00:50.130
147.0, 3182.9554656690916, 6865.964158292313, -72410.51017171267, -30245.620637610038, -57558.22301605022, -187500.02235174447, -42620.32867912396, -28996.4933987252, 0.498, -0.868, 0.106, 192.0, 0.0, 0.0, 0.0, 0.0, 0.0, 0.0, 0.0, 0.0, 0.0, 1.6635924501345756E9, 0.0, 2022-09-19 18:00:50.134
148.0, 3160.7378316805166, 6872.513219417718, -72404.45284896527, -30210.148419159465, -57523.086073766484, -187500.02235174447, -42570.28312328853, -28978.232023505214, 0.498, -0.868, 0.106, 192.0, 0.0, 0.0, 0.0, 0.0, 0.0, 0.0, 0.0, 0.0, 0.0, 1.6635924501384676E9, 0.0, 2022-09-19 18:00:50.138
149.0, 3314.22726085511, 6951.459580833863, -72478.43712311234, -30250.98505627931, -57572.55048424608, -187500.02235174447, -42608.370495840376, -29043.722634759266, 0.496, -0.87, 0.10200000000000001, 192.0, 15.0, 128.0, 228.0, 208.0, 3.0, 48.0, 0.0, 0.0, 0.0, 1.6635924501425343E9, 0.0, 2022-09-19 18:00:50.142
150.0, 3555.737859694703, 7061.899550187534, -72590.21819713333, -30336.413423587495, -57674.161514539905, -187500.02235174447, -42702.02430510811, -29144.23842957478, 0.496, -0.87, 0.10200000000000001, 192.0, 0.0, 0.0, 0.0, 0.0, 0.0, 0.0, 0.0, 0.0, 0.0, 1.6635924501464555E9, 0.0, 2022-09-19 18:00:50.146
151.0, 3441.8110182060027, 6982.528505626739, -72542.51957446571, -30323.605874014604, -57608.00035095219, -187500.02235174447, -42750.773459765136, -29088.98491728126, 0.496, -0.87, 0.10200000000000001, 192.0, 0.0, 0.0, 0.0, 0.0, 0.0, 0.0, 0.0, 0.0, 0.0, 1.663592450150588E9, 0.0, 2022-09-19 18:00:50.150
152.0, 3200.2110123885886, 6868.6463676269495, -72444.23895409572, -30248.213439966854, -57493.872343763396, -187500.02235174447, -42718.966927405236, -28992.268919023147, 0.496, -0.87, 0.10200000000000001, 192.0, 0.0, 0.0, 0.0, 0.0, 0.0, 0.0, 0.0, 0.0, 0.0, 1.6635924501535366E9, 0.0, 2022-09-19 18:00:50.153
153.0, 3219.4558643646083, 6899.491774975273, -72449.6480762539, -30244.503050387273, -57504.28825667957, -187500.02235174447, -42687.40626423434, -29006.730497685734, 0.496, -0.87, 0.10200000000000001, 192.0, 0.0, 0.0, 0.0, 0.0, 0.0, 0.0, 0.0, 0.0, 0.0, 1.6635924501584883E9, 0.0, 2022-09-19 18:00:50.158
154.0, 3366.865619047358, 6987.959979529379, -72500.1630187229, -30289.318298020164, -57574.49508601369, -187500.02235174447, -42657.79020283106, -29083.106408489515, 0.496, -0.87, 0.10200000000000001, 192.0, 0.0, 0.0, 0.0, 0.0, 0.0, 0.0, 0.0, 0.0, 0.0, 1.6635924501624768E9, 0.0, 2022-09-19 18:00:50.162
155.0, 3566.80197320008, 7074.103602660132, -72595.31439486914, -30376.445397906948, -57677.69309016384, -187500.02235174447, -42715.92709015931, -29188.941918485394, 0.496, -0.87, 0.10200000000000001, 192.0, 0.0, 0.0, 0.0, 0.0, 0.0, 0.0, 0.0, 0.0, 0.0, 1.6635924501665516E9, 0.0, 2022-09-19 18:00:50.166
156.0, 3405.7576543995924, 6979.309854425175, -72527.9685888253, -30338.24626663283, -57605.11697591746, -187500.02235174447, -42736.781267736114, -29118.645682173454, 0.496, -0.87, 0.10200000000000001, 192.0, 0.0, 0.0, 0.0, 0.0, 0.0, 0.0, 0.0, 0.0, 0.0, 1.663592450171496E9, 0.0, 2022-09-19 18:00:50.171
157.0, 3151.3948024981983, 6864.198370480343, -72409.63845367891, -30231.203762436362, -57486.60802681542, -187500.02235174447, -42620.35103086842, -29008.965672131264, 0.496, -0.87, 0.10200000000000001, 192.0, 0.0, 0.0, 0.0, 0.0, 0.0, 0.0, 0.0, 0.0, 0.0, 1.663592450174553E9, 0.0, 2022-09-19 18:00:50.174
158.0, 3166.973968383547, 6889.522896948207, -72404.29638675408, -30215.892817484477, -57477.712032522206, -187500.02235174447, -42560.671873172745, -29019.091012369518, 0.496, -0.87, 0.10200000000000001, 192.0, 0.0, 0.0, 0.0, 0.0, 0.0, 0.0, 0.0, 0.0, 0.0, 1.663592450178498E9, 0.0, 2022-09-19 18:00:50.178
159.0, 3337.4060198552634, 6982.19322945991, -72485.16499819339, -30285.94318460741, -57549.05880082355, -187500.02235174447, -42604.52599579406, -29103.55825466612, 0.496, -0.87, 0.1, 192.0, 15.0, 128.0, 228.0, 208.0, 3.0, 32.0, 0.0, 0.0, 0.0, 1.6635924501826463E9, 0.0, 2022-09-19 18:00:50.182
160.0, 3560.2976155635856, 7072.181352636976, -72599.5388745712, -30361.983819244364, -57648.993450283226, -187500.02235174447, -42724.21958735223, -29194.73102029932, 0.496, -0.87, 0.1, 192.0, 0.0, 0.0, 0.0, 0.0, 0.0, 0.0, 0.0, 0.0, 0.0, 1.6635924501865716E9, 0.0, 2022-09-19 18:00:50.186
161.0, 3410.898555624313, 6965.876456007535, -72518.58085615408, -30287.12782706354, -57551.87512062492, -187500.02235174447, -42736.423639824825, -29098.439705185858, 0.496, -0.87, 0.1, 192.0, 0.0, 0.0, 0.0, 0.0, 0.0, 0.0, 0.0, 0.0, 0.0, 1.6635924501905875E9, 0.0, 2022-09-19 18:00:50.190
162.0, 3203.630829290251, 6870.143934505455, -72410.64428217939, -30184.913299669424, -57436.58482272444, -187500.02235174447, -42636.86897002089, -28979.863700850452, 0.496, -0.87, 0.1, 192.0, 0.0, 0.0, 0.0, 0.0, 0.0, 0.0, 0.0, 0.0, 0.0, 1.663592450193553E9, 0.0, 2022-09-19 18:00:50.193
163.0, 3219.4558643646083, 6897.457766229841, -72422.2448375517, -30181.359372301027, -57446.55370075151, -187500.02235174447, -42591.04789388751, -28989.027916077128, 0.496, -0.87, 0.1, 192.0, 0.0, 0.0, 0.0, 0.0, 0.0, 0.0, 0.0, 0.0, 0.0, 1.6635924501986344E9, 0.0, 2022-09-19 18:00:50.198
164.0, 3387.2727617350533, 6984.026072505245, -72509.81897232759, -30242.17846896392, -57529.97041105872, -187500.02235174447, -42619.72518202367, -29069.360085649503, 0.496, -0.87, 0.1, 192.0, 0.0, 0.0, 0.0, 0.0, 0.0, 0.0, 0.0, 0.0, 0.0, 1.6635924502025907E9, 0.0, 2022-09-19 18:00:50.202
165.0, 3595.859240991979, 7063.330061832674, -72618.87313352503, -30336.346368354127, -57623.37835113744, -187500.02235174447, -42755.66849180085, -29161.695141994376, 0.496, -0.87, 0.1, 192.0, 0.0, 0.0, 0.0, 0.0, 0.0, 0.0, 0.0, 0.0, 0.0, 1.6635924502066033E9, 0.0, 2022-09-19 18:00:50.206
166.0, 3447.890692697846, 6964.401240873485, -72561.33974329708, -30322.890618192032, -57531.08799828148, -187500.02235174447, -42853.41267030391, -29085.7662660797, 0.496, -0.87, 0.1, 192.0, 0.0, 0.0, 0.0, 0.0, 0.0, 0.0, 0.0, 0.0, 0.0, 1.6635924502105677E9, 0.0, 2022-09-19 18:00:50.210
167.0, 3243.3051756984205, 6884.873734101503, -72436.50525051418, -30268.106492532075, -57435.80251166851, -187500.02235174447, -42689.55203170205, -29008.83156166453, 0.496, -0.87, 0.1, 192.0, 0.0, 0.0, 0.0, 0.0, 0.0, 0.0, 0.0, 0.0, 0.0, 1.6635924502146225E9, 0.0, 2022-09-19 18:00:50.214
168.0, 3242.4111059202082, 6915.652086216461, -72425.3964335199, -30258.025855782733, -57448.8112269415, -187500.02235174447, -42594.646524744814, -29027.13764037343, 0.496, -0.87, 0.1, 192.0, 0.0, 0.0, 0.0, 0.0, 0.0, 0.0, 0.0, 0.0, 0.0, 1.6635924502176175E9, 0.0, 2022-09-19 18:00:50.217
169.0, 3417.7605411720924, 7007.562459416683, -72509.08136476057, -30311.692394219925, -57533.34552447147, -187500.02235174447, -42633.42680137477, -29112.633062914978, 0.496, -0.87, 0.10400000000000001, 192.0, 15.0, 128.0, 228.0, 208.0, 3.0, 64.0, 0.0, 0.0, 0.0, 1.6635924502215838E9, 0.0, 2022-09-19 18:00:50.221
170.0, 3616.579308102049, 7082.329044619685, -72593.36979310153, -30376.624211862592, -57616.4493103563, -187500.02235174447, -42726.432410053305, -29183.286927138204, 0.496, -0.87, 0.10400000000000001, 192.0, 0.0, 0.0, 0.0, 0.0, 0.0, 0.0, 0.0, 0.0, 0.0, 1.663592450225678E9, 0.0, 2022-09-19 18:00:50.225
171.0, 3426.991811632134, 6967.396374630496, -72485.74614354923, -30314.41930704347, -57508.6244951039, -187500.02235174447, -42708.036924366585, -29093.544673150143, 0.496, -0.87, 0.10400000000000001, 192.0, 0.0, 0.0, 0.0, 0.0, 0.0, 0.0, 0.0, 0.0, 0.0, 1.6635924502296581E9, 0.0, 2022-09-19 18:00:50.229
172.0, 3230.363515658798, 6885.3207689906085, -72380.84940682047, -30223.738279788293, -57411.39440672332, -187500.02235174447, -42596.59112651242, -28998.50505572618, 0.496, -0.87, 0.10400000000000001, 192.0, 0.0, 0.0, 0.0, 0.0, 0.0, 0.0, 0.0, 0.0, 0.0, 1.6635924502346113E9, 0.0, 2022-09-19 18:00:50.234
173.0, 3264.6734433976944, 6922.581126997606, -72400.3401279855, -30218.12799193001, -57432.695619189224, -187500.02235174447, -42579.067358859465, -29004.897654640397, 0.496, -0.87, 0.10400000000000001, 192.0, 0.0, 0.0, 0.0, 0.0, 0.0, 0.0, 0.0, 0.0, 0.0, 1.6635924502386262E9, 0.0, 2022-09-19 18:00:50.238
174.0, 3457.680756769271, 7016.525508943261, -72496.89966403242, -30279.95291709339, -57532.40675120435, -187500.02235174447, -42639.50647586662, -29092.158864993915, 0.496, -0.87, 0.10400000000000001, 192.0, 0.0, 0.0, 0.0, 0.0, 0.0, 0.0, 0.0, 0.0, 0.0, 1.6635924502426927E9, 0.0, 2022-09-19 18:00:50.242
175.0, 3644.3625264599955, 7074.193009637954, -72585.07729590862, -30361.022694232786, -57609.45321434179, -187500.02235174447, -42739.016442181644, -29177.184900901902, 0.496, -0.87, 0.10400000000000001, 192.0, 0.0, 0.0, 0.0, 0.0, 0.0, 0.0, 0.0, 0.0, 0.0, 1.6635924502456696E9, 0.0, 2022-09-19 18:00:50.245
176.0, 3425.4942447536287, 6955.818171002647, -72475.66550679988, -30313.882865176543, -57487.27857914908, -187500.02235174447, -42716.865863426436, -29086.012135268706, 0.496, -0.87, 0.10400000000000001, 192.0, 0.0, 0.0, 0.0, 0.0, 0.0, 0.0, 0.0, 0.0, 0.0, 1.6635924502496727E9, 0.0, 2022-09-19 18:00:50.249
177.0, 3240.265338452499, 6887.354777736042, -72383.9339475553, -30228.275683912718, -57394.78706059302, -187500.02235174447, -42619.90399597931, -29003.377736017435, 0.496, -0.87, 0.10400000000000001, 192.0, 0.0, 0.0, 0.0, 0.0, 0.0, 0.0, 0.0, 0.0, 0.0, 1.6635924502537105E9, 0.0, 2022-09-19 18:00:50.253
178.0, 3287.583981464384, 6933.578185269616, -72414.4887822257, -30213.32236687212, -57425.341895263424, -187500.02235174447, -42613.84667323192, -29014.732422200734, 0.496, -0.87, 0.10400000000000001, 192.0, 0.0, 0.0, 0.0, 0.0, 0.0, 0.0, 0.0, 0.0, 0.0, 1.6635924502576928E9, 0.0, 2022-09-19 18:00:50.257
179.0, 3490.537821118572, 7031.098846328122, -72513.05997527362, -30267.972382065345, -57510.39028291587, -187500.02235174447, -42673.74934837215, -29102.440667443356, 0.496, -0.87, 0.10400000000000001, 192.0, 0.0, 0.0, 0.0, 0.0, 0.0, 0.0, 0.0, 0.0, 0.0, 1.6635924502627027E9, 0.0, 2022-09-19 18:00:50.262
180.0, 3660.0981545565314, 7082.217285897409, -72595.04617393568, -30357.781691286767, -57579.7924494496, -187500.02235174447, -42768.878372773936, -29187.712572540353, 0.502, -0.876, 0.10400000000000001, 192.0, 15.0, 176.0, 228.0, 160.0, 3.0, 64.0, 0.0, 0.0, 0.0, 1.6635924502667112E9, 0.0, 2022-09-19 18:00:50.266
181.0, 3431.953898901212, 6947.726839509826, -72486.57315809408, -30299.175417324954, -57465.88795970535, -187500.02235174447, -42748.940616719796, -29081.05004799963, 0.502, -0.876, 0.10400000000000001, 192.0, 0.0, 0.0, 0.0, 0.0, 0.0, 0.0, 0.0, 0.0, 0.0, 1.663592450270696E9, 0.0, 2022-09-19 18:00:50.270
182.0, 3262.7735451189933, 6888.450013214352, -72394.97570931622, -30205.40984933494, -57380.817220308454, -187500.02235174447, -42639.57353109998, -28992.22421553424, 0.502, -0.876, 0.10400000000000001, 192.0, 0.0, 0.0, 0.0, 0.0, 0.0, 0.0, 0.0, 0.0, 0.0, 1.6635924502736948E9, 0.0, 2022-09-19 18:00:50.273
183.0, 3322.877385959314, 6940.797798728681, -72433.95715164627, -30219.759669275245, -57403.481889186136, -187500.02235174447, -42647.48604863716, -29023.717823471765, 0.502, -0.876, 0.10400000000000001, 192.0, 0.0, 0.0, 0.0, 0.0, 0.0, 0.0, 0.0, 0.0, 0.0, 1.663592450277727E9, 0.0, 2022-09-19 18:00:50.277
184.0, 3534.861330373446, 7047.72854420287, -72554.25424030474, -30302.058792359687, -57499.50498336613, -187500.02235174447, -42733.67437525682, -29128.703967178342, 0.502, -0.876, 0.10400000000000001, 192.0, 0.0, 0.0, 0.0, 0.0, 0.0, 0.0, 0.0, 0.0, 0.0, 1.6635924502817564E9, 0.0, 2022-09-19 18:00:50.281
185.0, 3689.513050259716, 7090.1745069234985, -72604.23274090681, -30363.59314484515, -57551.3833822469, -187500.02235174447, -42789.352570694995, -29174.368581100534, 0.502, -0.876, 0.10400000000000001, 192.0, 0.0, 0.0, 0.0, 0.0, 0.0, 0.0, 0.0, 0.0, 0.0, 1.6635924502857544E9, 0.0, 2022-09-19 18:00:50.285
186.0, 3444.582634518461, 6948.687964521404, -72468.13296891845, -30306.104458106096, -57428.38173250935, -187500.02235174447, -42715.36829654793, -29063.727446046767, 0.502, -0.876, 0.10400000000000001, 192.0, 0.0, 0.0, 0.0, 0.0, 0.0, 0.0, 0.0, 0.0, 0.0, 1.6635924502908049E9, 0.0, 2022-09-19 18:00:50.290
187.0, 3274.061176068923, 6898.150670307955, -72384.87272082243, -30238.35632066206, -57342.12635065632, -187500.02235174447, -42588.7009607197, -29002.394259261404, 0.502, -0.876, 0.10400000000000001, 192.0, 0.0, 0.0, 0.0, 0.0, 0.0, 0.0, 0.0, 0.0, 0.0, 1.6635924502947133E9, 0.0, 2022-09-19 18:00:50.294
188.0, 3316.618897511828, 6946.0728104201335, -72408.27499726713, -30237.819878795133, -57360.92416774323, -187500.02235174447, -42553.9439980917, -29026.55649501759, 0.502, -0.876, 0.10400000000000001, 192.0, 0.0, 0.0, 0.0, 0.0, 0.0, 0.0, 0.0, 0.0, 0.0, 1.663592450298766E9, 0.0, 2022-09-19 18:00:50.298
189.0, 3562.1081068644653, 7049.114352359099, -72518.75967010972, -30295.442676000916, -57456.76844796759, -187500.02235174447, -42625.3131181375, -29114.935292593873, 0.502, -0.876, 0.10400000000000001, 192.0, 0.0, 0.0, 0.0, 0.0, 0.0, 0.0, 0.0, 0.0, 0.0, 1.6635924503017855E9, 0.0, 2022-09-19 18:00:50.301
190.0, 3720.112588419031, 7082.261989386319, -72602.55636007266, -30372.06445599371, -57516.648771363354, -187500.02235174447, -42768.11841346245, -29175.53087181221, 0.496, -0.878, 0.10200000000000001, 192.0, 15.0, 128.0, 228.0, 144.0, 3.0, 48.0, 0.0, 0.0, 0.0, 1.6635924503057404E9, 0.0, 2022-09-19 18:00:50.305
191.0, 3503.83710906948, 6954.834694246614, -72495.111524476, -30310.15012385251, -57392.95421754768, -187500.02235174447, -42774.37690190994, -29058.98887622224, 0.496, -0.878, 0.10200000000000001, 192.0, 0.0, 0.0, 0.0, 0.0, 0.0, 0.0, 0.0, 0.0, 0.0, 1.663592450309792E9, 0.0, 2022-09-19 18:00:50.309
192.0, 3379.8519825758917, 6916.277935061209, -72411.69481416879, -30227.851000768067, -57327.03892314898, -187500.02235174447, -42645.63085384737, -28994.25822427967, 0.496, -0.878, 0.10200000000000001, 192.0, 0.0, 0.0, 0.0, 0.0, 0.0, 0.0, 0.0, 0.0, 0.0, 1.6635924503158026E9, 0.0, 2022-09-19 18:00:50.315
193.0, 3433.3620588018966, 6958.4556768483735, -72429.6432649664, -30232.120183959032, -57357.52670258602, -187500.02235174447, -42578.575620481446, -29028.03171015164, 0.496, -0.878, 0.10200000000000001, 192.0, 0.0, 0.0, 0.0, 0.0, 0.0, 0.0, 0.0, 0.0, 0.0, 1.6635924503198872E9, 0.0, 2022-09-19 18:00:50.319
194.0, 3637.5452444011266, 7040.508930743806, -72527.40979521391, -30313.458182031893, -57462.22227361468, -187500.02235174447, -42600.54738528102, -29130.447403245857, 0.496, -0.878, 0.10200000000000001, 192.0, 0.0, 0.0, 0.0, 0.0, 0.0, 0.0, 0.0, 0.0, 0.0, 1.6635924503228805E9, 0.0, 2022-09-19 18:00:50.322
195.0, 3728.181568167397, 7034.742180674337, -72573.56614751412, -30358.564002342704, -57500.13083221088, -187500.02235174447, -42688.65796192383, -29158.878822193008, 0.496, -0.878, 0.10200000000000001, 192.0, 0.0, 0.0, 0.0, 0.0, 0.0, 0.0, 0.0, 0.0, 0.0, 1.6635924503268194E9, 0.0, 2022-09-19 18:00:50.326
196.0, 3462.4193265937956, 6882.638559655972, -72453.67139025585, -30273.76148387927, -57367.11560095735, -187500.02235174447, -42675.44808095075, -29036.391262577923, 0.496, -0.878, 0.10200000000000001, 192.0, 0.0, 0.0, 0.0, 0.0, 0.0, 0.0, 0.0, 0.0, 0.0, 1.6635924503298156E9, 0.0, 2022-09-19 18:00:50.329
197.0, 3332.1086564193556, 6835.230509666266, -72394.70748838276, -30216.943349473877, -57311.97384738611, -187500.02235174447, -42597.105216634896, -28984.468160208246, 0.496, -0.878, 0.10200000000000001, 192.0, 0.0, 0.0, 0.0, 0.0, 0.0, 0.0, 0.0, 0.0, 0.0, 1.6635924503338287E9, 0.0, 2022-09-19 18:00:50.333
198.0, 3413.312544025486, 6889.098213803556, -72434.80651793558, -30226.487544356292, -57354.464513595645, -187500.02235174447, -42600.748550981116, -29024.053099638597, 0.496, -0.878, 0.10200000000000001, 192.0, 0.0, 0.0, 0.0, 0.0, 0.0, 0.0, 0.0, 0.0, 0.0, 1.6635924503379543E9, 0.0, 2022-09-19 18:00:50.337
199.0, 3650.9339393298555, 6988.585828374127, -72542.34076051007, -30286.859606130078, -57471.833523730464, -187500.02235174447, -42656.873781308386, -29129.70979567883, 0.496, -0.878, 0.10200000000000001, 192.0, 0.0, 0.0, 0.0, 0.0, 0.0, 0.0, 0.0, 0.0, 0.0, 1.6635924503420205E9, 0.0, 2022-09-19 18:00:50.342
200.0, 3729.925004234911, 6989.412842918974, -72579.26584235023, -30325.95280718241, -57506.97046601421, -187500.02235174447, -42740.24578812668, -29154.922563424418, 0.496, -0.876, 0.10200000000000001, 192.0, 15.0, 128.0, 228.0, 160.0, 3.0, 48.0, 0.0, 0.0, 0.0, 1.6635924503458405E9, 0.0, 2022-09-19 18:00:50.345
201.0, 3462.6651957828044, 6852.0390214966565, -72459.57225079206, -30253.533155147215, -57374.2905109275, -187500.02235174447, -42715.681220970306, -29036.234800366736, 0.496, -0.876, 0.10200000000000001, 192.0, 0.0, 0.0, 0.0, 0.0, 0.0, 0.0, 0.0, 0.0, 0.0, 1.663592450350845E9, 0.0, 2022-09-19 18:00:50.350
202.0, 3364.6974998351934, 6843.835931281559, -72417.77448866064, -30214.55171281716, -57328.96117317214, -187500.02235174447, -42660.67357786579, -29001.544892972102, 0.496, -0.876, 0.10200000000000001, 192.0, 0.0, 0.0, 0.0, 0.0, 0.0, 0.0, 0.0, 0.0, 0.0, 1.6635924503548448E9, 0.0, 2022-09-19 18:00:50.354
203.0, 3471.4717830981954, 6929.487816034296, -72468.02121019617, -30244.32423643163, -57371.451839381676, -187500.02235174447, -42685.17108978881, -29049.779957506653, 0.496, -0.876, 0.10200000000000001, 192.0, 0.0, 0.0, 0.0, 0.0, 0.0, 0.0, 0.0, 0.0, 0.0, 1.6635924503578882E9, 0.0, 2022-09-19 18:00:50.357
204.0, 3716.491605817271, 7043.146436589532, -72577.14242662698, -30318.308510578696, -57484.506962836625, -187500.02235174447, -42735.01547992414, -29146.250086575757, 0.496, -0.876, 0.10200000000000001, 192.0, 0.0, 0.0, 0.0, 0.0, 0.0, 0.0, 0.0, 0.0, 0.0, 1.6635924503618739E9, 0.0, 2022-09-19 18:00:50.361
205.0, 3749.6168911000364, 7029.4224654939735, -72591.89457796748, -30350.87500225008, -57498.99089324366, -187500.02235174447, -42768.587800096015, -29163.81855771763, 0.496, -0.876, 0.10200000000000001, 192.0, 0.0, 0.0, 0.0, 0.0, 0.0, 0.0, 0.0, 0.0, 0.0, 1.663592450365926E9, 0.0, 2022-09-19 18:00:50.365
206.0, 3457.613701535905, 6882.750318378248, -72452.28558209963, -30239.83153579611, -57350.418847849236, -187500.02235174447, -42691.206060791745, -29020.052137381095, 0.496, -0.876, 0.10200000000000001, 192.0, 0.0, 0.0, 0.0, 0.0, 0.0, 0.0, 0.0, 0.0, 0.0, 1.6635924503698635E9, 0.0, 2022-09-19 18:00:50.369
207.0, 3362.775249812037, 6849.446219139841, -72404.05051756508, -30176.68785770987, -57308.24110606207, -187500.02235174447, -42596.50171953461, -28970.25245073467, 0.496, -0.876, 0.10200000000000001, 192.0, 0.0, 0.0, 0.0, 0.0, 0.0, 0.0, 0.0, 0.0, 0.0, 1.663592450374932E9, 0.0, 2022-09-19 18:00:50.374
208.0, 3451.8469514664357, 6908.119548335022, -72438.67336972636, -30205.36514584603, -57357.616109563845, -187500.02235174447, -42572.11596633386, -29025.193038605816, 0.496, -0.876, 0.10200000000000001, 192.0, 0.0, 0.0, 0.0, 0.0, 0.0, 0.0, 0.0, 0.0, 0.0, 1.6635924503789065E9, 0.0, 2022-09-19 18:00:50.378
209.0, 3689.624808981992, 7012.323380985664, -72551.01323735873, -30296.18028356794, -57484.4175558588, -187500.02235174447, -42638.25477817712, -29142.629103974, 0.496, -0.876, 0.10200000000000001, 192.0, 0.0, 0.0, 0.0, 0.0, 0.0, 0.0, 0.0, 0.0, 0.0, 1.6635924503828907E9, 0.0, 2022-09-19 18:00:50.382
210.0, 3718.3020971181513, 6980.561552114672, -72573.20851960285, -30330.780783984756, -57505.20467820224, -187500.02235174447, -42718.29637507157, -29154.16260411294, 0.502, -0.876, 0.1, 192.0, 15.0, 176.0, 228.0, 160.0, 3.0, 32.0, 0.0, 0.0, 0.0, 1.6635924503859448E9, 0.0, 2022-09-19 18:00:50.385
211.0, 3446.326070585975, 6849.893254028947, -72441.75791046118, -30237.238733439295, -57370.200141692185, -187500.02235174447, -42668.45198493624, -29020.834448437032, 0.502, -0.876, 0.1, 192.0, 0.0, 0.0, 0.0, 0.0, 0.0, 0.0, 0.0, 0.0, 0.0, 1.663592450389905E9, 0.0, 2022-09-19 18:00:50.389
212.0, 3368.5867033704167, 6830.82721600857, -72407.58209318902, -30185.82972119209, -57335.10790289735, -187500.02235174447, -42604.86127196089, -28983.68584915231, 0.502, -0.876, 0.1, 192.0, 0.0, 0.0, 0.0, 0.0, 0.0, 0.0, 0.0, 0.0, 0.0, 1.66359245039398E9, 0.0, 2022-09-19 18:00:50.393
213.0, 3470.9800447201783, 6882.280931744687, -72458.4546635693, -30211.422468593417, -57388.97560703464, -187500.02235174447, -42614.76309475459, -29034.714881743777, 0.502, -0.876, 0.1, 192.0, 0.0, 0.0, 0.0, 0.0, 0.0, 0.0, 0.0, 0.0, 0.0, 1.6635924503979015E9, 0.0, 2022-09-19 18:00:50.397
214.0, 3726.572242566615, 6983.5790376161385, -72567.59823174456, -30299.175417324954, -57501.695454322755, -187500.02235174447, -42678.64438040786, -29148.552316254656, 0.502, -0.876, 0.1, 192.0, 0.0, 0.0, 0.0, 0.0, 0.0, 0.0, 0.0, 0.0, 0.0, 1.6635924504020064E9, 0.0, 2022-09-19 18:00:50.402
215.0, 3739.625661328514, 6949.894958721991, -72580.62929876201, -30334.692339264435, -57512.2231259612, -187500.02235174447, -42769.303055918586, -29150.92160116692, 0.502, -0.876, 0.1, 192.0, 0.0, 0.0, 0.0, 0.0, 0.0, 0.0, 0.0, 0.0, 0.0, 1.6635924504070065E9, 0.0, 2022-09-19 18:00:50.407
216.0, 3465.7273847731813, 6814.108111156001, -72459.46049206979, -30249.75571033427, -57380.30313018598, -187500.02235174447, -42732.89206420089, -29024.231913594238, 0.502, -0.876, 0.1, 192.0, 0.0, 0.0, 0.0, 0.0, 0.0, 0.0, 0.0, 0.0, 0.0, 1.6635924504109788E9, 0.0, 2022-09-19 18:00:50.410
217.0, 3394.514726938573, 6815.784491990148, -72430.55968648907, -30205.16398014593, -57362.06410671045, -187500.02235174447, -42666.26151397962, -29002.26014879467, 0.502, -0.876, 0.1, 192.0, 0.0, 0.0, 0.0, 0.0, 0.0, 0.0, 0.0, 0.0, 0.0, 1.6635924504139671E9, 0.0, 2022-09-19 18:00:50.413
218.0, 3490.671931585304, 6888.4276614698965, -72473.63149805446, -30232.65662582596, -57425.81128189699, -187500.02235174447, -42646.99431025914, -29062.14047219044, 0.502, -0.876, 0.1, 192.0, 0.0, 0.0, 0.0, 0.0, 0.0, 0.0, 0.0, 0.0, 0.0, 1.6635924504179757E9, 0.0, 2022-09-19 18:00:50.417
219.0, 3727.667478044925, 6991.893886553513, -72574.0802376366, -30307.646728473515, -57537.905280340354, -187500.02235174447, -42671.08949078197, -29166.143139140982, 0.502, -0.876, 0.1, 192.0, 0.0, 0.0, 0.0, 0.0, 0.0, 0.0, 0.0, 0.0, 0.0, 1.663592450421996E9, 0.0, 2022-09-19 18:00:50.421
220.0, 3703.3264283330955, 6941.42364757343, -72570.99569690177, -30296.2026353124, -57520.40386443184, -187500.02235174447, -42740.64811952688, -29136.929409137894, 0.5, -0.87, 0.096, 192.0, 15.0, 160.0, 228.0, 208.0, 3.0, 0.0, 0.0, 0.0, 0.0, 1.663592450425996E9, 0.0, 2022-09-19 18:00:50.425
221.0, 3429.7857796890476, 6809.369541331475, -72452.598506522, -30187.036715392678, -57390.02613902404, -187500.02235174447, -42693.329476515, -29010.776163432143, 0.5, -0.87, 0.096, 192.0, 0.0, 0.0, 0.0, 0.0, 0.0, 0.0, 0.0, 0.0, 0.0, 1.6635924504299953E9, 0.0, 2022-09-19 18:00:50.429
222.0, 3387.093947779411, 6812.722302999771, -72442.65198023939, -30142.467336948794, -57371.228321937124, -187500.02235174447, -42660.45006042124, -28992.268919023147, 0.5, -0.87, 0.096, 192.0, 0.0, 0.0, 0.0, 0.0, 0.0, 0.0, 0.0, 0.0, 0.0, 1.663592450435084E9, 0.0, 2022-09-19 18:00:50.435
223.0, 3511.9507923067563, 6887.175963780399, -72485.61203308249, -30171.25638380723, -57417.47408121516, -187500.02235174447, -42658.34899644244, -29038.805250979098, 0.5, -0.87, 0.096, 192.0, 0.0, 0.0, 0.0, 0.0, 0.0, 0.0, 0.0, 0.0, 0.0, 1.6635924504389725E9, 0.0, 2022-09-19 18:00:50.438
224.0, 3754.9366062803992, 6988.831697563136, -72585.09964765307, -30260.21632673935, -57529.0763412805, -187500.02235174447, -42691.94366835876, -29153.983790157294, 0.5, -0.87, 0.096, 192.0, 0.0, 0.0, 0.0, 0.0, 0.0, 0.0, 0.0, 0.0, 0.0, 1.6635924504420195E9, 0.0, 2022-09-19 18:00:50.442
225.0, 3710.948373192355, 6916.188528083388, -72548.21926930182, -30253.2425824693, -57505.42819564679, -187500.02235174447, -42701.42080800782, -29126.737013666276, 0.5, -0.87, 0.096, 192.0, 0.0, 0.0, 0.0, 0.0, 0.0, 0.0, 0.0, 0.0, 0.0, 1.6635924504460132E9, 0.0, 2022-09-19 18:00:50.446
226.0, 3443.085067639955, 6780.200514817299, -72418.06506133855, -30150.24574401924, -57383.49942964309, -187500.02235174447, -42625.35782162641, -28999.041497593105, 0.5, -0.87, 0.096, 192.0, 0.0, 0.0, 0.0, 0.0, 0.0, 0.0, 0.0, 0.0, 0.0, 1.6635924504500365E9, 0.0, 2022-09-19 18:00:50.450
227.0, 3411.9490876137124, 6784.782622430637, -72399.96014832976, -30116.271092447176, -57375.3410429169, -187500.02235174447, -42576.38514952483, -28983.283517752116, 0.5, -0.87, 0.096, 192.0, 0.0, 0.0, 0.0, 0.0, 0.0, 0.0, 0.0, 0.0, 0.0, 1.6635924504540796E9, 0.0, 2022-09-19 18:00:50.454
228.0, 3559.1353248519094, 6867.439373426363, -72453.96196293378, -30143.987255571756, -57438.641183214335, -187500.02235174447, -42588.72331246416, -29038.961713190285, 0.5, -0.87, 0.096, 192.0, 0.0, 0.0, 0.0, 0.0, 0.0, 0.0, 0.0, 0.0, 0.0, 1.6635924504580474E9, 0.0, 2022-09-19 18:00:50.458
229.0, 3818.5496710002035, 6969.005700231279, -72572.71678122482, -30222.97832047681, -57559.027678850616, -187500.02235174447, -42679.09141529696, -29148.284095321193, 0.5, -0.87, 0.096, 192.0, 0.0, 0.0, 0.0, 0.0, 0.0, 0.0, 0.0, 0.0, 0.0, 1.6635924504630523E9, 0.0, 2022-09-19 18:00:50.463
230.0, 3768.325301209128, 6905.526745978206, -72546.9228681234, -30222.665396054435, -57521.409692932335, -187500.02235174447, -42740.37989859342, -29120.23265602978, 0.5, -0.868, 0.098, 192.0, 15.0, 160.0, 228.0, 224.0, 3.0, 16.0, 0.0, 0.0, 0.0, 1.6635924504670808E9, 0.0, 2022-09-19 18:00:50.467
231.0, 3519.6844958882925, 6781.049881106602, -72422.96009337426, -30126.86581931899, -57384.68407209922, -187500.02235174447, -42667.04382503555, -29000.40495400488, 0.5, -0.868, 0.098, 192.0, 0.0, 0.0, 0.0, 0.0, 0.0, 0.0, 0.0, 0.0, 0.0, 1.6635924504700801E9, 0.0, 2022-09-19 18:00:50.470
232.0, 3508.2851062160858, 6796.24906733621, -72425.82111666455, -30097.0038887267, -57380.43724065271, -187500.02235174447, -42664.60748488992, -28994.057058579572, 0.5, -0.868, 0.098, 192.0, 0.0, 0.0, 0.0, 0.0, 0.0, 0.0, 0.0, 0.0, 0.0, 1.6635924504741464E9, 0.0, 2022-09-19 18:00:50.474
233.0, 3686.942599647355, 6894.50733596174, -72497.79373381064, -30135.06890953409, -57450.84523568693, -187500.02235174447, -42710.45091276776, -29063.32511464657, 0.5, -0.868, 0.098, 192.0, 0.0, 0.0, 0.0, 0.0, 0.0, 0.0, 0.0, 0.0, 0.0, 1.6635924504780629E9, 0.0, 2022-09-19 18:00:50.478
234.0, 3935.3151840347273, 7006.24370649382, -72604.635072307, -30232.23194268131, -57563.94506263078, -187500.02235174447, -42771.8958582754, -29178.81657824714, 0.5, -0.868, 0.098, 192.0, 0.0, 0.0, 0.0, 0.0, 0.0, 0.0, 0.0, 0.0, 0.0, 1.6635924504821455E9, 0.0, 2022-09-19 18:00:50.482
235.0, 3853.686613283946, 6935.768656226237, -72558.23285081779, -30234.51182061575, -57507.12692822539, -187500.02235174447, -42791.99007654072, -29140.304522550647, 0.5, -0.868, 0.098, 192.0, 0.0, 0.0, 0.0, 0.0, 0.0, 0.0, 0.0, 0.0, 0.0, 1.663592450486118E9, 0.0, 2022-09-19 18:00:50.486
236.0, 3597.4909183372165, 6822.06533218209, -72425.15056433089, -30165.087302337564, -57379.36435691886, -187500.02235174447, -42675.336322228475, -29044.884925470942, 0.5, -0.868, 0.098, 192.0, 0.0, 0.0, 0.0, 0.0, 0.0, 0.0, 0.0, 0.0, 0.0, 1.6635924504900796E9, 0.0, 2022-09-19 18:00:50.490
237.0, 3579.6542262618814, 6845.199387693333, -72414.15350605888, -30125.2117902293, -57380.9960342641, -187500.02235174447, -42601.70967599269, -29038.335864345536, 0.5, -0.868, 0.098, 192.0, 0.0, 0.0, 0.0, 0.0, 0.0, 0.0, 0.0, 0.0, 0.0, 1.663592450494068E9, 0.0, 2022-09-19 18:00:50.494
238.0, 3720.470216330316, 6910.220612313821, -72473.54209107663, -30109.58792085504, -57444.005601883604, -187500.02235174447, -42609.66689701878, -29070.500024616722, 0.5, -0.868, 0.098, 192.0, 0.0, 0.0, 0.0, 0.0, 0.0, 0.0, 0.0, 0.0, 0.0, 1.6635924504971194E9, 0.0, 2022-09-19 18:00:50.497
239.0, 3936.231605557395, 6978.460488135874, -72575.80132195966, -30184.667430480415, -57557.50776022766, -187500.02235174447, -42666.01564479061, -29170.457025820855, 0.5, -0.868, 0.098, 192.0, 0.0, 0.0, 0.0, 0.0, 0.0, 0.0, 0.0, 0.0, 0.0, 1.6635924505020587E9, 0.0, 2022-09-19 18:00:50.502
240.0, 3808.424330761949, 6877.02827179769, -72532.75186213874, -30196.916186441922, -57500.6225705889, -187500.02235174447, -42714.49657851417, -29137.979941127294, 0.496, -0.868, 0.1, 192.0, 15.0, 128.0, 228.0, 224.0, 3.0, 32.0, 0.0, 0.0, 0.0, 1.6635924505060933E9, 0.0, 2022-09-19 18:00:50.506
241.0, 3571.697005235792, 6776.177200815345, -72444.26130584018, -30108.783258054646, -57385.287569199514, -187500.02235174447, -42704.617107464925, -29032.367948575968, 0.496, -0.868, 0.1, 192.0, 0.0, 0.0, 0.0, 0.0, 0.0, 0.0, 0.0, 0.0, 0.0, 1.6635924505101483E9, 0.0, 2022-09-19 18:00:50.510
242.0, 3560.5881882415047, 6792.158698100889, -72452.598506522, -30081.290612374618, -57401.06790078496, -187500.02235174447, -42680.991313575665, -29028.41168980738, 0.496, -0.868, 0.1, 192.0, 0.0, 0.0, 0.0, 0.0, 0.0, 0.0, 0.0, 0.0, 0.0, 1.6635924505141487E9, 0.0, 2022-09-19 18:00:50.514
243.0, 3710.434283069883, 6874.9272078188915, -72500.87827454547, -30135.58299965656, -57476.63914878835, -187500.02235174447, -42650.861162049914, -29108.85561810203, 0.496, -0.868, 0.1, 192.0, 0.0, 0.0, 0.0, 0.0, 0.0, 0.0, 0.0, 0.0, 0.0, 1.6635924505190847E9, 0.0, 2022-09-19 18:00:50.519
244.0, 3961.8690564476324, 6979.801592803192, -72607.67490955292, -30210.103715670553, -57580.95474016127, -187500.02235174447, -42754.953235978275, -29202.35296515858, 0.496, -0.868, 0.1, 192.0, 0.0, 0.0, 0.0, 0.0, 0.0, 0.0, 0.0, 0.0, 0.0, 1.6635924505231516E9, 0.0, 2022-09-19 18:00:50.523
245.0, 3847.2269591363624, 6893.546210950161, -72539.27857151968, -30198.860788209535, -57512.51369863912, -187500.02235174447, -42760.474116858735, -29134.00133061425, 0.496, -0.868, 0.1, 192.0, 0.0, 0.0, 0.0, 0.0, 0.0, 0.0, 0.0, 0.0, 0.0, 1.6635924505261736E9, 0.0, 2022-09-19 18:00:50.526
246.0, 3629.1409884859313, 6800.942933671825, -72409.63845367891, -30109.923197021868, -57396.26227572707, -187500.02235174447, -42613.734914509645, -29032.099727642504, 0.496, -0.868, 0.1, 192.0, 0.0, 0.0, 0.0, 0.0, 0.0, 0.0, 0.0, 0.0, 0.0, 1.6635924505301092E9, 0.0, 2022-09-19 18:00:50.530
247.0, 3653.4820381977606, 6825.641611294939, -72411.06896532404, -30067.63369651243, -57396.97753154964, -187500.02235174447, -42560.537762706015, -29032.390300320425, 0.496, -0.868, 0.1, 192.0, 0.0, 0.0, 0.0, 0.0, 0.0, 0.0, 0.0, 0.0, 0.0, 1.66359245053413E9, 0.0, 2022-09-19 18:00:50.534
248.0, 3814.906336653988, 6897.03308308519, -72483.5556725926, -30109.274996432665, -57464.94918643823, -187500.02235174447, -42581.57075423846, -29101.211321498315, 0.496, -0.868, 0.1, 192.0, 0.0, 0.0, 0.0, 0.0, 0.0, 0.0, 0.0, 0.0, 0.0, 1.6635924505381355E9, 0.0, 2022-09-19 18:00:50.538
249.0, 4041.7541911308995, 6971.822020032647, -72608.97131073133, -30202.392363833475, -57566.20258882077, -187500.02235174447, -42724.823084452524, -29192.093514453594, 0.496, -0.868, 0.1, 192.0, 0.0, 0.0, 0.0, 0.0, 0.0, 0.0, 0.0, 0.0, 0.0, 1.6635924505421493E9, 0.0, 2022-09-19 18:00:50.542
250.0, 3925.30160251875, 6878.034100298179, -72530.11435629301, -30170.049389606644, -57479.94720696774, -187500.02235174447, -42764.22920992723, -29101.725411620788, 0.496, -0.868, 0.098, 192.0, 15.0, 128.0, 228.0, 224.0, 3.0, 16.0, 0.0, 0.0, 0.0, 1.6635924505461707E9, 0.0, 2022-09-19 18:00:50.546
251.0, 3724.113550676531, 6784.96143638628, -72410.77839264613, -30102.301252162608, -57359.02426946453, -187500.02235174447, -42667.89319132485, -29004.294157540106, 0.496, -0.868, 0.098, 192.0, 0.0, 0.0, 0.0, 0.0, 0.0, 0.0, 0.0, 0.0, 0.0, 1.6635924505501795E9, 0.0, 2022-09-19 18:00:50.550
252.0, 3759.2951964491845, 6829.5531665746175, -72443.68016048433, -30138.9134095804, -57371.58594984841, -187500.02235174447, -42714.340116302985, -29030.669215997365, 0.496, -0.868, 0.098, 192.0, 0.0, 0.0, 0.0, 0.0, 0.0, 0.0, 0.0, 0.0, 0.0, 1.6635924505531714E9, 0.0, 2022-09-19 18:00:50.553
253.0, 3961.2208558584284, 6937.042705660189, -72501.2135507123, -30224.8335152666, -57463.384564326356, -187500.02235174447, -42670.32953147048, -29120.23265602978, 0.496, -0.868, 0.098, 192.0, 0.0, 0.0, 0.0, 0.0, 0.0, 0.0, 0.0, 0.0, 0.0, 1.6635924505581553E9, 0.0, 2022-09-19 18:00:50.558
254.0, 4149.690765105577, 7002.2427442363205, -72589.8829209665, -30292.08991433262, -57550.15403630186, -187500.02235174447, -42738.03296542561, -29197.323822656137, 0.496, -0.868, 0.098, 192.0, 0.0, 0.0, 0.0, 0.0, 0.0, 0.0, 0.0, 0.0, 0.0, 1.6635924505622287E9, 0.0, 2022-09-19 18:00:50.562
255.0, 4009.0759407372407, 6904.096234333067, -72536.86458311851, -30235.808221794156, -57452.18634035425, -187500.02235174447, -42846.97536790078, -29096.204530740328, 0.496, -0.868, 0.098, 192.0, 0.0, 0.0, 0.0, 0.0, 0.0, 0.0, 0.0, 0.0, 0.0, 1.663592450566299E9, 0.0, 2022-09-19 18:00:50.566
0.0, 3801.3164760251616, 6808.542526786629, -72385.90090106738, -30124.854162318014, -57343.31099311245, -187500.02235174447, -42617.937042467245, -28988.469122465747, 0.496, -0.868, 0.098, 192.0, 0.0, 0.0, 0.0, 0.0, 0.0, 0.0, 0.0, 0.0, 0.0, 1.663592450570182E9, 0.0, 2022-09-19 18:00:50.570
1.0, 3803.909278381977, 6826.289811884143, -72361.29163042207, -30092.95822298029, -57340.427618077716, -187500.02235174447, -42498.668134053725, -28994.660555679868, 0.496, -0.868, 0.098, 192.0, 0.0, 0.0, 0.0, 0.0, 0.0, 0.0, 0.0, 0.0, 0.0, 1.663592450574267E9, 0.0, 2022-09-19 18:00:50.574
2.0, 3978.386995600104, 6910.220612313821, -72451.01153266568, -30146.87063060649, -57431.24275579963, -187500.02235174447, -42548.64663465579, -29079.775998565674, 0.496, -0.868, 0.098, 192.0, 0.0, 0.0, 0.0, 0.0, 0.0, 0.0, 0.0, 0.0, 0.0, 1.6635924505772367E9, 0.0, 2022-09-19 18:00:50.577
3.0, 4167.505105436457, 6970.927950254435, -72558.4787200068, -30237.886934028502, -57528.048161035564, -187500.02235174447, -42677.772662374104, -29174.703857267366, 0.496, -0.868, 0.098, 192.0, 0.0, 0.0, 0.0, 0.0, 0.0, 0.0, 0.0, 0.0, 0.0, 1.663592450581258E9, 0.0, 2022-09-19 18:00:50.581
4.0, 3975.1459926540847, 6852.7989808081375, -72492.608129097, -30214.12702967251, -57434.19318606773, -187500.02235174447, -42751.51106733216, -29108.609748913022, 0.498, -0.878, 0.098, 192.0, 15.0, 144.0, 228.0, 144.0, 3.0, 16.0, 0.0, 0.0, 0.0, 1.6635924505852864E9, 0.0, 2022-09-19 18:00:50.585
5.0, 3805.116272582564, 6798.618352248473, -72416.90277062688, -30139.047520047134, -57347.06608618094, -187500.02235174447, -42709.69095345628, -29032.479707298247, 0.498, -0.878, 0.098, 192.0, 0.0, 0.0, 0.0, 0.0, 0.0, 0.0, 0.0, 0.0, 0.0, 1.6635924505902758E9, 0.0, 2022-09-19 18:00:50.590
6.0, 3847.718697514379, 6848.2168731947995, -72415.11463107045, -30110.638452844436, -57368.791981791495, -187500.02235174447, -42636.109010709406, -29026.780012462143, 0.498, -0.878, 0.098, 192.0, 0.0, 0.0, 0.0, 0.0, 0.0, 0.0, 0.0, 0.0, 0.0, 1.6635924505942311E9, 0.0, 2022-09-19 18:00:50.594
7.0, 4015.133263484629, 6936.886243449002, -72506.08623100356, -30153.330284754073, -57455.38263981136, -187500.02235174447, -42668.18376400277, -29103.535902921667, 0.498, -0.878, 0.098, 192.0, 0.0, 0.0, 0.0, 0.0, 0.0, 0.0, 0.0, 0.0, 0.0, 1.6635924505982604E9, 0.0, 2022-09-19 18:00:50.598
8.0, 4212.923850169641, 6999.38172094604, -72643.25888672577, -30233.774213048724, -57539.13462628539, -187500.02235174447, -42866.6672547659, -29188.271366151737, 0.498, -0.878, 0.098, 192.0, 0.0, 0.0, 0.0, 0.0, 0.0, 0.0, 0.0, 0.0, 0.0, 1.663592450602332E9, 0.0, 2022-09-19 18:00:50.602
9.0, 4027.203205490495, 6879.017577054212, -72510.66833861689, -30172.373971029996, -57422.614982439874, -187500.02235174447, -42769.54892510759, -29087.688516102855, 0.498, -0.878, 0.098, 192.0, 0.0, 0.0, 0.0, 0.0, 0.0, 0.0, 0.0, 0.0, 0.0, 1.663592450605379E9, 0.0, 2022-09-19 18:00:50.605
10.0, 3843.293052112228, 6800.473547038263, -72385.34210745599, -30077.781388495136, -57326.39072255978, -187500.02235174447, -42571.26660004456, -29004.383564517924, 0.498, -0.878, 0.098, 192.0, 0.0, 0.0, 0.0, 0.0, 0.0, 0.0, 0.0, 0.0, 0.0, 1.6635924506092858E9, 0.0, 2022-09-19 18:00:50.609
11.0, 3893.428014925482, 6836.370448633486, -72398.39552621788, -30064.90678368888, -57344.115655912836, -187500.02235174447, -42523.12094248783, -29019.023957136153, 0.498, -0.878, 0.098, 192.0, 0.0, 0.0, 0.0, 0.0, 0.0, 0.0, 0.0, 0.0, 0.0, 1.6635924506133032E9, 0.0, 2022-09-19 18:00:50.613
12.0, 4109.144700663651, 6936.998002171279, -72499.69363208934, -30122.641339616937, -57427.93469762024, -187500.02235174447, -42586.3540275519, -29110.464943702813, 0.498, -0.878, 0.098, 192.0, 0.0, 0.0, 0.0, 0.0, 0.0, 0.0, 0.0, 0.0, 0.0, 1.663592450618315E9, 0.0, 2022-09-19 18:00:50.618
13.0, 4302.062607057405, 6986.529467884239, -72588.20654013235, -30188.89191018247, -57493.13473619637, -187500.02235174447, -42699.520909729115, -29180.783531759207, 0.498, -0.878, 0.098, 192.0, 0.0, 0.0, 0.0, 0.0, 0.0, 0.0, 0.0, 0.0, 0.0, 1.6635924506223085E9, 0.0, 2022-09-19 18:00:50.622
14.0, 4080.288598571849, 6850.340288918053, -72484.360335393, -30134.15248801142, -57371.027156237025, -187500.02235174447, -42685.618124677916, -29077.674934586877, 0.498, -0.876, 0.10400000000000001, 192.0, 15.0, 144.0, 228.0, 160.0, 3.0, 64.0, 0.0, 0.0, 0.0, 1.6635924506264484E9, 0.0, 2022-09-19 18:00:50.626
15.0, 3913.3210674907054, 6796.517288269674, -72417.46156423826, -30076.373228594453, -57299.83685014687, -187500.02235174447, -42618.51818782308, -29014.955939645286, 0.498, -0.876, 0.10400000000000001, 192.0, 0.0, 0.0, 0.0, 0.0, 0.0, 0.0, 0.0, 0.0, 0.0, 1.663592450630339E9, 0.0, 2022-09-19 18:00:50.630
16.0, 3989.764033527855, 6864.2430739692545, -72459.86282346999, -30073.57926053754, -57328.29062083848, -187500.02235174447, -42642.188685201254, -29034.446660810314, 0.498, -0.876, 0.10400000000000001, 192.0, 0.0, 0.0, 0.0, 0.0, 0.0, 0.0, 0.0, 0.0, 0.0, 1.663592450633321E9, 0.0, 2022-09-19 18:00:50.633
17.0, 4231.699315512099, 6968.357499642075, -72564.24547007626, -30111.19724645582, -57426.750055164106, -187500.02235174447, -42706.27113655462, -29118.04218507316, 0.498, -0.876, 0.10400000000000001, 192.0, 0.0, 0.0, 0.0, 0.0, 0.0, 0.0, 0.0, 0.0, 0.0, 1.6635924506373155E9, 0.0, 2022-09-19 18:00:50.637
18.0, 4404.902983296273, 6992.609142376083, -72631.52422088674, -30171.7704739297, -57498.834431032476, -187500.02235174447, -42789.30786720609, -29181.767008515242, 0.498, -0.876, 0.10400000000000001, 192.0, 0.0, 0.0, 0.0, 0.0, 0.0, 0.0, 0.0, 0.0, 0.0, 1.6635924506414113E9, 0.0, 2022-09-19 18:00:50.641
19.0, 4223.1609491301715, 6854.229492453277, -72532.05895806062, -30135.44888918983, -57391.41194718027, -187500.02235174447, -42796.46042543178, -29088.76139983671, 0.498, -0.876, 0.10400000000000001, 192.0, 0.0, 0.0, 0.0, 0.0, 0.0, 0.0, 0.0, 0.0, 0.0, 1.6635924506464176E9, 0.0, 2022-09-19 18:00:50.646
20.0, 4118.9124129906195, 6817.34911410202, -72464.5566898056, -30079.72599026275, -57325.04961789246, -187500.02235174447, -42713.64721222487, -29039.721672501764, 0.498, -0.876, 0.10400000000000001, 192.0, 0.0, 0.0, 0.0, 0.0, 0.0, 0.0, 0.0, 0.0, 0.0, 1.6635924506503253E9, 0.0, 2022-09-19 18:00:50.650
21.0, 4178.211591030549, 6868.825181582592, -72477.40894286739, -30093.606423569494, -57358.73369678661, -187500.02235174447, -42631.638661818346, -29081.206510210814, 0.498, -0.876, 0.10400000000000001, 192.0, 0.0, 0.0, 0.0, 0.0, 0.0, 0.0, 0.0, 0.0, 0.0, 1.6635924506543744E9, 0.0, 2022-09-19 18:00:50.654
22.0, 4374.549314325966, 6963.104839695077, -72562.6808479644, -30129.972711798277, -57461.39525906983, -187500.02235174447, -42622.8097227585, -29166.366656585535, 0.498, -0.876, 0.10400000000000001, 192.0, 0.0, 0.0, 0.0, 0.0, 0.0, 0.0, 0.0, 0.0, 0.0, 1.6635924506584413E9, 0.0, 2022-09-19 18:00:50.658
23.0, 4509.643257813842, 6968.826886275636, -72618.64961608048, -30156.21365978881, -57513.18425097278, -187500.02235174447, -42715.390648292385, -29197.16736044495, 0.498, -0.876, 0.10400000000000001, 192.0, 0.0, 0.0, 0.0, 0.0, 0.0, 0.0, 0.0, 0.0, 0.0, 1.6635924506615093E9, 0.0, 2022-09-19 18:00:50.661
24.0, 4303.269601257993, 6831.900099742425, -72497.90549253291, -30078.004905939688, -57384.72877558813, -187500.02235174447, -42690.51315671363, -29073.048123484627, 0.502, -0.872, 0.11, 192.0, 15.0, 176.0, 228.0, 192.0, 3.0, 112.0, 0.0, 0.0, 0.0, 1.6635924506654756E9, 0.0, 2022-09-19 18:00:50.665
25.0, 4225.843158464809, 6813.616372777984, -72443.27782908414, -30014.0342133086, -57317.65119047776, -187500.02235174447, -42651.06232775001, -29019.001605391695, 0.502, -0.872, 0.11, 192.0, 0.0, 0.0, 0.0, 0.0, 0.0, 0.0, 0.0, 0.0, 0.0, 1.663592450669485E9, 0.0, 2022-09-19 18:00:50.669
26.0, 4366.77090725552, 6891.93688534938, -72507.91907404888, -30047.584181736016, -57355.246824651585, -187500.02235174447, -42730.05339265506, -29069.09186471604, 0.502, -0.872, 0.11, 192.0, 0.0, 0.0, 0.0, 0.0, 0.0, 0.0, 0.0, 0.0, 0.0, 1.6635924506735675E9, 0.0, 2022-09-19 18:00:50.673
27.0, 4625.984087703716, 7016.5702124321715, -72577.12007488252, -30119.109763992998, -57456.679040989766, -187500.02235174447, -42660.40535693233, -29172.759255499754, 0.502, -0.872, 0.11, 192.0, 0.0, 0.0, 0.0, 0.0, 0.0, 0.0, 0.0, 0.0, 0.0, 1.6635924506785011E9, 0.0, 2022-09-19 18:00:50.678
28.0, 4716.016914369692, 7015.698494398415, -72595.71672626934, -30153.10676730952, -57486.40686111533, -187500.02235174447, -42656.11382199691, -29201.168322702448, 0.502, -0.872, 0.11, 192.0, 0.0, 0.0, 0.0, 0.0, 0.0, 0.0, 0.0, 0.0, 0.0, 1.6635924506824522E9, 0.0, 2022-09-19 18:00:50.682
29.0, 4449.114733828871, 6860.9573675343245, -72473.85501549901, -30086.0515339436, -57362.75701078856, -187500.02235174447, -42619.23344364565, -29087.733219591766, 0.502, -0.872, 0.11, 192.0, 0.0, 0.0, 0.0, 0.0, 0.0, 0.0, 0.0, 0.0, 0.0, 1.6635924506866012E9, 0.0, 2022-09-19 18:00:50.686
30.0, 4319.184043310171, 6826.625088050972, -72424.10003234149, -30024.18190529131, -57304.553068226945, -187500.02235174447, -42564.96340810817, -29034.826640466054, 0.502, -0.872, 0.11, 192.0, 0.0, 0.0, 0.0, 0.0, 0.0, 0.0, 0.0, 0.0, 0.0, 1.663592450689561E9, 0.0, 2022-09-19 18:00:50.689
31.0, 4398.06334949295, 6889.098213803556, -72468.42354159636, -30016.917588343335, -57341.41109483375, -187500.02235174447, -42596.81464395698, -29051.054006940605, 0.502, -0.872, 0.11, 192.0, 0.0, 0.0, 0.0, 0.0, 0.0, 0.0, 0.0, 0.0, 0.0, 1.6635924506934948E9, 0.0, 2022-09-19 18:00:50.693
32.0, 4635.05889595257, 6992.787956331726, -72589.81586573314, -30088.510225833685, -57466.111477149905, -187500.02235174447, -42687.38391248988, -29155.838984947084, 0.502, -0.872, 0.11, 192.0, 0.0, 0.0, 0.0, 0.0, 0.0, 0.0, 0.0, 0.0, 0.0, 1.6635924506974957E9, 0.0, 2022-09-19 18:00:50.697
33.0, 4720.979001638771, 6997.392415689518, -72632.61945636505, -30142.44498520434, -57511.35140792745, -187500.02235174447, -42786.29038170462, -29197.54734010069, 0.502, -0.872, 0.11, 192.0, 0.0, 0.0, 0.0, 0.0, 0.0, 0.0, 0.0, 0.0, 0.0, 1.6635924507015104E9, 0.0, 2022-09-19 18:00:50.701
34.0, 4470.527705017055, 6873.496696173751, -72529.51085919271, -30056.32371381804, -57384.21468546566, -187500.02235174447, -42825.204768801304, -29071.818777539585, 0.502, -0.872, 0.11, 192.0, 0.0, 0.0, 0.0, 0.0, 0.0, 0.0, 0.0, 0.0, 0.0, 1.663592450706441E9, 0.0, 2022-09-19 18:00:50.706
35.0, 4392.25189593457, 6859.593911122551, -72470.14462591942, -30001.40547769135, -57350.97764146062, -187500.02235174447, -42718.20696809375, -29033.641998009924, 0.504, -0.872, 0.108, 192.0, 15.0, 192.0, 228.0, 192.0, 3.0, 96.0, 0.0, 0.0, 0.0, 1.6635924507104688E9, 0.0, 2022-09-19 18:00:50.710
36.0, 4446.968966361162, 6910.421778013919, -72452.95613443329, -30020.31505350054, -57396.86577282736, -187500.02235174447, -42553.340500991406, -29075.819739797087, 0.504, -0.872, 0.108, 192.0, 0.0, 0.0, 0.0, 0.0, 0.0, 0.0, 0.0, 0.0, 0.0, 1.6635924507144675E9, 0.0, 2022-09-19 18:00:50.714
37.0, 4659.3999456644, 7010.95992457389, -72556.33295253909, -30103.86587427448, -57513.54187888407, -187500.02235174447, -42598.93805968024, -29184.136293427506, 0.504, -0.872, 0.108, 192.0, 0.0, 0.0, 0.0, 0.0, 0.0, 0.0, 0.0, 0.0, 0.0, 1.6635924507175229E9, 0.0, 2022-09-19 18:00:50.717
38.0, 4720.084931860559, 7012.882174597046, -72600.29883388267, -30159.812290646114, -57549.55053920157, -187500.02235174447, -42705.44412200977, -29222.73775610182, 0.504, -0.872, 0.108, 192.0, 0.0, 0.0, 0.0, 0.0, 0.0, 0.0, 0.0, 0.0, 0.0, 1.6635924507214699E9, 0.0, 2022-09-19 18:00:50.721
39.0, 4453.093344341915, 6875.3965944524525, -72469.22820439676, -30058.0447981411, -57410.58974392292, -187500.02235174447, -42634.18676068625, -29088.269661458693, 0.504, -0.872, 0.108, 192.0, 0.0, 0.0, 0.0, 0.0, 0.0, 0.0, 0.0, 0.0, 0.0, 1.6635924507256052E9, 0.0, 2022-09-19 18:00:50.725
40.0, 4364.982767699095, 6851.882559285469, -72427.4974974987, -29977.1761867018, -57363.427563122226, -187500.02235174447, -42566.125698819844, -29030.26688459717, 0.504, -0.872, 0.108, 192.0, 0.0, 0.0, 0.0, 0.0, 0.0, 0.0, 0.0, 0.0, 0.0, 1.6635924507295303E9, 0.0, 2022-09-19 18:00:50.729
41.0, 4465.900893914806, 6915.696789705371, -72475.26317539968, -29978.74080881367, -57393.08832801442, -187500.02235174447, -42587.873946174856, -29062.676914057367, 0.504, -0.872, 0.108, 192.0, 0.0, 0.0, 0.0, 0.0, 0.0, 0.0, 0.0, 0.0, 0.0, 1.6635924507345142E9, 0.0, 2022-09-19 18:00:50.734
42.0, 4704.729283419762, 7022.3816659905515, -72603.3386711286, -30062.71631273226, -57503.371835156904, -187500.02235174447, -42702.8289679085, -29171.753426999265, 0.504, -0.872, 0.108, 192.0, 0.0, 0.0, 0.0, 0.0, 0.0, 0.0, 0.0, 0.0, 0.0, 1.6635924507385952E9, 0.0, 2022-09-19 18:00:50.738
43.0, 4758.5522840681415, 7012.278677496753, -72628.26086619626, -30109.94554876632, -57526.48353892369, -187500.02235174447, -42793.50999516368, -29198.95550000137, 0.504, -0.872, 0.108, 192.0, 0.0, 0.0, 0.0, 0.0, 0.0, 0.0, 0.0, 0.0, 0.0, 1.6635924507435665E9, 0.0, 2022-09-19 18:00:50.743
44.0, 4481.323597588968, 6874.88250432998, -72471.93276547585, -30025.210085536255, -57389.35558669038, -187500.02235174447, -42669.457813436726, -29072.042294984138, 0.504, -0.872, 0.108, 192.0, 0.0, 0.0, 0.0, 0.0, 0.0, 0.0, 0.0, 0.0, 0.0, 1.6635924507475483E9, 0.0, 2022-09-19 18:00:50.747
45.0, 4388.183878443704, 6857.0234605101905, -72434.27007606866, -29972.862300021923, -57347.960155959154, -187500.02235174447, -42614.98661219914, -29034.55841953259, 0.5, -0.876, 0.106, 192.0, 15.0, 160.0, 228.0, 160.0, 3.0, 80.0, 0.0, 0.0, 0.0, 1.663592450750513E9, 0.0, 2022-09-19 18:00:50.750
46.0, 4509.933830491761, 6939.233176616809, -72494.0162889977, -30011.731983629703, -57392.26131346957, -187500.02235174447, -42681.617162420414, -29092.5164929052, 0.5, -0.876, 0.106, 192.0, 0.0, 0.0, 0.0, 0.0, 0.0, 0.0, 0.0, 0.0, 0.0, 1.6635924507535367E9, 0.0, 2022-09-19 18:00:50.753
47.0, 4745.70003100634, 7063.06184089921, -72601.34936587207, -30128.229275730762, -57533.211414004734, -187500.02235174447, -42712.19434883528, -29225.73288985883, 0.5, -0.876, 0.106, 192.0, 0.0, 0.0, 0.0, 0.0, 0.0, 0.0, 0.0, 0.0, 0.0, 1.663592450757589E9, 0.0, 2022-09-19 18:00:50.757
48.0, 4725.65051622993, 7030.607107950104, -72604.52331358472, -30107.1068772205, -57537.6817628958, -187500.02235174447, -42774.80158505459, -29199.35783140157, 0.5, -0.876, 0.106, 192.0, 0.0, 0.0, 0.0, 0.0, 0.0, 0.0, 0.0, 0.0, 0.0, 1.6635924507625976E9, 0.0, 2022-09-19 18:00:50.762
49.0, 4456.155533332292, 6903.5150889772285, -72466.27777412866, -29970.135387198377, -57400.10677577338, -187500.02235174447, -42683.91939209931, -29050.919896473875, 0.5, -0.876, 0.106, 192.0, 0.0, 0.0, 0.0, 0.0, 0.0, 0.0, 0.0, 0.0, 0.0, 1.6635924507665913E9, 0.0, 2022-09-19 18:00:50.766
50.0, 4374.951645726162, 6889.321731248108, -72409.66080542337, -29907.9081306348, -57370.71423181466, -187500.02235174447, -42528.6865268572, -29016.922893157353, 0.5, -0.876, 0.106, 192.0, 0.0, 0.0, 0.0, 0.0, 0.0, 0.0, 0.0, 0.0, 0.0, 1.6635924507705936E9, 0.0, 2022-09-19 18:00:50.770
51.0, 4474.707481230197, 6953.381830857019, -72457.60529728, -29929.701081478728, -57404.93475257573, -187500.02235174447, -42521.71278258715, -29072.84695778453, 0.5, -0.876, 0.106, 192.0, 0.0, 0.0, 0.0, 0.0, 0.0, 0.0, 0.0, 0.0, 0.0, 1.663592450773696E9, 0.0, 2022-09-19 18:00:50.773
52.0, 4713.848795157528, 7058.099753630132, -72588.385354088, -30014.70476564226, -57507.39514915886, -187500.02235174447, -42619.92634772377, -29183.309278882658, 0.5, -0.876, 0.106, 192.0, 0.0, 0.0, 0.0, 0.0, 0.0, 0.0, 0.0, 0.0, 0.0, 1.663592450777848E9, 0.0, 2022-09-19 18:00:50.777
53.0, 4700.16952755088, 7012.43513970794, -72604.1880374179, -30055.362588806463, -57498.16387869882, -187500.02235174447, -42726.49946528667, -29183.242223649293, 0.5, -0.876, 0.106, 192.0, 0.0, 0.0, 0.0, 0.0, 0.0, 0.0, 0.0, 0.0, 0.0, 1.6635924507816176E9, 0.0, 2022-09-19 18:00:50.781
54.0, 4424.080780038927, 6884.516106190218, -72485.81319878259, -29979.098436724955, -57369.909569014264, -187500.02235174447, -42678.51026994113, -29062.833376268554, 0.5, -0.876, 0.106, 192.0, 0.0, 0.0, 0.0, 0.0, 0.0, 0.0, 0.0, 0.0, 0.0, 1.6635924507856164E9, 0.0, 2022-09-19 18:00:50.785
55.0, 4353.829247215896, 6893.680321416894, -72477.29718414512, -29931.10924137941, -57355.31387988495, -187500.02235174447, -42642.30044392353, -29036.145393388917, 0.5, -0.874, 0.108, 192.0, 15.0, 160.0, 228.0, 176.0, 3.0, 96.0, 0.0, 0.0, 0.0, 1.6635924507896984E9, 0.0, 2022-09-19 18:00:50.789
56.0, 4420.795073603997, 6985.948322528401, -72520.43605094386, -29937.07715714898, -57396.44108968271, -187500.02235174447, -42640.445249133736, -29075.23859444125, 0.5, -0.874, 0.108, 192.0, 0.0, 0.0, 0.0, 0.0, 0.0, 0.0, 0.0, 0.0, 0.0, 1.66359245079463E9, 0.0, 2022-09-19 18:00:50.794
57.0, 4612.416578819344, 7100.612771584127, -72626.83035455113, -30022.572579690528, -57502.27659967859, -187500.02235174447, -42719.726886716715, -29191.869997009042, 0.5, -0.874, 0.108, 192.0, 0.0, 0.0, 0.0, 0.0, 0.0, 0.0, 0.0, 0.0, 0.0, 1.6635924507986531E9, 0.0, 2022-09-19 18:00:50.798
58.0, 4544.4225721863, 7055.171675106487, -72606.57967407462, -30054.513222517162, -57473.39814584234, -187500.02235174447, -42762.709291304265, -29185.16447367245, 0.5, -0.874, 0.108, 192.0, 0.0, 0.0, 0.0, 0.0, 0.0, 0.0, 0.0, 0.0, 0.0, 1.6635924508016896E9, 0.0, 2022-09-19 18:00:50.801
59.0, 4244.3504028738025, 6932.728818980315, -72463.61791653847, -29971.0741604655, -57339.06416166594, -187500.02235174447, -42642.99334800164, -29070.56707985009, 0.5, -0.874, 0.108, 192.0, 0.0, 0.0, 0.0, 0.0, 0.0, 0.0, 0.0, 0.0, 0.0, 1.6635924508056586E9, 0.0, 2022-09-19 18:00:50.805
60.0, 4168.130954281206, 6942.474179562829, -72450.22922160974, -29930.572799512483, -57327.77653071601, -187500.02235174447, -42600.43562655874, -29055.12202443147, 0.5, -0.874, 0.108, 192.0, 0.0, 0.0, 0.0, 0.0, 0.0, 0.0, 0.0, 0.0, 0.0, 1.6635924508096669E9, 0.0, 2022-09-19 18:00:50.809
61.0, 4272.51360088749, 7018.894793855524, -72513.84228632954, -29940.005235672623, -57376.413926650755, -187500.02235174447, -42627.61534781639, -29104.966414566807, 0.5, -0.874, 0.108, 192.0, 0.0, 0.0, 0.0, 0.0, 0.0, 0.0, 0.0, 0.0, 0.0, 1.6635924508136404E9, 0.0, 2022-09-19 18:00:50.813
62.0, 4504.010618211105, 7140.018897058832, -72602.13167692801, -30005.1829225043, -57477.644977288845, -187500.02235174447, -42658.68427260927, -29189.210139418858, 0.5, -0.874, 0.108, 192.0, 0.0, 0.0, 0.0, 0.0, 0.0, 0.0, 0.0, 0.0, 0.0, 1.6635924508176656E9, 0.0, 2022-09-19 18:00:50.817
63.0, 4434.206120277181, 7103.138518707576, -72582.0821621516, -30025.590065191995, -57435.95897387969, -187500.02235174447, -42748.27006438614, -29166.50076705227, 0.5, -0.874, 0.108, 192.0, 0.0, 0.0, 0.0, 0.0, 0.0, 0.0, 0.0, 0.0, 0.0, 1.6635924508227744E9, 0.0, 2022-09-19 18:00:50.822
64.0, 4209.302867567882, 7018.157186288498, -72486.48375111625, -29964.39098887336, -57315.48307126559, -187500.02235174447, -42749.41000335336, -29068.66718157139, 0.5, -0.874, 0.108, 192.0, 0.0, 0.0, 0.0, 0.0, 0.0, 0.0, 0.0, 0.0, 0.0, 1.6635924508267395E9, 0.0, 2022-09-19 18:00:50.826
65.0, 4210.554565257378, 7059.999651908834, -72442.83079419503, -29907.215226556687, -57303.77075717101, -187500.02235174447, -42607.722295251166, -29050.36110286249, 0.498, -0.876, 0.10400000000000001, 192.0, 15.0, 144.0, 228.0, 160.0, 3.0, 64.0, 0.0, 0.0, 0.0, 1.6635924508297684E9, 0.0, 2022-09-19 18:00:50.829
66.0, 4335.992555140562, 7148.892539607589, -72472.31274513158, -29906.388212011843, -57367.182656190715, -187500.02235174447, -42530.832294324915, -29094.52814990618, 0.498, -0.876, 0.10400000000000001, 192.0, 0.0, 0.0, 0.0, 0.0, 0.0, 0.0, 0.0, 0.0, 0.0, 1.6635924508336987E9, 0.0, 2022-09-19 18:00:50.833
67.0, 4575.916180123828, 7269.05551779932, -72581.79158947368, -29979.768989058615, -57477.42145984429, -187500.02235174447, -42604.637754516334, -29182.571671315633, 0.498, -0.876, 0.10400000000000001, 192.0, 0.0, 0.0, 0.0, 0.0, 0.0, 0.0, 0.0, 0.0, 0.0, 1.663592450837684E9, 0.0, 2022-09-19 18:00:50.837
68.0, 4497.5733158079765, 7217.6688572965695, -72550.87912689199, -29980.17132045881, -57420.826842883456, -187500.02235174447, -42679.44904320825, -29144.752519697253, 0.498, -0.876, 0.10400000000000001, 192.0, 0.0, 0.0, 0.0, 0.0, 0.0, 0.0, 0.0, 0.0, 0.0, 1.6635924508417645E9, 0.0, 2022-09-19 18:00:50.841
69.0, 4245.333879629837, 7118.896498548567, -72447.45760529728, -29912.043203359033, -57304.64247520477, -187500.02235174447, -42638.43359213276, -29048.08122492805, 0.498, -0.876, 0.10400000000000001, 192.0, 0.0, 0.0, 0.0, 0.0, 0.0, 0.0, 0.0, 0.0, 0.0, 1.663592450845742E9, 0.0, 2022-09-19 18:00:50.845
70.0, 4226.513710798467, 7171.46780150745, -72474.81614051058, -29901.87315963187, -57311.23623981908, -187500.02235174447, -42684.61229617742, -29045.778995249155, 0.498, -0.876, 0.10400000000000001, 192.0, 0.0, 0.0, 0.0, 0.0, 0.0, 0.0, 0.0, 0.0, 0.0, 1.66359245084971E9, 0.0, 2022-09-19 18:00:50.849
71.0, 4391.514288367544, 7285.037015084865, -72552.60021121505, -29932.696215235737, -57382.8959325428, -187500.02235174447, -42733.7861339791, -29116.589321683565, 0.498, -0.876, 0.10400000000000001, 192.0, 0.0, 0.0, 0.0, 0.0, 0.0, 0.0, 0.0, 0.0, 0.0, 1.6635924508547115E9, 0.0, 2022-09-19 18:00:50.854
72.0, 4593.641113476886, 7388.503240168481, -72615.76624104574, -30003.104210269954, -57494.14056469686, -187500.02235174447, -42685.72988340019, -29215.562846131666, 0.498, -0.876, 0.10400000000000001, 192.0, 0.0, 0.0, 0.0, 0.0, 0.0, 0.0, 0.0, 0.0, 0.0, 1.6635924508577108E9, 0.0, 2022-09-19 18:00:50.857
73.0, 4439.637594179821, 7311.434425286583, -72547.28049603468, -29993.917643298824, -57438.574127980966, -187500.02235174447, -42669.34605471445, -29159.72818848231, 0.498, -0.876, 0.10400000000000001, 192.0, 0.0, 0.0, 0.0, 0.0, 0.0, 0.0, 0.0, 0.0, 0.0, 1.6635924508618388E9, 0.0, 2022-09-19 18:00:50.861
74.0, 4170.701404893566, 7199.4745373099495, -72438.29339007061, -29904.82358989997, -57328.11180688284, -187500.02235174447, -42597.7534172241, -29057.73717853274, 0.498, -0.876, 0.10400000000000001, 192.0, 0.0, 0.0, 0.0, 0.0, 0.0, 0.0, 0.0, 0.0, 0.0, 1.6635924508657773E9, 0.0, 2022-09-19 18:00:50.865
75.0, 4160.419602444124, 7216.595973562715, -72438.56161100407, -29873.039409284524, -57332.20217611816, -187500.02235174447, -42564.40461449679, -29054.831451753555, 0.502, -0.874, 0.1, 192.0, 15.0, 176.0, 228.0, 176.0, 3.0, 32.0, 0.0, 0.0, 0.0, 1.6635924508697767E9, 0.0, 2022-09-19 18:00:50.869
76.0, 4311.606801939822, 7308.8863264186775, -72516.18921949735, -29903.907168377304, -57408.30986598848, -187500.02235174447, -42627.77181002758, -29110.867275103006, 0.502, -0.874, 0.1, 192.0, 0.0, 0.0, 0.0, 0.0, 0.0, 0.0, 0.0, 0.0, 0.0, 1.6635924508738153E9, 0.0, 2022-09-19 18:00:50.873
77.0, 4551.865703089918, 7414.431263736637, -72631.70303484239, -29987.63680310688, -57531.35621921495, -187500.02235174447, -42739.642291026394, -29222.044852023704, 0.502, -0.874, 0.1, 192.0, 0.0, 0.0, 0.0, 0.0, 0.0, 0.0, 0.0, 0.0, 0.0, 1.663592450877876E9, 0.0, 2022-09-19 18:00:50.877
78.0, 4410.759140343564, 7322.453835303049, -72543.05601633263, -29958.981866715178, -57475.09687842094, -187500.02235174447, -42697.95628761724, -29163.01389491724, 0.502, -0.874, 0.1, 192.0, 0.0, 0.0, 0.0, 0.0, 0.0, 0.0, 0.0, 0.0, 0.0, 1.6635924508828006E9, 0.0, 2022-09-19 18:00:50.882
79.0, 4156.731564608999, 7210.6280577931475, -72422.62481720744, -29864.2998772025, -57367.02619397953, -187500.02235174447, -42586.84576592991, -29045.153146404406, 0.502, -0.874, 0.1, 192.0, 0.0, 0.0, 0.0, 0.0, 0.0, 0.0, 0.0, 0.0, 0.0, 1.6635924508858075E9, 0.0, 2022-09-19 18:00:50.885
80.0, 4150.763648839432, 7232.309249914796, -72437.89105867042, -29866.467996414664, -57383.45472615418, -187500.02235174447, -42565.164573808266, -29057.871288999475, 0.502, -0.874, 0.1, 192.0, 0.0, 0.0, 0.0, 0.0, 0.0, 0.0, 0.0, 0.0, 0.0, 1.6635924508898404E9, 0.0, 2022-09-19 18:00:50.889
81.0, 4315.85363338633, 7312.328495064795, -72537.46808021881, -29940.36286358391, -57472.77229699759, -187500.02235174447, -42654.43744116276, -29134.828345159098, 0.502, -0.874, 0.1, 192.0, 0.0, 0.0, 0.0, 0.0, 0.0, 0.0, 0.0, 0.0, 0.0, 1.66359245089482E9, 0.0, 2022-09-19 18:00:50.894
82.0, 4550.904578078339, 7413.872470125255, -72653.98772406433, -30043.270295056143, -57590.29776934359, -187500.02235174447, -42774.28749493212, -29244.39659647901, 0.502, -0.874, 0.1, 192.0, 0.0, 0.0, 0.0, 0.0, 0.0, 0.0, 0.0, 0.0, 0.0, 1.6635924508988276E9, 0.0, 2022-09-19 18:00:50.898
83.0, 4381.277189407014, 7325.627783015702, -72557.49524325076, -29996.286928211088, -57515.48648065168, -187500.02235174447, -42722.587910006994, -29166.25489786326, 0.502, -0.874, 0.1, 192.0, 0.0, 0.0, 0.0, 0.0, 0.0, 0.0, 0.0, 0.0, 0.0, 1.663592450902816E9, 0.0, 2022-09-19 18:00:50.902
84.0, 4123.449817115047, 7222.027447465354, -72449.31280008708, -29891.367839737875, -57407.035816554526, -187500.02235174447, -42624.44140010374, -29050.025826695663, 0.502, -0.874, 0.1, 192.0, 0.0, 0.0, 0.0, 0.0, 0.0, 0.0, 0.0, 0.0, 0.0, 1.6635924509057972E9, 0.0, 2022-09-19 18:00:50.905
85.0, 4149.444895916569, 7254.839808325745, -72466.72480901776, -29863.025827768546, -57415.88710735883, -187500.02235174447, -42630.85635076241, -29046.85187898301, 0.502, -0.868, 0.10200000000000001, 192.0, 15.0, 176.0, 228.0, 224.0, 3.0, 48.0, 0.0, 0.0, 0.0, 1.6635924509108455E9, 0.0, 2022-09-19 18:00:50.910
86.0, 4338.898281919752, 7347.286623392895, -72537.62454243, -29903.057802088002, -57502.745986312155, -187500.02235174447, -42629.00115597262, -29124.81476364312, 0.502, -0.868, 0.10200000000000001, 192.0, 0.0, 0.0, 0.0, 0.0, 0.0, 0.0, 0.0, 0.0, 0.0, 1.6635924509139338E9, 0.0, 2022-09-19 18:00:50.913
87.0, 4533.291403447557, 7426.389447020227, -72628.86436329655, -29996.868073566926, -57607.01687419616, -187500.02235174447, -42684.768758388615, -29220.860209567574, 0.502, -0.868, 0.10200000000000001, 192.0, 0.0, 0.0, 0.0, 0.0, 0.0, 0.0, 0.0, 0.0, 0.0, 1.6635924509178452E9, 0.0, 2022-09-19 18:00:50.917
88.0, 4364.24516013207, 7326.365390582728, -72547.57106871261, -29953.438634090264, -57516.98404753018, -187500.02235174447, -42704.21477606473, -29135.72241493731, 0.502, -0.868, 0.10200000000000001, 192.0, 0.0, 0.0, 0.0, 0.0, 0.0, 0.0, 0.0, 0.0, 0.0, 1.6635924509218216E9, 0.0, 2022-09-19 18:00:50.921
89.0, 4160.39725069967, 7238.970069762478, -72462.32151536006, -29862.1988132237, -57434.75197967911, -187500.02235174447, -42646.14494396984, -29045.711940015786, 0.502, -0.868, 0.10200000000000001, 192.0, 0.0, 0.0, 0.0, 0.0, 0.0, 0.0, 0.0, 0.0, 0.0, 1.6635924509259415E9, 0.0, 2022-09-19 18:00:50.925
90.0, 4192.337893526304, 7286.422823241094, -72486.0590679716, -29858.33196143293, -57468.54781729553, -187500.02235174447, -42649.117725982396, -29062.56515533509, 0.502, -0.868, 0.10200000000000001, 192.0, 0.0, 0.0, 0.0, 0.0, 0.0, 0.0, 0.0, 0.0, 0.0, 1.6635924509299152E9, 0.0, 2022-09-19 18:00:50.929
91.0, 4372.850581747363, 7399.343836229305, -72557.24937406175, -29900.93438636475, -57554.5349782151, -187500.02235174447, -42644.87089453589, -29139.790432428174, 0.502, -0.868, 0.10200000000000001, 192.0, 0.0, 0.0, 0.0, 0.0, 0.0, 0.0, 0.0, 0.0, 0.0, 1.663592450933947E9, 0.0, 2022-09-19 18:00:50.933
92.0, 4540.868644817906, 7470.467087086093, -72630.6972063419, -29981.423018148307, -57645.73009559275, -187500.02235174447, -42672.09531928245, -29239.300398743202, 0.502, -0.868, 0.10200000000000001, 192.0, 0.0, 0.0, 0.0, 0.0, 0.0, 0.0, 0.0, 0.0, 0.0, 1.663592450938936E9, 0.0, 2022-09-19 18:00:50.938
93.0, 4326.202491069137, 7358.283681664906, -72529.39910047044, -29939.513497294607, -57546.28718451109, -187500.02235174447, -42645.67555733628, -29149.133461610494, 0.502, -0.868, 0.10200000000000001, 192.0, 0.0, 0.0, 0.0, 0.0, 0.0, 0.0, 0.0, 0.0, 0.0, 1.663592450941923E9, 0.0, 2022-09-19 18:00:50.941
94.0, 4123.069837459307, 7280.320797004795, -72441.84731743901, -29848.541897361505, -57443.111532105395, -187500.02235174447, -42569.12083257685, -29047.4553760833, 0.502, -0.868, 0.10200000000000001, 192.0, 0.0, 0.0, 0.0, 0.0, 0.0, 0.0, 0.0, 0.0, 0.0, 1.6635924509458575E9, 0.0, 2022-09-19 18:00:50.945
95.0, 4161.201913500061, 7326.365390582728, -72470.63636429743, -29843.177478692232, -57463.42926781527, -187500.02235174447, -42575.80400416899, -29054.69734128682, 0.504, -0.868, 0.106, 192.0, 15.0, 192.0, 228.0, 224.0, 3.0, 80.0, 0.0, 0.0, 0.0, 1.6635924509499645E9, 0.0, 2022-09-19 18:00:50.949
96.0, 4359.2830728629915, 7440.42634253816, -72555.72945543879, -29913.25019755962, -57552.56802470303, -187500.02235174447, -42615.8583302329, -29142.584400485088, 0.504, -0.868, 0.106, 192.0, 0.0, 0.0, 0.0, 0.0, 0.0, 0.0, 0.0, 0.0, 0.0, 1.6635924509539473E9, 0.0, 2022-09-19 18:00:50.953
97.0, 4531.235042957669, 7519.484462676581, -72647.28220072773, -30002.45600968075, -57642.08676124654, -187500.02235174447, -42724.10782862995, -29231.767860861764, 0.504, -0.868, 0.106, 192.0, 0.0, 0.0, 0.0, 0.0, 0.0, 0.0, 0.0, 0.0, 0.0, 1.6635924509579234E9, 0.0, 2022-09-19 18:00:50.957
98.0, 4326.403656769235, 7415.302981770395, -72566.59240324407, -29954.53386956857, -57534.3290012275, -187500.02235174447, -42773.23696294272, -29137.219981815815, 0.504, -0.868, 0.106, 192.0, 0.0, 0.0, 0.0, 0.0, 0.0, 0.0, 0.0, 0.0, 0.0, 1.6635924509619446E9, 0.0, 2022-09-19 18:00:50.961
99.0, 4152.931768051597, 7367.827876547322, -72473.31857363207, -29863.875194057848, -57446.15136935132, -187500.02235174447, -42659.332473198476, -29050.763434262688, 0.504, -0.868, 0.106, 192.0, 0.0, 0.0, 0.0, 0.0, 0.0, 0.0, 0.0, 0.0, 0.0, 1.663592450966164E9, 0.0, 2022-09-19 18:00:50.966
100.0, 4184.648893433678, 7412.129034057741, -72471.79865500912, -29835.019091966045, -57464.368041082394, -187500.02235174447, -42584.923515906754, -29055.166727920383, 0.504, -0.868, 0.106, 192.0, 0.0, 0.0, 0.0, 0.0, 0.0, 0.0, 0.0, 0.0, 0.0, 1.6635924509689837E9, 0.0, 2022-09-19 18:00:50.968
101.0, 4367.329700866902, 7511.728407350589, -72554.36599902702, -29889.065610058977, -57565.8896643984, -187500.02235174447, -42586.823414185455, -29140.908019650942, 0.504, -0.868, 0.106, 192.0, 0.0, 0.0, 0.0, 0.0, 0.0, 0.0, 0.0, 0.0, 0.0, 1.663592450973066E9, 0.0, 2022-09-19 18:00:50.973
102.0, 4503.116548432893, 7562.7574399420555, -72630.9430755309, -29954.958552713222, -57653.664964874384, -187500.02235174447, -42671.51417392662, -29205.72807857133, 0.504, -0.868, 0.106, 192.0, 0.0, 0.0, 0.0, 0.0, 0.0, 0.0, 0.0, 0.0, 0.0, 1.6635924509779055E9, 0.0, 2022-09-19 18:00:50.977
103.0, 4268.490286885534, 7433.273784312461, -72547.43695824587, -29898.699211919215, -57539.89458559687, -187500.02235174447, -42734.054354912565, -29109.928501835886, 0.504, -0.868, 0.106, 192.0, 0.0, 0.0, 0.0, 0.0, 0.0, 0.0, 0.0, 0.0, 0.0, 1.66359245098307E9, 0.0, 2022-09-19 18:00:50.983
104.0, 4137.799637055354, 7390.112565769264, -72498.97837626676, -29837.656597811772, -57471.96763419719, -187500.02235174447, -42724.55486351906, -29047.924762716862, 0.504, -0.868, 0.106, 192.0, 0.0, 0.0, 0.0, 0.0, 0.0, 0.0, 0.0, 0.0, 0.0, 1.663592450987003E9, 0.0, 2022-09-19 18:00:50.987
105.0, 4207.805300689376, 7444.7178774735785, -72505.72860309227, -29835.71199604416, -57502.63422758988, -187500.02235174447, -42635.4608101202, -29074.724504318776, 0.5, -0.87, 0.11, 192.0, 15.0, 160.0, 228.0, 208.0, 3.0, 112.0, 0.0, 0.0, 0.0, 1.6635924509900749E9, 0.0, 2022-09-19 18:00:50.990
106.0, 4378.550276583466, 7531.956736082642, -72570.66042073494, -29885.19875826821, -57600.37840609293, -187500.02235174447, -42584.61059148438, -29156.39777855847, 0.5, -0.87, 0.11, 192.0, 0.0, 0.0, 0.0, 0.0, 0.0, 0.0, 0.0, 0.0, 0.0, 1.6635924509949715E9, 0.0, 2022-09-19 18:00:50.994
107.0, 4496.031045440561, 7570.669957479234, -72630.02665400824, -29944.855564219426, -57665.86901734699, -187500.02235174447, -42647.933083526266, -29209.840799551108, 0.5, -0.87, 0.11, 192.0, 0.0, 0.0, 0.0, 0.0, 0.0, 0.0, 0.0, 0.0, 0.0, 1.6635924509979804E9, 0.0, 2022-09-19 18:00:50.997
108.0, 4252.821714022364, 7434.659592468691, -72520.2125334993, -29873.218223240165, -57539.69341989678, -187500.02235174447, -42635.885493264854, -29091.957699293816, 0.5, -0.87, 0.11, 192.0, 0.0, 0.0, 0.0, 0.0, 0.0, 0.0, 0.0, 0.0, 0.0, 1.6635924510010877E9, 0.0, 2022-09-19 18:00:51.001
109.0, 4096.225392368483, 7372.36528067175, -72462.76855024917, -29813.874341711326, -57477.2649976331, -187500.02235174447, -42583.671818217255, -29028.456393296292, 0.5, -0.87, 0.11, 192.0, 0.0, 0.0, 0.0, 0.0, 0.0, 0.0, 0.0, 0.0, 0.0, 1.6635924510060802E9, 0.0, 2022-09-19 18:00:51.006
110.0, 4173.2048002725605, 7424.400141763705, -72509.52839964967, -29847.446661883198, -57510.792614316066, -187500.02235174447, -42629.44819086173, -29073.651620584922, 0.5, -0.87, 0.11, 192.0, 0.0, 0.0, 0.0, 0.0, 0.0, 0.0, 0.0, 0.0, 0.0, 1.6635924510100818E9, 0.0, 2022-09-19 18:00:51.010
111.0, 4418.246974736092, 7542.7302769101, -72639.72731110183, -29970.917698254314, -57613.610638810474, -187500.02235174447, -42748.247712641685, -29204.476380881835, 0.5, -0.87, 0.11, 192.0, 0.0, 0.0, 0.0, 0.0, 0.0, 0.0, 0.0, 0.0, 0.0, 1.6635924510140448E9, 0.0, 2022-09-19 18:00:51.014
112.0, 4553.720897879708, 7590.965341444653, -72680.69805868842, -30024.628940180417, -57660.63870914444, -187500.02235174447, -42769.68303557432, -29249.13516630354, 0.5, -0.87, 0.11, 192.0, 0.0, 0.0, 0.0, 0.0, 0.0, 0.0, 0.0, 0.0, 0.0, 1.6635924510180085E9, 0.0, 2022-09-19 18:00:51.018
113.0, 4288.472746428579, 7433.13967384573, -72529.2649900037, -29891.524301949063, -57521.901431310354, -187500.02235174447, -42654.45979290722, -29097.076248774083, 0.5, -0.87, 0.11, 192.0, 0.0, 0.0, 0.0, 0.0, 0.0, 0.0, 0.0, 0.0, 0.0, 1.663592451021986E9, 0.0, 2022-09-19 18:00:51.021
114.0, 4135.475055632002, 7356.540245597393, -72462.83560548254, -29798.51869327053, -57460.56824452499, -187500.02235174447, -42562.37060575135, -29018.867494924965, 0.5, -0.87, 0.11, 192.0, 0.0, 0.0, 0.0, 0.0, 0.0, 0.0, 0.0, 0.0, 0.0, 1.6635924510250554E9, 0.0, 2022-09-19 18:00:51.025
115.0, 4202.016198875452, 7406.876374110744, -72502.7111175908, -29801.55853051645, -57494.922875752796, -187500.02235174447, -42588.231574086145, -29035.899524199907, 0.498, -0.87, 0.106, 192.0, 15.0, 144.0, 228.0, 208.0, 3.0, 80.0, 0.0, 0.0, 0.0, 1.6635924510290208E9, 0.0, 2022-09-19 18:00:51.029
116.0, 4431.143931286804, 7506.185174725673, -72624.70693882788, -29878.448531442707, -57591.48241179972, -187500.02235174447, -42706.33819178798, -29140.282170806193, 0.498, -0.87, 0.106, 192.0, 0.0, 0.0, 0.0, 0.0, 0.0, 0.0, 0.0, 0.0, 0.0, 1.6635924510340073E9, 0.0, 2022-09-19 18:00:51.034
117.0, 4551.932758323283, 7527.307573235938, -72688.38705878104, -29948.45419507673, -57641.48326414624, -187500.02235174447, -42828.781047914155, -29192.853473765073, 0.498, -0.87, 0.106, 192.0, 0.0, 0.0, 0.0, 0.0, 0.0, 0.0, 0.0, 0.0, 0.0, 1.663592451038181E9, 0.0, 2022-09-19 18:00:51.038
118.0, 4289.635037140255, 7377.617940618747, -72535.38936798446, -29889.44558971472, -57525.745931356665, -187500.02235174447, -42688.076816568, -29090.99657428224, 0.498, -0.87, 0.106, 192.0, 0.0, 0.0, 0.0, 0.0, 0.0, 0.0, 0.0, 0.0, 0.0, 1.663592451042074E9, 0.0, 2022-09-19 18:00:51.042
119.0, 4150.1377999946835, 7328.891137706178, -72448.08345414203, -29827.15127791778, -57472.10174466393, -187500.02235174447, -42518.85175929687, -29053.736216275243, 0.498, -0.87, 0.106, 192.0, 0.0, 0.0, 0.0, 0.0, 0.0, 0.0, 0.0, 0.0, 0.0, 1.6635924510460775E9, 0.0, 2022-09-19 18:00:51.046
120.0, 4221.305754340381, 7399.075615295842, -72481.78988478064, -29832.627455309328, -57499.326169410495, -187500.02235174447, -42522.60685236536, -29070.477672872268, 0.498, -0.87, 0.106, 192.0, 0.0, 0.0, 0.0, 0.0, 0.0, 0.0, 0.0, 0.0, 0.0, 1.6635924510490646E9, 0.0, 2022-09-19 18:00:51.049
121.0, 4456.356699032391, 7512.354256195338, -72591.91692971194, -29903.59424395493, -57593.2929031006, -187500.02235174447, -42595.495891034116, -29157.537717525687, 0.498, -0.87, 0.106, 192.0, 0.0, 0.0, 0.0, 0.0, 0.0, 0.0, 0.0, 0.0, 0.0, 1.663592451053066E9, 0.0, 2022-09-19 18:00:51.053
122.0, 4561.298139250057, 7518.769206854011, -72658.3016107442, -29966.82732901899, -57632.699028575305, -187500.02235174447, -42737.22830262522, -29200.989508746807, 0.498, -0.87, 0.106, 192.0, 0.0, 0.0, 0.0, 0.0, 0.0, 0.0, 0.0, 0.0, 0.0, 1.6635924510571513E9, 0.0, 2022-09-19 18:00:51.057
123.0, 4308.835185627364, 7396.058129794375, -72531.29899874915, -29894.273566517066, -57504.86940203541, -187500.02235174447, -42690.848432880455, -29084.626327112477, 0.498, -0.87, 0.106, 192.0, 0.0, 0.0, 0.0, 0.0, 0.0, 0.0, 0.0, 0.0, 0.0, 1.663592451061128E9, 0.0, 2022-09-19 18:00:51.061
124.0, 4190.192126058594, 7367.693766080591, -72470.30108813061, -29819.95401620317, -57460.83646545845, -187500.02235174447, -42587.605725241396, -29028.232875851736, 0.498, -0.87, 0.106, 192.0, 0.0, 0.0, 0.0, 0.0, 0.0, 0.0, 0.0, 0.0, 0.0, 1.6635924510661232E9, 0.0, 2022-09-19 18:00:51.066
125.0, 4266.210408951093, 7421.293249284417, -72517.15034450893, -29830.392280863798, -57499.3708728994, -187500.02235174447, -42601.12853063685, -29066.94609724833, 0.498, -0.872, 0.1, 192.0, 15.0, 144.0, 228.0, 192.0, 3.0, 32.0, 0.0, 0.0, 0.0, 1.6635924510701234E9, 0.0, 2022-09-19 18:00:51.070
126.0, 4507.385731623856, 7530.436817459681, -72626.7409475733, -29906.991709112135, -57604.89345847291, -187500.02235174447, -42674.844583850456, -29166.612525774544, 0.498, -0.872, 0.1, 192.0, 0.0, 0.0, 0.0, 0.0, 0.0, 0.0, 0.0, 0.0, 0.0, 1.6635924510741687E9, 0.0, 2022-09-19 18:00:51.074
127.0, 4576.206752801747, 7526.994648813564, -72643.68356987042, -29947.15779389832, -57629.100397718, -187500.02235174447, -42729.65106125487, -29191.53472084221, 0.498, -0.872, 0.1, 192.0, 0.0, 0.0, 0.0, 0.0, 0.0, 0.0, 0.0, 0.0, 0.0, 1.6635924510771263E9, 0.0, 2022-09-19 18:00:51.077
128.0, 4333.310345805925, 7394.6499698936905, -72507.67320485988, -29877.66622038677, -57494.02880597459, -187500.02235174447, -42667.0214732911, -29078.36783866499, 0.498, -0.872, 0.1, 192.0, 0.0, 0.0, 0.0, 0.0, 0.0, 0.0, 0.0, 0.0, 0.0, 1.6635924510811613E9, 0.0, 2022-09-19 18:00:51.081
129.0, 4250.228911665548, 7383.071766265842, -72460.26515487017, -29820.80338249247, -57444.787912939544, -187500.02235174447, -42585.57171649596, -29036.637131766933, 0.498, -0.872, 0.1, 192.0, 0.0, 0.0, 0.0, 0.0, 0.0, 0.0, 0.0, 0.0, 0.0, 1.6635924510851295E9, 0.0, 2022-09-19 18:00:51.085
130.0, 4340.284090075981, 7440.046362882419, -72496.89966403242, -29804.061925895447, -57477.33205286647, -187500.02235174447, -42577.97212338116, -29053.66916104188, 0.498, -0.872, 0.1, 192.0, 0.0, 0.0, 0.0, 0.0, 0.0, 0.0, 0.0, 0.0, 0.0, 1.6635924510891235E9, 0.0, 2022-09-19 18:00:51.089
131.0, 4569.389470742878, 7544.429009488704, -72606.22204616333, -29873.642906384815, -57589.20253386528, -187500.02235174447, -42634.365574641895, -29162.34334258358, 0.498, -0.872, 0.1, 192.0, 0.0, 0.0, 0.0, 0.0, 0.0, 0.0, 0.0, 0.0, 0.0, 1.6635924510941176E9, 0.0, 2022-09-19 18:00:51.094
132.0, 4586.645017462375, 7523.887756334277, -72626.0927469841, -29915.083040604957, -57598.29969385859, -187500.02235174447, -42709.579194734004, -29186.594985317588, 0.498, -0.872, 0.1, 192.0, 0.0, 0.0, 0.0, 0.0, 0.0, 0.0, 0.0, 0.0, 0.0, 1.6635924510981522E9, 0.0, 2022-09-19 18:00:51.098
133.0, 4310.824490883886, 7389.397309946694, -72508.47786766027, -29841.836374024915, -57467.13965739485, -187500.02235174447, -42680.074892052995, -29070.14239670544, 0.498, -0.872, 0.1, 192.0, 0.0, 0.0, 0.0, 0.0, 0.0, 0.0, 0.0, 0.0, 0.0, 1.663592451102146E9, 0.0, 2022-09-19 18:00:51.102
134.0, 4235.812036491876, 7380.523667397937, -72475.44198935533, -29801.625585749818, -57443.02212512757, -187500.02235174447, -42611.633850530845, -29030.535105530635, 0.498, -0.872, 0.1, 192.0, 0.0, 0.0, 0.0, 0.0, 0.0, 0.0, 0.0, 0.0, 0.0, 1.663592451105147E9, 0.0, 2022-09-19 18:00:51.105
135.0, 4330.270508560003, 7451.691621743635, -72518.64791138744, -29819.886960969805, -57479.254302889625, -187500.02235174447, -42602.89431844882, -29074.523338618677, 0.498, -0.872, 0.1, 192.0, 0.0, 0.0, 0.0, 0.0, 0.0, 0.0, 0.0, 0.0, 0.0, 1.6635924511091864E9, 0.0, 2022-09-19 18:00:51.109
136.0, 4568.294235264568, 7564.232655076105, -72631.16659297545, -29894.362973494884, -57581.51353377265, -187500.02235174447, -42675.82806060649, -29181.96817421534, 0.5, -0.878, 0.098, 192.0, 15.0, 160.0, 228.0, 144.0, 3.0, 16.0, 0.0, 0.0, 0.0, 1.6635924511131883E9, 0.0, 2022-09-19 18:00:51.113
137.0, 4584.633360461397, 7537.8128931299325, -72642.32011345866, -29911.260892303097, -57585.20157160778, -187500.02235174447, -42759.781212780625, -29176.40258984597, 0.5, -0.878, 0.098, 192.0, 0.0, 0.0, 0.0, 0.0, 0.0, 0.0, 0.0, 0.0, 0.0, 1.663592451117172E9, 0.0, 2022-09-19 18:00:51.117
138.0, 4321.553328222433, 7406.697560155101, -72517.19504799784, -29838.05892921197, -57458.86951194639, -187500.02235174447, -42697.33043877249, -29055.613762809488, 0.5, -0.878, 0.098, 192.0, 0.0, 0.0, 0.0, 0.0, 0.0, 0.0, 0.0, 0.0, 0.0, 1.6635924511221569E9, 0.0, 2022-09-19 18:00:51.122
139.0, 4259.706051314599, 7409.759749145478, -72499.09013498905, -29806.073582896424, -57440.116398348386, -187500.02235174447, -42667.60261864694, -29030.98214041974, 0.5, -0.878, 0.098, 192.0, 0.0, 0.0, 0.0, 0.0, 0.0, 0.0, 0.0, 0.0, 0.0, 1.6635924511261995E9, 0.0, 2022-09-19 18:00:51.126
140.0, 4374.750480026064, 7484.8616105153105, -72518.11146952052, -29815.595426034382, -57490.00549197263, -187500.02235174447, -42592.23253634364, -29076.64675434193, 0.5, -0.878, 0.098, 192.0, 0.0, 0.0, 0.0, 0.0, 0.0, 0.0, 0.0, 0.0, 0.0, 1.6635924511302354E9, 0.0, 2022-09-19 18:00:51.130
141.0, 4594.557534999554, 7581.1305738843175, -72607.38433687501, -29870.58071739444, -57598.97024619225, -187500.02235174447, -42586.197565340706, -29178.21308114685, 0.5, -0.878, 0.098, 192.0, 0.0, 0.0, 0.0, 0.0, 0.0, 0.0, 0.0, 0.0, 0.0, 1.6635924511331873E9, 0.0, 2022-09-19 18:00:51.133
142.0, 4575.4691452347215, 7523.865404589821, -72603.69629903988, -29868.345542948908, -57567.72250744373, -187500.02235174447, -42665.72507211269, -29162.455101305855, 0.5, -0.878, 0.098, 192.0, 0.0, 0.0, 0.0, 0.0, 0.0, 0.0, 0.0, 0.0, 0.0, 1.6635924511371887E9, 0.0, 2022-09-19 18:00:51.137
143.0, 4307.047046070939, 7381.46244066506, -72483.73448654824, -29784.32533554141, -57432.047418600014, -187500.02235174447, -42621.04393494653, -29048.37179760597, 0.5, -0.878, 0.098, 192.0, 0.0, 0.0, 0.0, 0.0, 0.0, 0.0, 0.0, 0.0, 0.0, 1.6635924511412404E9, 0.0, 2022-09-19 18:00:51.141
144.0, 4264.064641483384, 7381.8424203208, -72466.99302995122, -29756.966800328115, -57417.27291551506, -187500.02235174447, -42567.91383837627, -29034.75958523269, 0.5, -0.878, 0.098, 192.0, 0.0, 0.0, 0.0, 0.0, 0.0, 0.0, 0.0, 0.0, 0.0, 1.6635924511452136E9, 0.0, 2022-09-19 18:00:51.145
145.0, 4376.918599238229, 7436.268918069472, -72519.65373988793, -29781.46431225113, -57465.79855272753, -187500.02235174447, -42565.3433877639, -29090.884815559963, 0.5, -0.878, 0.098, 192.0, 0.0, 0.0, 0.0, 0.0, 0.0, 0.0, 0.0, 0.0, 0.0, 1.6635924511502154E9, 0.0, 2022-09-19 18:00:51.150
