%OpenBCI Raw EEG Data
%Number of channels = 8
%Sample Rate = 250 Hz
%Board = OpenBCI_GUI$BoardCytonSerial
Sample Index, EXG Channel 0, EXG Channel 1, EXG Channel 2, EXG Channel 3, EXG Channel 4, EXG Channel 5, EXG Channel 6, EXG Channel 7, Accel Channel 0, Accel Channel 1, Accel Channel 2, Other, Other, Other, Other, Other, Other, Other, Analog Channel 0, Analog Channel 1, Analog Channel 2, Timestamp, Other, Timestamp (Formatted)
232.0, -39818.693973862406, -32774.92168842813, -41981.98520922485, -39211.93351887864, -55123.805120444915, 187500.0, -37522.2086932908, -39320.87592135381, 0.0, 0.0, 0.0, 192.0, 0.0, 0.0, 0.0, 0.0, 0.0, 0.0, 0.0, 0.0, 0.0, 1.6635918188509636E9, 0.0, 2022-09-19 17:50:18.850
233.0, -39807.786322568216, -32783.68357225461, -41982.186374924946, -39243.87416170528, -55144.25696662152, 187500.0, -37344.44526963774, -39356.594008993394, 0.0, 0.0, 0.0, 192.0, 0.0, 0.0, 0.0, 0.0, 0.0, 0.0, 0.0, 0.0, 0.0, 1.6635918188510003E9, 0.0, 2022-09-19 17:50:18.851
234.0, -39833.69199439192, -32806.504703343475, -42015.08814276316, -39244.20943787211, -55161.557216829926, 187500.0, -37449.967855211245, -39347.429793766714, 0.776, -0.628, 0.23800000000000002, 192.0, 24.0, 64.0, 236.0, 96.0, 7.0, 112.0, 0.0, 0.0, 0.0, 1.6635918188510177E9, 0.0, 2022-09-19 17:50:18.851
235.0, -39836.59772117111, -32787.68453451211, -42013.72468635139, -39205.49621647551, -55136.590318273345, 187500.0, -37677.55331725518, -39297.8759763093, 0.776, -0.628, 0.23800000000000002, 192.0, 0.0, 0.0, 0.0, 0.0, 0.0, 0.0, 0.0, 0.0, 0.0, 1.6635918188511257E9, 0.0, 2022-09-19 17:50:18.851
0.0, 0.0, 0.0, 0.0, 0.0, 0.0, 0.0, 0.0, 0.0, 0.786, -0.638, 0.202, 192.0, 24.0, 144.0, 236.0, 16.0, 6.0, 80.0, 0.0, 0.0, 0.0, 1.6635918189343028E9, 0.0, 2022-09-19 17:50:18.934
1.0, -39092.50814825394, -32201.957071060788, -41220.77420005491, -38534.00510954918, -54292.47668891868, 187500.0, -37385.147796290854, -39214.03458285744, 0.786, -0.638, 0.202, 192.0, 0.0, 0.0, 0.0, 0.0, 0.0, 0.0, 0.0, 0.0, 0.0, 1.663591818951298E9, 0.0, 2022-09-19 17:50:18.951
2.0, -39082.11458708222, -32165.36726538745, -41214.292194162874, -38492.296754395575, -54258.77025828007, 187500.0, -37555.49044078475, -39169.174631735645, 0.786, -0.638, 0.202, 192.0, 0.0, 0.0, 0.0, 0.0, 0.0, 0.0, 0.0, 0.0, 0.0, 1.663591818956402E9, 0.0, 2022-09-19 17:50:18.956
3.0, -39076.258430034926, -32161.94744848579, -41191.068731673804, -38489.94982122777, -54241.58176679394, 187500.0, -37482.91432653837, -39174.85197482729, 0.786, -0.638, 0.202, 192.0, 0.0, 0.0, 0.0, 0.0, 0.0, 0.0, 0.0, 0.0, 0.0, 1.6635918189603739E9, 0.0, 2022-09-19 17:50:18.960
4.0, -39080.08057833679, -32182.376942917937, -41187.13482464967, -38520.37054543144, -54258.47968560216, 187500.0, -37317.44436233573, -39210.972393867065, 0.786, -0.638, 0.202, 192.0, 0.0, 0.0, 0.0, 0.0, 0.0, 0.0, 0.0, 0.0, 0.0, 1.6635918189633586E9, 0.0, 2022-09-19 17:50:18.963
5.0, -39055.493659435946, -32188.903652298886, -41189.99584793995, -38549.51722020117, -54281.92666553577, 187500.0, -37159.126956358785, -39236.90041743522, 0.786, -0.638, 0.202, 192.0, 0.0, 0.0, 0.0, 0.0, 0.0, 0.0, 0.0, 0.0, 0.0, 1.6635918189663732E9, 0.0, 2022-09-19 17:50:18.966
6.0, -39075.900802123644, -32178.264221938163, -41242.76831659893, -38527.50075191269, -54291.78378484056, 187500.0, -37385.863052113426, -39198.61187918328, 0.786, -0.638, 0.202, 192.0, 0.0, 0.0, 0.0, 0.0, 0.0, 0.0, 0.0, 0.0, 0.0, 1.663591818969428E9, 0.0, 2022-09-19 17:50:18.969
7.0, -39068.92705785359, -32144.423680832828, -41219.477798876505, -38485.18889965879, -54256.37862162336, 187500.0, -37559.04436815314, -39153.23783793901, 0.786, -0.638, 0.202, 192.0, 0.0, 0.0, 0.0, 0.0, 0.0, 0.0, 0.0, 0.0, 0.0, 1.6635918189734316E9, 0.0, 2022-09-19 17:50:18.973
8.0, -39059.695787393546, -32149.452823335272, -41183.20091762554, -38491.35798112846, -54248.823731997465, 187500.0, -37484.7471695837, -39164.905448544676, 0.79, -0.646, 0.186, 192.0, 24.0, 176.0, 235.0, 208.0, 5.0, 208.0, 0.0, 0.0, 0.0, 1.6635918189774165E9, 0.0, 2022-09-19 17:50:18.977
9.0, -39063.58499092877, -32159.108776939964, -41184.81024322632, -38522.918644299345, -54265.2075606832, 187500.0, -37312.81755123348, -39205.18329205314, 0.79, -0.646, 0.186, 192.0, 0.0, 0.0, 0.0, 0.0, 0.0, 0.0, 0.0, 0.0, 0.0, 1.6635918189814105E9, 0.0, 2022-09-19 17:50:18.981
10.0, -39069.70936890953, -32177.906594026877, -41201.506996334436, -38553.67464466985, -54290.84501157344, 187500.0, -37162.03268313798, -39241.97426342658, 0.79, -0.646, 0.186, 192.0, 0.0, 0.0, 0.0, 0.0, 0.0, 0.0, 0.0, 0.0, 0.0, 1.663591818986518E9, 0.0, 2022-09-19 17:50:18.986
11.0, -39089.44595926356, -32190.602384877493, -41237.158028740654, -38526.91960655685, -54290.129755750866, 187500.0, -37385.438368968775, -39196.62257392676, 0.79, -0.646, 0.186, 192.0, 0.0, 0.0, 0.0, 0.0, 0.0, 0.0, 0.0, 0.0, 0.0, 1.6635918189904747E9, 0.0, 2022-09-19 17:50:18.990
12.0, -39086.316715039815, -32165.948410743287, -41226.8315228023, -38494.42017011883, -54257.607967568394, 187500.0, -37553.8140599506, -39161.955018276574, 0.79, -0.646, 0.186, 192.0, 0.0, 0.0, 0.0, 0.0, 0.0, 0.0, 0.0, 0.0, 0.0, 1.6635918189934683E9, 0.0, 2022-09-19 17:50:18.993
13.0, -39058.578200170785, -32144.960122699755, -41202.758694023934, -38495.09072245249, -54243.45931332819, 187500.0, -37461.88133500592, -39170.26986721395, 0.79, -0.646, 0.186, 192.0, 0.0, 0.0, 0.0, 0.0, 0.0, 0.0, 0.0, 0.0, 0.0, 1.6635918189974275E9, 0.0, 2022-09-19 17:50:18.997
14.0, -39057.326502481286, -32152.626771047926, -41188.38652233917, -38520.07997275353, -54249.18135990875, 187500.0, -37295.04791439151, -39202.52343446296, 0.79, -0.646, 0.186, 192.0, 0.0, 0.0, 0.0, 0.0, 0.0, 0.0, 0.0, 0.0, 0.0, 1.6635918190013795E9, 0.0, 2022-09-19 17:50:19.001
15.0, -39079.9241161256, -32180.27587893914, -41204.03274345789, -38553.272313269656, -54277.74688932263, 187500.0, -37159.417529036706, -39241.54958028193, 0.79, -0.646, 0.186, 192.0, 0.0, 0.0, 0.0, 0.0, 0.0, 0.0, 0.0, 0.0, 0.0, 1.6635918190054517E9, 0.0, 2022-09-19 17:50:19.005
16.0, -39101.135921613684, -32217.67034741287, -41248.31154922385, -38538.54251367361, -54292.163764496305, 187500.0, -37393.28383127259, -39214.10163809081, 0.79, -0.646, 0.186, 192.0, 0.0, 0.0, 0.0, 0.0, 0.0, 0.0, 0.0, 0.0, 0.0, 1.6635918190094628E9, 0.0, 2022-09-19 17:50:19.009
17.0, -39100.733590213495, -32205.89097808492, -41239.750831097466, -38509.68641158181, -54262.01126122609, 187500.0, -37566.353388590025, -39180.976352808044, 0.79, -0.646, 0.186, 192.0, 0.0, 0.0, 0.0, 0.0, 0.0, 0.0, 0.0, 0.0, 0.0, 1.6635918190144491E9, 0.0, 2022-09-19 17:50:19.014
18.0, -39054.73370012447, -32122.608378244448, -41196.41079859863, -38499.44931262128, -54242.54289180552, 187500.0, -37472.543117111105, -39179.299971973895, 0.788, -0.638, 0.186, 192.0, 24.0, 160.0, 236.0, 16.0, 5.0, 208.0, 0.0, 0.0, 0.0, 1.6635918190184357E9, 0.0, 2022-09-19 17:50:19.018
19.0, -39048.966950055, -32129.537419025593, -41183.893821703656, -38520.32584194253, -54248.71197327518, 187500.0, -37291.8516149344, -39200.75764665099, 0.788, -0.638, 0.186, 192.0, 0.0, 0.0, 0.0, 0.0, 0.0, 0.0, 0.0, 0.0, 0.0, 1.663591819021492E9, 0.0, 2022-09-19 17:50:19.021
20.0, -39074.47029047851, -32182.04166675111, -41210.179473183096, -38558.03323483864, -54286.32995919347, 187500.0, -37153.78488943397, -39241.99661517103, 0.788, -0.638, 0.186, 192.0, 0.0, 0.0, 0.0, 0.0, 0.0, 0.0, 0.0, 0.0, 0.0, 1.6635918190254793E9, 0.0, 2022-09-19 17:50:19.025
21.0, -39095.68209596659, -32196.257376224683, -41247.95392131256, -38530.697051369796, -54287.827526071975, 187500.0, -37389.707552159736, -39207.44081824313, 0.788, -0.638, 0.186, 192.0, 0.0, 0.0, 0.0, 0.0, 0.0, 0.0, 0.0, 0.0, 0.0, 1.6635918190294905E9, 0.0, 2022-09-19 17:50:19.029
22.0, -39087.233136562485, -32143.64136977689, -41233.671156605626, -38491.469739850734, -54251.34947912091, 187500.0, -37554.752833217724, -39167.341788690304, 0.788, -0.638, 0.186, 192.0, 0.0, 0.0, 0.0, 0.0, 0.0, 0.0, 0.0, 0.0, 0.0, 1.663591819033484E9, 0.0, 2022-09-19 17:50:19.033
23.0, -39061.77449962789, -32205.42159145136, -41213.1299034512, -38507.51829236964, -54244.17456915076, 187500.0, -37468.81037578707, -39183.65856214268, 0.788, -0.638, 0.186, 192.0, 0.0, 0.0, 0.0, 0.0, 0.0, 0.0, 0.0, 0.0, 0.0, 1.6635918190375535E9, 0.0, 2022-09-19 17:50:19.037
24.0, -39040.78621158436, -32270.82279572759, -41201.61875505671, -38532.1946182483, -54253.15997042179, 187500.0, -37284.542594497514, -39212.022925856465, 0.788, -0.638, 0.186, 192.0, 0.0, 0.0, 0.0, 0.0, 0.0, 0.0, 0.0, 0.0, 0.0, 1.6635918190425367E9, 0.0, 2022-09-19 17:50:19.042
25.0, -39063.115604295206, -32112.21481707273, -41211.76644703942, -38546.969121333255, -54277.4116131558, 187500.0, -37145.60415096333, -39239.3144058364, 0.788, -0.638, 0.186, 192.0, 0.0, 0.0, 0.0, 0.0, 0.0, 0.0, 0.0, 0.0, 0.0, 1.6635918190465508E9, 0.0, 2022-09-19 17:50:19.046
26.0, -39102.186453603084, -32108.616186215426, -41252.64778764818, -38526.696089112294, -54287.805174327514, 187500.0, -37396.23426154068, -39211.21826305607, 0.788, -0.638, 0.186, 192.0, 0.0, 0.0, 0.0, 0.0, 0.0, 0.0, 0.0, 0.0, 0.0, 1.6635918190495367E9, 0.0, 2022-09-19 17:50:19.049
27.0, -39072.01159858842, -32110.717250194222, -41229.84900830377, -38485.70298978126, -54243.59342379492, 187500.0, -37551.9141616719, -39165.79951832289, 0.788, -0.638, 0.186, 192.0, 0.0, 0.0, 0.0, 0.0, 0.0, 0.0, 0.0, 0.0, 0.0, 1.6635918190536633E9, 0.0, 2022-09-19 17:50:19.053
28.0, -39054.174906513086, -32114.807619429546, -41199.540042822366, -38484.74186476968, -54223.521557274056, 187500.0, -37457.27687564813, -39166.313608445365, 0.784, -0.638, 0.182, 192.0, 24.0, 128.0, 236.0, 16.0, 5.0, 176.0, 0.0, 0.0, 0.0, 1.6635918190575025E9, 0.0, 2022-09-19 17:50:19.057
29.0, -39060.14282228265, -32134.275988850117, -41191.29224911836, -38511.608661604965, -54235.36798183537, 187500.0, -37274.23844030362, -39201.38349549574, 0.784, -0.638, 0.182, 192.0, 0.0, 0.0, 0.0, 0.0, 0.0, 0.0, 0.0, 0.0, 0.0, 1.6635918190615225E9, 0.0, 2022-09-19 17:50:19.061
30.0, -39074.33618001177, -32162.75211128618, -41210.40299062765, -38542.05173755309, -54264.179380438254, 187500.0, -37138.585703204364, -39233.74882146702, 0.784, -0.638, 0.182, 192.0, 0.0, 0.0, 0.0, 0.0, 0.0, 0.0, 0.0, 0.0, 0.0, 1.6635918190655904E9, 0.0, 2022-09-19 17:50:19.065
31.0, -39101.94058441408, -32178.89007078291, -41241.18134274261, -38512.301565683076, -54262.63711007084, 187500.0, -37390.13223530439, -39191.03463781293, 0.784, -0.638, 0.182, 192.0, 0.0, 0.0, 0.0, 0.0, 0.0, 0.0, 0.0, 0.0, 0.0, 1.6635918190695746E9, 0.0, 2022-09-19 17:50:19.069
32.0, -39091.30115405335, -32163.22149791974, -41222.91996752262, -38476.3823123434, -54225.26499334157, 187500.0, -37551.84710643853, -39151.829678038324, 0.784, -0.638, 0.182, 192.0, 0.0, 0.0, 0.0, 0.0, 0.0, 0.0, 0.0, 0.0, 0.0, 1.6635918190745566E9, 0.0, 2022-09-19 17:50:19.074
33.0, -39076.86192713522, -32154.213744904253, -41208.905423749144, -38478.528079811105, -54216.77133044855, 187500.0, -37459.42264311584, -39163.25141945499, 0.784, -0.638, 0.182, 192.0, 0.0, 0.0, 0.0, 0.0, 0.0, 0.0, 0.0, 0.0, 0.0, 1.6635918190775764E9, 0.0, 2022-09-19 17:50:19.077
34.0, -39049.10106052173, -32150.59276230249, -41197.3272201213, -38496.074199208524, -54219.98998165011, 187500.0, -37265.118928565855, -39191.32521049085, 0.784, -0.638, 0.182, 192.0, 0.0, 0.0, 0.0, 0.0, 0.0, 0.0, 0.0, 0.0, 0.0, 1.6635918190815716E9, 0.0, 2022-09-19 17:50:19.081
35.0, -39064.54611594035, -32173.7938730471, -41182.53036529188, -38528.97596704674, -54251.193016909725, 187500.0, -37124.50410419752, -39227.892664419735, 0.784, -0.638, 0.182, 192.0, 0.0, 0.0, 0.0, 0.0, 0.0, 0.0, 0.0, 0.0, 0.0, 1.663591819085785E9, 0.0, 2022-09-19 17:50:19.085
36.0, -39114.18934037559, -32202.761733861178, -41237.38154618521, -38521.19755997629, -54271.331938663956, 187500.0, -37390.37810449339, -39203.61866994127, 0.784, -0.638, 0.182, 192.0, 0.0, 0.0, 0.0, 0.0, 0.0, 0.0, 0.0, 0.0, 0.0, 1.6635918190895305E9, 0.0, 2022-09-19 17:50:19.089
37.0, -39083.76861617191, -32168.89884101139, -41216.97440349751, -38480.919716467826, -54229.15419687679, 187500.0, -37543.085222612055, -39159.56338161986, 0.784, -0.638, 0.182, 192.0, 0.0, 0.0, 0.0, 0.0, 0.0, 0.0, 0.0, 0.0, 0.0, 1.6635918190936198E9, 0.0, 2022-09-19 17:50:19.093
38.0, -39034.795944070334, -32128.933921925298, -41186.68778976057, -38464.24531510417, -54204.18729832021, 187500.0, -37436.75797423816, -39149.8403727818, 0.784, -0.64, 0.182, 192.0, 24.0, 128.0, 236.0, 0.0, 5.0, 176.0, 0.0, 0.0, 0.0, 1.6635918190976167E9, 0.0, 2022-09-19 17:50:19.097
39.0, -39037.165228982594, -32134.700671994768, -41185.48079555998, -38492.25205090667, -54219.945278161205, 187500.0, -37256.53585869502, -39185.22318425455, 0.784, -0.64, 0.182, 192.0, 0.0, 0.0, 0.0, 0.0, 0.0, 0.0, 0.0, 0.0, 0.0, 1.6635918191026075E9, 0.0, 2022-09-19 17:50:19.102
40.0, -39065.909572352124, -32161.679227552326, -41208.30192664885, -38532.68635662632, -54255.26103440059, 187500.0, -37135.05412758042, -39224.51755100698, 0.784, -0.64, 0.182, 192.0, 0.0, 0.0, 0.0, 0.0, 0.0, 0.0, 0.0, 0.0, 0.0, 1.6635918191056588E9, 0.0, 2022-09-19 17:50:19.105
41.0, -39085.623810961704, -32167.669495066348, -41241.80719158735, -38507.76416155865, -54256.155104178804, 187500.0, -37385.34896199095, -39186.0501987994, 0.784, -0.64, 0.182, 192.0, 0.0, 0.0, 0.0, 0.0, 0.0, 0.0, 0.0, 0.0, 0.0, 1.6635918191096776E9, 0.0, 2022-09-19 17:50:19.109
42.0, -39071.76572939941, -32153.65495129287, -41220.34951691026, -38472.738977997185, -54217.44188278221, 187500.0, -37537.31847254258, -39149.236875681505, 0.784, -0.64, 0.182, 192.0, 0.0, 0.0, 0.0, 0.0, 0.0, 0.0, 0.0, 0.0, 0.0, 1.6635918191136563E9, 0.0, 2022-09-19 17:50:19.113
43.0, -39064.34495024025, -32149.095195423986, -41202.22225215701, -38475.175318142814, -54211.20574607918, 187500.0, -37448.71615752175, -39162.15618397667, 0.784, -0.64, 0.182, 192.0, 0.0, 0.0, 0.0, 0.0, 0.0, 0.0, 0.0, 0.0, 0.0, 1.6635918191176105E9, 0.0, 2022-09-19 17:50:19.117
44.0, -39058.91347633761, -32135.34887258397, -41193.23685088597, -38498.175263187324, -54223.856833440885, 187500.0, -37260.0450825745, -39200.73529490653, 0.784, -0.64, 0.182, 192.0, 0.0, 0.0, 0.0, 0.0, 0.0, 0.0, 0.0, 0.0, 0.0, 1.6635918191215842E9, 0.0, 2022-09-19 17:50:19.121
45.0, -39065.909572352124, -32158.617038561948, -41204.88210974719, -38529.847685080495, -54252.91410123278, 187500.0, -37135.6129211918, -39235.939292423645, 0.784, -0.64, 0.182, 192.0, 0.0, 0.0, 0.0, 0.0, 0.0, 0.0, 0.0, 0.0, 0.0, 1.663591819125664E9, 0.0, 2022-09-19 17:50:19.125
46.0, -39081.1758138151, -32175.8949370259, -41254.36887197124, -38508.85939703696, -54260.80426702551, 187500.0, -37393.14972080585, -39198.20954778309, 0.784, -0.64, 0.182, 192.0, 0.0, 0.0, 0.0, 0.0, 0.0, 0.0, 0.0, 0.0, 0.0, 1.6635918191306558E9, 0.0, 2022-09-19 17:50:19.130
47.0, -39076.90663062414, -32156.78419551661, -41229.312566436834, -38468.46979480622, -54218.403007793786, 187500.0, -37537.85491440951, -39153.12607921673, 0.784, -0.64, 0.182, 192.0, 0.0, 0.0, 0.0, 0.0, 0.0, 0.0, 0.0, 0.0, 0.0, 1.6635918191336565E9, 0.0, 2022-09-19 17:50:19.133
48.0, -39042.551999396324, -32136.98054992921, -41180.38459782417, -38470.72732099621, -54209.238792567114, 187500.0, -37437.67439576083, -39163.63139911072, 0.784, -0.652, 0.178, 192.0, 24.0, 128.0, 235.0, 160.0, 5.0, 144.0, 0.0, 0.0, 0.0, 1.6635918191366603E9, 0.0, 2022-09-19 17:50:19.136
49.0, -39044.60835988622, -32123.904779422854, -41174.6178477547, -38496.94591724228, -54222.35926656238, 187500.0, -37256.871134861845, -39198.56717569437, 0.784, -0.652, 0.178, 192.0, 0.0, 0.0, 0.0, 0.0, 0.0, 0.0, 0.0, 0.0, 0.0, 1.66359181914174E9, 0.0, 2022-09-19 17:50:19.141
50.0, -39080.7734824149, -32158.326465884027, -41200.34470562276, -38530.0935542695, -54258.79261002453, 187500.0, -37142.18433406166, -39234.329966822865, 0.784, -0.652, 0.178, 192.0, 0.0, 0.0, 0.0, 0.0, 0.0, 0.0, 0.0, 0.0, 0.0, 1.6635918191456852E9, 0.0, 2022-09-19 17:50:19.145
51.0, -39104.51103502644, -32166.261335165662, -41235.63811011769, -38499.18109168781, -54259.865493758385, 187500.0, -37394.89315687337, -39188.687704645126, 0.784, -0.652, 0.178, 192.0, 0.0, 0.0, 0.0, 0.0, 0.0, 0.0, 0.0, 0.0, 0.0, 1.6635918191496828E9, 0.0, 2022-09-19 17:50:19.149
52.0, -39075.18554630107, -32155.241925149196, -41221.66826983312, -38471.57668728551, -54227.902499187294, 187500.0, -37541.677062711366, -39160.569210120346, 0.784, -0.652, 0.178, 192.0, 0.0, 0.0, 0.0, 0.0, 0.0, 0.0, 0.0, 0.0, 0.0, 1.6635918191536863E9, 0.0, 2022-09-19 17:50:19.153
53.0, -39035.39944117063, -32145.250695377672, -41197.170757910106, -38472.582515785994, -54213.999714136095, 187500.0, -37445.85513423147, -39165.57600087834, 0.784, -0.652, 0.178, 192.0, 0.0, 0.0, 0.0, 0.0, 0.0, 0.0, 0.0, 0.0, 0.0, 1.6635918191587412E9, 0.0, 2022-09-19 17:50:19.158
54.0, -39035.89117954864, -32107.990337370677, -41175.556621021824, -38489.07810319401, -54210.512842001066, 187500.0, -37254.74771913859, -39187.88304184473, 0.784, -0.652, 0.178, 192.0, 0.0, 0.0, 0.0, 0.0, 0.0, 0.0, 0.0, 0.0, 0.0, 1.663591819161681E9, 0.0, 2022-09-19 17:50:19.161
55.0, -39054.39842395764, -32136.242942362183, -41202.401066112645, -38528.01484203516, -54247.147351163316, 187500.0, -37138.3174822709, -39226.417449285684, 0.784, -0.652, 0.178, 192.0, 0.0, 0.0, 0.0, 0.0, 0.0, 0.0, 0.0, 0.0, 0.0, 1.663591819165698E9, 0.0, 2022-09-19 17:50:19.165
56.0, -39093.13399709869, -32161.053378707576, -41242.70126136557, -38514.00029826168, -54258.88201700235, 187500.0, -37403.2303575552, -39199.23772802803, 0.784, -0.652, 0.178, 192.0, 0.0, 0.0, 0.0, 0.0, 0.0, 0.0, 0.0, 0.0, 0.0, 1.6635918191697085E9, 0.0, 2022-09-19 17:50:19.169
57.0, -39078.8735841362, -32131.906703937853, -41213.86751101822, -38473.364826841935, -54216.547813004, 187500.0, -37539.017205121185, -39157.05998624086, 0.784, -0.652, 0.178, 192.0, 0.0, 0.0, 0.0, 0.0, 0.0, 0.0, 0.0, 0.0, 0.0, 1.6635918191737485E9, 0.0, 2022-09-19 17:50:19.173
58.0, -39061.998017072445, -32124.441221289784, -41194.645010786655, -38478.550431555566, -54209.663475711764, 187500.0, -37444.782250497614, -39170.58279163633, 0.78, -0.658, 0.182, 192.0, 24.0, 96.0, 235.0, 112.0, 5.0, 176.0, 0.0, 0.0, 0.0, 1.6635918191778183E9, 0.0, 2022-09-19 17:50:19.177
59.0, -39052.92320882359, -32132.800773716066, -41188.65474327264, -38505.461931879756, -54224.95206891919, 187500.0, -37258.10048080689, -39206.43498974264, 0.78, -0.658, 0.182, 192.0, 0.0, 0.0, 0.0, 0.0, 0.0, 0.0, 0.0, 0.0, 0.0, 1.6635918191817784E9, 0.0, 2022-09-19 17:50:19.181
60.0, -39060.5675054273, -32153.677303037322, -41204.725647536, -38533.53572291562, -54261.63128157035, 187500.0, -37144.106584084824, -39244.09767914983, 0.78, -0.658, 0.182, 192.0, 0.0, 0.0, 0.0, 0.0, 0.0, 0.0, 0.0, 0.0, 0.0, 1.663591819186721E9, 0.0, 2022-09-19 17:50:19.186
61.0, -39091.39056103117, -32159.26523915115, -41244.37764219972, -38502.69031556729, -54265.16285719429, 187500.0, -37412.21575882623, -39203.43985598563, 0.78, -0.658, 0.182, 192.0, 0.0, 0.0, 0.0, 0.0, 0.0, 0.0, 0.0, 0.0, 0.0, 1.6635918191897268E9, 0.0, 2022-09-19 17:50:19.189
62.0, -39079.20886030303, -32145.474212822228, -41232.15123798266, -38466.927524438805, -54227.38840906482, 187500.0, -37554.95399891782, -39157.618779852244, 0.78, -0.658, 0.182, 192.0, 0.0, 0.0, 0.0, 0.0, 0.0, 0.0, 0.0, 0.0, 0.0, 1.6635918191927617E9, 0.0, 2022-09-19 17:50:19.192
63.0, -39035.69001384855, -32138.366358085437, -41212.34759239526, -38475.71176000974, -54223.58861250742, 187500.0, -37450.996035456184, -39175.321361460854, 0.78, -0.658, 0.182, 192.0, 0.0, 0.0, 0.0, 0.0, 0.0, 0.0, 0.0, 0.0, 0.0, 1.6635918191977584E9, 0.0, 2022-09-19 17:50:19.197
64.0, -39044.49660116394, -32145.31775061104, -41182.32919959178, -38502.086818467, -54240.66534527128, 187500.0, -37256.08882380591, -39210.413600255684, 0.78, -0.658, 0.182, 192.0, 0.0, 0.0, 0.0, 0.0, 0.0, 0.0, 0.0, 0.0, 0.0, 1.663591819201746E9, 0.0, 2022-09-19 17:50:19.201
65.0, -39070.08934856526, -32157.32063738354, -41212.57110983981, -38530.98762404772, -54273.83533404295, 187500.0, -37143.59249396235, -39238.68855699165, 0.78, -0.658, 0.182, 192.0, 0.0, 0.0, 0.0, 0.0, 0.0, 0.0, 0.0, 0.0, 0.0, 1.6635918192057345E9, 0.0, 2022-09-19 17:50:19.205
66.0, -39088.149558085155, -32145.541268055593, -41245.36111895575, -38502.19857718928, -54275.89169453284, 187500.0, -37415.16618909433, -39198.00838208299, 0.78, -0.658, 0.182, 192.0, 0.0, 0.0, 0.0, 0.0, 0.0, 0.0, 0.0, 0.0, 0.0, 1.6635918192097983E9, 0.0, 2022-09-19 17:50:19.209
67.0, -39073.86679337821, -32129.738584725692, -41225.73628732399, -38475.309428609544, -54243.19109239472, 187500.0, -37547.264998825194, -39168.72759684653, 0.78, -0.658, 0.182, 192.0, 0.0, 0.0, 0.0, 0.0, 0.0, 0.0, 0.0, 0.0, 0.0, 1.6635918192138157E9, 0.0, 2022-09-19 17:50:19.213
68.0, -39049.05635703282, -32121.82606718851, -41202.624583557204, -38478.17045189982, -54228.327182331945, 187500.0, -37443.955235952766, -39175.61193413877, 0.77, -0.652, 0.182, 192.0, 24.0, 16.0, 235.0, 160.0, 5.0, 176.0, 0.0, 0.0, 0.0, 1.6635918192177827E9, 0.0, 2022-09-19 17:50:19.217
69.0, -39047.35762445422, -32149.072843679533, -41205.50795859194, -38518.180074474825, -54252.98115646615, 187500.0, -37259.396881985296, -39222.86352191729, 0.77, -0.652, 0.182, 192.0, 0.0, 0.0, 0.0, 0.0, 0.0, 0.0, 0.0, 0.0, 0.0, 1.6635918192208304E9, 0.0, 2022-09-19 17:50:19.220
70.0, -39074.47029047851, -32144.64719827738, -41234.16289498364, -38552.981740591735, -54291.381453440365, 187500.0, -37157.60703773583, -39257.79929850093, 0.77, -0.652, 0.182, 192.0, 0.0, 0.0, 0.0, 0.0, 0.0, 0.0, 0.0, 0.0, 0.0, 1.6635918192258575E9, 0.0, 2022-09-19 17:50:19.225
71.0, -39110.45659905155, -32148.402291345872, -41261.901409852675, -38520.57171113154, -54286.59818012693, 187500.0, -37426.45382004426, -39213.498140990516, 0.77, -0.652, 0.182, 192.0, 0.0, 0.0, 0.0, 0.0, 0.0, 0.0, 0.0, 0.0, 0.0, 1.6635918192299438E9, 0.0, 2022-09-19 17:50:19.229
72.0, -39084.59563071676, -32138.478116807717, -41230.385450170696, -38482.81961474653, -54247.05794418549, 187500.0, -37550.12602211547, -39176.21543123906, 0.77, -0.652, 0.182, 192.0, 0.0, 0.0, 0.0, 0.0, 0.0, 0.0, 0.0, 0.0, 0.0, 1.6635918192337685E9, 0.0, 2022-09-19 17:50:19.233
73.0, -39035.80177257083, -32116.68516596379, -41204.47977834699, -38483.5348705691, -54238.318412103465, 187500.0, -37442.12239290743, -39186.96662032206, 0.77, -0.652, 0.182, 192.0, 0.0, 0.0, 0.0, 0.0, 0.0, 0.0, 0.0, 0.0, 0.0, 1.6635918192379403E9, 0.0, 2022-09-19 17:50:19.237
74.0, -39018.18859794004, -32093.975793597197, -41187.42539732759, -38499.7398852992, -54236.97730743615, 187500.0, -37241.47078293214, -39210.972393867065, 0.77, -0.652, 0.182, 192.0, 0.0, 0.0, 0.0, 0.0, 0.0, 0.0, 0.0, 0.0, 0.0, 1.6635918192418635E9, 0.0, 2022-09-19 17:50:19.241
75.0, -39065.01550257391, -32136.287645851095, -41217.376734897705, -38544.041042809615, -54272.42717414226, 187500.0, -37143.99482536255, -39250.78085074197, 0.77, -0.652, 0.182, 192.0, 0.0, 0.0, 0.0, 0.0, 0.0, 0.0, 0.0, 0.0, 0.0, 1.6635918192459488E9, 0.0, 2022-09-19 17:50:19.245
76.0, -39102.74524721447, -32198.380791947937, -41266.50586921047, -38522.47160941024, -54275.15408696581, 187500.0, -37420.55295950806, -39214.7051351911, 0.77, -0.652, 0.182, 192.0, 0.0, 0.0, 0.0, 0.0, 0.0, 0.0, 0.0, 0.0, 0.0, 1.6635918192489092E9, 0.0, 2022-09-19 17:50:19.248
77.0, -39070.62579043219, -32193.70927735678, -41245.5846364003, -38483.020780446626, -54235.189167879726, 187500.0, -37541.69941445583, -39170.6945503586, 0.77, -0.652, 0.182, 192.0, 0.0, 0.0, 0.0, 0.0, 0.0, 0.0, 0.0, 0.0, 0.0, 1.6635918192529652E9, 0.0, 2022-09-19 17:50:19.252
78.0, -39045.234208730966, -32095.830988386988, -41200.165891667115, -38486.41824560383, -54224.79560670801, 187500.0, -37438.07672716102, -39187.905393589186, 0.774, -0.646, 0.178, 192.0, 24.0, 48.0, 235.0, 208.0, 5.0, 144.0, 0.0, 0.0, 0.0, 1.663591819257858E9, 0.0, 2022-09-19 17:50:19.257
79.0, -39056.72300538099, -32086.286793504572, -41194.645010786655, -38514.045001750594, -54234.58567077943, 187500.0, -37251.059681303464, -39225.67984171866, 0.774, -0.646, 0.178, 192.0, 0.0, 0.0, 0.0, 0.0, 0.0, 0.0, 0.0, 0.0, 0.0, 1.663591819261973E9, 0.0, 2022-09-19 17:50:19.261
80.0, -39062.93679033957, -32108.43737225978, -41211.8782057617, -38525.48909491171, -54258.09970594641, 187500.0, -37151.01327312151, -39241.50487679301, 0.774, -0.646, 0.178, 192.0, 0.0, 0.0, 0.0, 0.0, 0.0, 0.0, 0.0, 0.0, 0.0, 1.6635918192659132E9, 0.0, 2022-09-19 17:50:19.265
81.0, -39073.06213057782, -32124.195352100774, -41237.850932818765, -38487.960515971245, -54252.69058378823, 187500.0, -37421.26821533063, -39194.7003239036, 0.774, -0.646, 0.178, 192.0, 0.0, 0.0, 0.0, 0.0, 0.0, 0.0, 0.0, 0.0, 0.0, 1.6635918192699182E9, 0.0, 2022-09-19 17:50:19.269
82.0, -39051.649159389635, -32119.702651465257, -41215.476836619004, -38461.406643558345, -54221.465196784164, 187500.0, -37546.30387381362, -39167.11827124575, 0.774, -0.646, 0.178, 192.0, 0.0, 0.0, 0.0, 0.0, 0.0, 0.0, 0.0, 0.0, 0.0, 1.6635918192739105E9, 0.0, 2022-09-19 17:50:19.273
83.0, -39038.41692667209, -32101.664793689826, -41200.43411260058, -38472.113129152436, -54221.554603761986, 187500.0, -37449.677282533325, -39180.9987045525, 0.774, -0.646, 0.178, 192.0, 0.0, 0.0, 0.0, 0.0, 0.0, 0.0, 0.0, 0.0, 0.0, 1.6635918192769284E9, 0.0, 2022-09-19 17:50:19.276
84.0, -39053.72787162398, -32108.705593193245, -41197.796606754855, -38508.07708598102, -54238.87720571485, 187500.0, -37261.58735294192, -39220.8071614274, 0.774, -0.646, 0.178, 192.0, 0.0, 0.0, 0.0, 0.0, 0.0, 0.0, 0.0, 0.0, 0.0, 1.6635918192809105E9, 0.0, 2022-09-19 17:50:19.280
85.0, -39066.64717991915, -32170.575221845535, -41218.53902560938, -38530.42883043633, -54268.00152874012, 187500.0, -37158.63521798077, -39244.47765880557, 0.774, -0.646, 0.178, 192.0, 0.0, 0.0, 0.0, 0.0, 0.0, 0.0, 0.0, 0.0, 0.0, 1.6635918192859583E9, 0.0, 2022-09-19 17:50:19.285
86.0, -39080.21468880352, -32182.868681295957, -41245.83050558931, -38499.44931262128, -54260.33488039194, 187500.0, -37423.01165139814, -39200.66823967317, 0.774, -0.646, 0.178, 192.0, 0.0, 0.0, 0.0, 0.0, 0.0, 0.0, 0.0, 0.0, 0.0, 1.6635918192898967E9, 0.0, 2022-09-19 17:50:19.289
87.0, -39074.04560733386, -32094.758104653134, -41219.34368840977, -38461.94308542527, -54218.42535953825, 187500.0, -37549.18724884835, -39162.96084677707, 0.774, -0.646, 0.178, 192.0, 0.0, 0.0, 0.0, 0.0, 0.0, 0.0, 0.0, 0.0, 0.0, 1.663591819294021E9, 0.0, 2022-09-19 17:50:19.294
88.0, -39063.00384557293, -32101.88831113438, -41203.29513589086, -38482.12671066841, -54221.24167933961, 187500.0, -37457.18746867031, -39190.52054769046, 0.774, -0.646, 0.178, 192.0, 0.0, 0.0, 0.0, 0.0, 0.0, 0.0, 0.0, 0.0, 0.0, 1.6635918192979827E9, 0.0, 2022-09-19 17:50:19.297
89.0, -39044.58600814176, -32102.983546612686, -41192.99098169697, -38505.19371094629, -54222.4486735402, 187500.0, -37248.44452720219, -39220.02485037147, 0.776, -0.642, 0.182, 192.0, 24.0, 64.0, 235.0, 240.0, 5.0, 176.0, 0.0, 0.0, 0.0, 1.6635918193009863E9, 0.0, 2022-09-19 17:50:19.300
90.0, -39047.9164180656, -32123.010709644645, -41224.03755474539, -38527.321937957044, -54245.605080795896, 187500.0, -37149.71687194311, -39241.41546981519, 0.776, -0.642, 0.182, 192.0, 0.0, 0.0, 0.0, 0.0, 0.0, 0.0, 0.0, 0.0, 0.0, 1.6635918193049674E9, 0.0, 2022-09-19 17:50:19.304
91.0, -39074.023255589396, -32144.60249478847, -41228.37379316972, -38493.54845208507, -54238.56428129248, 187500.0, -37431.19238986878, -39200.64588792872, 0.776, -0.642, 0.182, 192.0, 0.0, 0.0, 0.0, 0.0, 0.0, 0.0, 0.0, 0.0, 0.0, 1.6635918193090224E9, 0.0, 2022-09-19 17:50:19.309
92.0, -39072.65979917763, -32162.79681477509, -41215.18626394108, -38472.22488787471, -54212.50214725759, 187500.0, -37553.59054250605, -39180.55166966339, 0.776, -0.642, 0.182, 192.0, 0.0, 0.0, 0.0, 0.0, 0.0, 0.0, 0.0, 0.0, 0.0, 1.663591819314025E9, 0.0, 2022-09-19 17:50:19.314
93.0, -39040.36152843971, -32169.345875900493, -41197.75190326595, -38481.52321356812, -54212.3456850464, 187500.0, -37451.0407389451, -39192.19692852461, 0.776, -0.642, 0.182, 192.0, 0.0, 0.0, 0.0, 0.0, 0.0, 0.0, 0.0, 0.0, 0.0, 1.663591819317944E9, 0.0, 2022-09-19 17:50:19.317
94.0, -39021.34019390824, -32096.993279098664, -41178.59645826775, -38496.67769630882, -54218.98415314963, 187500.0, -37243.28127423302, -39215.66626020268, 0.776, -0.642, 0.182, 192.0, 0.0, 0.0, 0.0, 0.0, 0.0, 0.0, 0.0, 0.0, 0.0, 1.6635918193219614E9, 0.0, 2022-09-19 17:50:19.321
95.0, -39045.72594710898, -32127.54811376907, -41197.75190326595, -38513.39680116139, -54244.84512148442, 187500.0, -37156.95883714662, -39230.19489409863, 0.776, -0.642, 0.182, 192.0, 0.0, 0.0, 0.0, 0.0, 0.0, 0.0, 0.0, 0.0, 0.0, 1.6635918193260565E9, 0.0, 2022-09-19 17:50:19.326
96.0, -39089.66947670811, -32204.259300739683, -41231.0336507599, -38485.725341525715, -54250.50011283161, 187500.0, -37442.94940745227, -39189.13473953423, 0.776, -0.642, 0.182, 192.0, 0.0, 0.0, 0.0, 0.0, 0.0, 0.0, 0.0, 0.0, 0.0, 1.6635918193289733E9, 0.0, 2022-09-19 17:50:19.328
97.0, -39091.569374986815, -32260.250420600227, -41209.06188596033, -38462.591286014474, -54219.16296710527, 187500.0, -37550.19307734884, -39162.20088746559, 0.776, -0.642, 0.182, 192.0, 0.0, 0.0, 0.0, 0.0, 0.0, 0.0, 0.0, 0.0, 0.0, 1.6635918193330472E9, 0.0, 2022-09-19 17:50:19.333
98.0, -39069.35174099824, -32106.537473981083, -41189.66057177312, -38467.10633839445, -54216.59251649291, 187500.0, -37441.60830278496, -39178.115329517765, 0.776, -0.642, 0.182, 192.0, 0.0, 0.0, 0.0, 0.0, 0.0, 0.0, 0.0, 0.0, 0.0, 1.6635918193370216E9, 0.0, 2022-09-19 17:50:19.337
99.0, -39032.78428706936, -31989.570795246458, -41174.97547566599, -38486.59705955948, -54231.07644689995, 187500.0, -37238.699166619685, -39208.62546069926, 0.78, -0.652, 0.176, 192.0, 24.0, 96.0, 235.0, 160.0, 5.0, 128.0, 0.0, 0.0, 0.0, 1.663591819341069E9, 0.0, 2022-09-19 17:50:19.341
100.0, -39027.35281316672, -32047.305351174517, -41196.34374336526, -38513.217987205746, -54266.146333950324, 187500.0, -37148.219305064595, -39236.87806569077, 0.78, -0.652, 0.176, 192.0, 0.0, 0.0, 0.0, 0.0, 0.0, 0.0, 0.0, 0.0, 0.0, 1.66359181934598E9, 0.0, 2022-09-19 17:50:19.345
101.0, -39097.76080820093, -32175.827881792535, -41244.64586313318, -38507.115960969444, -54283.1113079919, 187500.0, -37442.12239290743, -39216.649736958716, 0.78, -0.652, 0.176, 192.0, 0.0, 0.0, 0.0, 0.0, 0.0, 0.0, 0.0, 0.0, 0.0, 1.6635918193500075E9, 0.0, 2022-09-19 17:50:19.350
102.0, -39071.65397067714, -32197.933757058832, -41225.02103150142, -38482.41728334633, -54250.20954015369, 187500.0, -37552.89763842793, -39189.82764361234, 0.78, -0.652, 0.176, 192.0, 0.0, 0.0, 0.0, 0.0, 0.0, 0.0, 0.0, 0.0, 0.0, 1.6635918193540092E9, 0.0, 2022-09-19 17:50:19.354
103.0, -39044.40719418612, -32037.694101058736, -41200.657630045134, -38471.46492856323, -54232.05992365598, 187500.0, -37438.99314868369, -39187.771283122456, 0.78, -0.652, 0.176, 192.0, 0.0, 0.0, 0.0, 0.0, 0.0, 0.0, 0.0, 0.0, 0.0, 1.6635918193570597E9, 0.0, 2022-09-19 17:50:19.357
104.0, -39047.379976198674, -32054.994351267145, -41181.83746121376, -38497.81763527604, -54233.289269601024, 187500.0, -37236.19577124069, -39219.086077104344, 0.78, -0.652, 0.176, 192.0, 0.0, 0.0, 0.0, 0.0, 0.0, 0.0, 0.0, 0.0, 0.0, 1.6635918193610609E9, 0.0, 2022-09-19 17:50:19.361
105.0, -39063.339121739766, -32097.663831432325, -41195.695542776055, -38518.76121983066, -54252.19884541021, 187500.0, -37154.656607467725, -39230.7089842211, 0.78, -0.652, 0.176, 192.0, 0.0, 0.0, 0.0, 0.0, 0.0, 0.0, 0.0, 0.0, 0.0, 1.6635918193651075E9, 0.0, 2022-09-19 17:50:19.365
106.0, -39086.607287717736, -32120.84259043248, -41226.27272919092, -38484.02660894711, -54238.54192954802, 187500.0, -37437.07089866053, -39182.742140620016, 0.78, -0.652, 0.176, 192.0, 0.0, 0.0, 0.0, 0.0, 0.0, 0.0, 0.0, 0.0, 0.0, 1.6635918193690248E9, 0.0, 2022-09-19 17:50:19.369
107.0, -39092.061113364834, -32123.54715151157, -41213.28636566238, -38469.028588417605, -54208.25531581108, 187500.0, -37546.10270811352, -39167.073567756845, 0.78, -0.652, 0.176, 192.0, 0.0, 0.0, 0.0, 0.0, 0.0, 0.0, 0.0, 0.0, 0.0, 1.6635918193740478E9, 0.0, 2022-09-19 17:50:19.374
108.0, -39065.88722060767, -32123.234227089197, -41198.78008351089, -38483.19959440227, -54205.37194077634, 187500.0, -37437.026195171624, -39184.66439064317, 0.78, -0.652, 0.176, 192.0, 0.0, 0.0, 0.0, 0.0, 0.0, 0.0, 0.0, 0.0, 0.0, 1.663591819378014E9, 0.0, 2022-09-19 17:50:19.378
109.0, -39048.989301799455, -32128.64334924738, -41191.04637992935, -38510.37931565992, -54217.553641504484, 187500.0, -37229.043213014986, -39220.67305096067, 0.77, -0.642, 0.176, 192.0, 24.0, 16.0, 235.0, 240.0, 5.0, 128.0, 0.0, 0.0, 0.0, 1.6635918193820395E9, 0.0, 2022-09-19 17:50:19.382
110.0, -39064.1214327957, -32147.999959945675, -41207.07258070381, -38528.97596704674, -54239.81597898198, 187500.0, -37147.07936609738, -39238.97912966956, 0.77, -0.642, 0.176, 192.0, 0.0, 0.0, 0.0, 0.0, 0.0, 0.0, 0.0, 0.0, 0.0, 1.6635918193850334E9, 0.0, 2022-09-19 17:50:19.385
111.0, -39109.78604671789, -32176.967820759754, -41249.27267423543, -38518.090667497, -54251.41653435428, 187500.0, -37445.341044108995, -39209.921861877665, 0.77, -0.642, 0.176, 192.0, 0.0, 0.0, 0.0, 0.0, 0.0, 0.0, 0.0, 0.0, 0.0, 1.6635918193890774E9, 0.0, 2022-09-19 17:50:19.389
112.0, -39121.297195112376, -32185.975573775242, -41229.87136004822, -38494.688391052296, -54220.61583049486, 187500.0, -37558.99966466423, -39178.76353010697, 0.77, -0.642, 0.176, 192.0, 0.0, 0.0, 0.0, 0.0, 0.0, 0.0, 0.0, 0.0, 0.0, 1.663591819393078E9, 0.0, 2022-09-19 17:50:19.393
113.0, -39085.22147956151, -32178.778312060633, -41207.25139465945, -38490.910946239346, -54212.23392632412, 187500.0, -37446.16805865384, -39184.91025983218, 0.77, -0.642, 0.176, 192.0, 0.0, 0.0, 0.0, 0.0, 0.0, 0.0, 0.0, 0.0, 0.0, 1.663591819397154E9, 0.0, 2022-09-19 17:50:19.397
114.0, -39044.00486278592, -32148.201125645774, -41215.54389185237, -38521.55518788758, -54235.25622311309, 187500.0, -37233.89354156179, -39231.06661213239, 0.77, -0.642, 0.176, 192.0, 0.0, 0.0, 0.0, 0.0, 0.0, 0.0, 0.0, 0.0, 0.0, 1.663591819402104E9, 0.0, 2022-09-19 17:50:19.402
115.0, -39074.69380792306, -32144.088404665996, -41223.92579602311, -38544.733946887725, -54272.74009856464, 187500.0, -37163.954933161134, -39256.10056592233, 0.77, -0.642, 0.176, 192.0, 0.0, 0.0, 0.0, 0.0, 0.0, 0.0, 0.0, 0.0, 0.0, 1.663591819406093E9, 0.0, 2022-09-19 17:50:19.406
116.0, -39108.10966588374, -32166.998942732687, -41236.39806942917, -38507.898272025384, -54265.76635429458, 187500.0, -37447.6879772768, -39201.51760596247, 0.77, -0.642, 0.176, 192.0, 0.0, 0.0, 0.0, 0.0, 0.0, 0.0, 0.0, 0.0, 0.0, 1.663591819409099E9, 0.0, 2022-09-19 17:50:19.409
117.0, -39094.89978491065, -32163.668532808846, -41220.43892388808, -38482.81961474653, -54233.35632483439, 187500.0, -37541.76646968919, -39175.61193413877, 0.77, -0.642, 0.176, 192.0, 0.0, 0.0, 0.0, 0.0, 0.0, 0.0, 0.0, 0.0, 0.0, 1.6635918194132185E9, 0.0, 2022-09-19 17:50:19.413
118.0, -39073.71033116702, -32154.68313153781, -41209.330106893794, -38485.83710024799, -54227.52251953155, 187500.0, -37441.36243359595, -39190.341733734815, 0.77, -0.642, 0.176, 192.0, 0.0, 0.0, 0.0, 0.0, 0.0, 0.0, 0.0, 0.0, 0.0, 1.663591819417158E9, 0.0, 2022-09-19 17:50:19.417
119.0, -39081.48873823747, -32172.810396291068, -41229.11140073674, -38520.92933904283, -54240.710048760186, 187500.0, -37246.388166712306, -39237.8615424468, 0.776, -0.646, 0.18, 192.0, 24.0, 64.0, 235.0, 208.0, 5.0, 160.0, 0.0, 0.0, 0.0, 1.663591819421156E9, 0.0, 2022-09-19 17:50:19.421
120.0, -39107.32735482781, -32205.13101877344, -41295.07139862435, -38554.814583637075, -54281.70314809122, 187500.0, -37184.07150317091, -39261.040301446956, 0.776, -0.646, 0.18, 192.0, 0.0, 0.0, 0.0, 0.0, 0.0, 0.0, 0.0, 0.0, 0.0, 1.6635918194251535E9, 0.0, 2022-09-19 17:50:19.425
121.0, -39106.20976760504, -32191.809379078077, -41212.414647628626, -38500.701010310775, -54251.684755287744, 187500.0, -37457.12041343694, -39197.56134719388, 0.776, -0.646, 0.18, 192.0, 0.0, 0.0, 0.0, 0.0, 0.0, 0.0, 0.0, 0.0, 0.0, 1.6635918194302173E9, 0.0, 2022-09-19 17:50:19.430
122.0, -39081.80166265985, -32178.666553338357, -41190.666400273614, -38475.465890820735, -54209.663475711764, 187500.0, -37547.846144181036, -39174.203774238085, 0.776, -0.646, 0.18, 192.0, 0.0, 0.0, 0.0, 0.0, 0.0, 0.0, 0.0, 0.0, 0.0, 1.663591819434189E9, 0.0, 2022-09-19 17:50:19.434
123.0, -39099.392485546174, -32196.257376224683, -41228.709069336546, -38503.986716745705, -54226.226118353145, 187500.0, -37443.8881807194, -39206.211472298084, 0.776, -0.646, 0.18, 192.0, 0.0, 0.0, 0.0, 0.0, 0.0, 0.0, 0.0, 0.0, 0.0, 1.6635918194371903E9, 0.0, 2022-09-19 17:50:19.437
124.0, -39094.81037793284, -32201.42062919386, -41275.044235592395, -38541.49294394171, -54249.06960118647, 187500.0, -37238.9897392976, -39254.33477811036, 0.776, -0.646, 0.18, 192.0, 0.0, 0.0, 0.0, 0.0, 0.0, 0.0, 0.0, 0.0, 0.0, 1.6635918194412076E9, 0.0, 2022-09-19 17:50:19.441
125.0, -39095.346819799764, -32210.853065354, -41234.96755778403, -38544.331615487536, -54256.26686290108, 187500.0, -37164.513726772515, -39255.072385677384, 0.776, -0.646, 0.18, 192.0, 0.0, 0.0, 0.0, 0.0, 0.0, 0.0, 0.0, 0.0, 0.0, 1.6635918194451833E9, 0.0, 2022-09-19 17:50:19.445
126.0, -39117.81032297735, -32227.23689403974, -41219.07546747631, -38507.31712666954, -54240.66534527128, 187500.0, -37449.386709855404, -39192.53220469144, 0.776, -0.646, 0.18, 192.0, 0.0, 0.0, 0.0, 0.0, 0.0, 0.0, 0.0, 0.0, 0.0, 1.6635918194492612E9, 0.0, 2022-09-19 17:50:19.449
127.0, -39097.78315994539, -32223.034766082143, -41259.01803481794, -38501.595080088984, -54232.7528277341, 187500.0, -37541.00651037771, -39197.51664370497, 0.776, -0.646, 0.18, 192.0, 0.0, 0.0, 0.0, 0.0, 0.0, 0.0, 0.0, 0.0, 0.0, 1.663591819453196E9, 0.0, 2022-09-19 17:50:19.453
128.0, -39104.421628048614, -32201.62179489396, -41349.34143416183, -38539.86126659647, -54261.92185424827, 187500.0, -37452.337140123505, -39243.114202393794, 0.776, -0.646, 0.18, 192.0, 0.0, 0.0, 0.0, 0.0, 0.0, 0.0, 0.0, 0.0, 0.0, 1.6635918194571722E9, 0.0, 2022-09-19 17:50:19.457
129.0, -39078.60536320274, -32200.19128324882, -41275.44656699259, -38543.415193964865, -54258.56909257998, 187500.0, -37245.404689956275, -39254.312426365905, 0.788, -0.648, 0.18, 192.0, 24.0, 160.0, 235.0, 192.0, 5.0, 160.0, 0.0, 0.0, 0.0, 1.6635918194621744E9, 0.0, 2022-09-19 17:50:19.462
130.0, -39087.63546796268, -32285.731409279277, -41221.40004889966, -38546.05269981059, -54254.21050241119, 187500.0, -37174.34849433285, -39258.939237468156, 0.788, -0.648, 0.18, 192.0, 0.0, 0.0, 0.0, 0.0, 0.0, 0.0, 0.0, 0.0, 0.0, 1.663591819465302E9, 0.0, 2022-09-19 17:50:19.465
131.0, -39112.803532219354, -32221.313681759082, -41170.84040294176, -38506.37835340242, -54244.062810428484, 187500.0, -37451.51012557866, -39198.500120461, 0.788, -0.648, 0.18, 192.0, 0.0, 0.0, 0.0, 0.0, 0.0, 0.0, 0.0, 0.0, 0.0, 1.663591819469192E9, 0.0, 2022-09-19 17:50:19.469
132.0, -39078.11362482472, -32076.899060833344, -41164.738376705456, -38471.24141111868, -54208.50118500009, 187500.0, -37542.593484234036, -39167.0959195013, 0.788, -0.648, 0.18, 192.0, 0.0, 0.0, 0.0, 0.0, 0.0, 0.0, 0.0, 0.0, 0.0, 1.6635918194732976E9, 0.0, 2022-09-19 17:50:19.473
133.0, -39053.124374523686, -32098.759066910636, -41167.040606384355, -38478.326914111014, -54199.76165291806, 187500.0, -37426.72204097772, -39183.41269295367, 0.788, -0.648, 0.18, 192.0, 0.0, 0.0, 0.0, 0.0, 0.0, 0.0, 0.0, 0.0, 0.0, 1.6635918194772668E9, 0.0, 2022-09-19 17:50:19.477
134.0, -39057.12533678119, -32133.158401627352, -41170.326312819285, -38506.04307723559, -54210.46813851215, 187500.0, -37223.1870559677, -39214.258100301995, 0.788, -0.648, 0.18, 192.0, 0.0, 0.0, 0.0, 0.0, 0.0, 0.0, 0.0, 0.0, 0.0, 1.6635918194812136E9, 0.0, 2022-09-19 17:50:19.481
135.0, -39083.254526049444, -32170.195242189795, -41218.33785990928, -38532.10521127048, -54242.252319127605, 187500.0, -37173.09679664335, -39238.28622559145, 0.788, -0.648, 0.18, 192.0, 0.0, 0.0, 0.0, 0.0, 0.0, 0.0, 0.0, 0.0, 0.0, 1.6635918194853008E9, 0.0, 2022-09-19 17:50:19.485
136.0, -39115.0834101538, -32187.964879031766, -41239.41555493064, -38503.87495802343, -54235.949127191205, 187500.0, -37484.43424516133, -39199.88592861723, 0.788, -0.648, 0.18, 192.0, 0.0, 0.0, 0.0, 0.0, 0.0, 0.0, 0.0, 0.0, 0.0, 1.6635918194902809E9, 0.0, 2022-09-19 17:50:19.490
137.0, -39106.36622981623, -32172.7433410577, -41231.23481646, -38475.84587047647, -54200.00752210707, 187500.0, -37564.38643507796, -39176.52835566144, 0.788, -0.648, 0.18, 192.0, 0.0, 0.0, 0.0, 0.0, 0.0, 0.0, 0.0, 0.0, 0.0, 1.6635918194932315E9, 0.0, 2022-09-19 17:50:19.493
138.0, -39070.379921243184, -32164.428492120325, -41195.986115453976, -38484.80892000305, -54191.51385921406, 187500.0, -37436.2885876046, -39196.913146604675, 0.788, -0.648, 0.18, 192.0, 0.0, 0.0, 0.0, 0.0, 0.0, 0.0, 0.0, 0.0, 0.0, 1.6635918194972506E9, 0.0, 2022-09-19 17:50:19.497
139.0, -39073.39740674465, -32174.442073636303, -41211.230005172496, -38522.53866464361, -54211.764539690565, 187500.0, -37230.853704315865, -39242.55540878241, 0.788, -0.638, 0.182, 192.0, 24.0, 160.0, 236.0, 16.0, 5.0, 176.0, 0.0, 0.0, 0.0, 1.663591819501278E9, 0.0, 2022-09-19 17:50:19.501
140.0, -39085.35559002824, -32192.18935873382, -41221.73532506649, -38538.72132762925, -54236.083237657935, 187500.0, -37173.43207281018, -39258.53690606796, 0.788, -0.638, 0.182, 192.0, 0.0, 0.0, 0.0, 0.0, 0.0, 0.0, 0.0, 0.0, 0.0, 1.6635918195052912E9, 0.0, 2022-09-19 17:50:19.505
141.0, -39124.135866658195, -32198.537254159124, -41247.0374997899, -38507.38418190291, -54229.26595559907, 187500.0, -37462.88716350641, -39217.49910324802, 0.788, -0.638, 0.182, 192.0, 0.0, 0.0, 0.0, 0.0, 0.0, 0.0, 0.0, 0.0, 0.0, 1.6635918195093076E9, 0.0, 2022-09-19 17:50:19.509
142.0, -39104.06400013733, -32175.47025388125, -41229.1337524812, -38484.31718162503, -54198.15232731728, 187500.0, -37541.76646968919, -39184.530280176434, 0.788, -0.638, 0.182, 192.0, 0.0, 0.0, 0.0, 0.0, 0.0, 0.0, 0.0, 0.0, 0.0, 1.6635918195133388E9, 0.0, 2022-09-19 17:50:19.513
143.0, -39052.52087742339, -32165.546079343094, -41222.02589774441, -38494.889556752394, -54197.68294068372, 187500.0, -37427.6831659893, -39205.83149264235, 0.788, -0.638, 0.182, 192.0, 0.0, 0.0, 0.0, 0.0, 0.0, 0.0, 0.0, 0.0, 0.0, 1.6635918195182896E9, 0.0, 2022-09-19 17:50:19.518
144.0, -39045.88240932017, -32167.110701454963, -41195.136749164674, -38513.30739418357, -54200.655722696276, 187500.0, -37230.22785547112, -39224.33873705134, 0.788, -0.638, 0.182, 192.0, 0.0, 0.0, 0.0, 0.0, 0.0, 0.0, 0.0, 0.0, 0.0, 1.6635918195213003E9, 0.0, 2022-09-19 17:50:19.521
145.0, -39071.18458404358, -32177.101931226487, -41226.13861872419, -38529.19948449129, -54227.54487127601, 187500.0, -37187.89365147277, -39244.05297566092, 0.788, -0.638, 0.182, 192.0, 0.0, 0.0, 0.0, 0.0, 0.0, 0.0, 0.0, 0.0, 0.0, 1.663591819525388E9, 0.0, 2022-09-19 17:50:19.525
146.0, -39101.560604758335, -32182.42164640685, -41270.55153495688, -38501.460969622254, -54228.70716198769, 187500.0, -37484.925983539346, -39206.367934509275, 0.788, -0.638, 0.182, 192.0, 0.0, 0.0, 0.0, 0.0, 0.0, 0.0, 0.0, 0.0, 0.0, 1.6635918195293553E9, 0.0, 2022-09-19 17:50:19.529
147.0, -39095.86090992224, -32161.27689615213, -41228.977290270006, -38478.84100423348, -54198.71112092867, 187500.0, -37565.19109787835, -39182.65273364219, 0.788, -0.638, 0.182, 192.0, 0.0, 0.0, 0.0, 0.0, 0.0, 0.0, 0.0, 0.0, 0.0, 1.6635918195333297E9, 0.0, 2022-09-19 17:50:19.533
148.0, -39066.200145030045, -32163.93675374231, -41195.561432309325, -38494.91190849685, -54202.77913841953, 187500.0, -37456.06988144754, -39210.36889676677, 0.788, -0.638, 0.182, 192.0, 0.0, 0.0, 0.0, 0.0, 0.0, 0.0, 0.0, 0.0, 0.0, 1.6635918195373003E9, 0.0, 2022-09-19 17:50:19.537
149.0, -39067.40713923063, -32175.358495158973, -41201.90932773463, -38520.50465589818, -54215.40787403678, 187500.0, -37243.97417831113, -39242.0636704044, 0.794, -0.642, 0.182, 192.0, 24.0, 208.0, 235.0, 240.0, 5.0, 176.0, 0.0, 0.0, 0.0, 1.6635918195414624E9, 0.0, 2022-09-19 17:50:19.541
150.0, -39105.628622249205, -32188.27780345414, -41227.703240836054, -38542.364661975465, -54248.68962153073, 187500.0, -37203.42811386921, -39259.74390026854, 0.794, -0.642, 0.182, 192.0, 0.0, 0.0, 0.0, 0.0, 0.0, 0.0, 0.0, 0.0, 0.0, 1.663591819546382E9, 0.0, 2022-09-19 17:50:19.546
151.0, -39093.245755820964, -32195.586823891026, -41219.746019809965, -38501.50567311116, -54231.38937132232, 187500.0, -37484.68011435033, -39205.49621647551, 0.794, -0.642, 0.182, 192.0, 0.0, 0.0, 0.0, 0.0, 0.0, 0.0, 0.0, 0.0, 0.0, 1.6635918195494084E9, 0.0, 2022-09-19 17:50:19.549
152.0, -39079.5217847254, -32164.875527009433, -41209.44186561607, -38481.29969612357, -54204.768443676054, 187500.0, -37559.17847861988, -39190.58760292383, 0.794, -0.642, 0.182, 192.0, 0.0, 0.0, 0.0, 0.0, 0.0, 0.0, 0.0, 0.0, 0.0, 1.6635918195534692E9, 0.0, 2022-09-19 17:50:19.553
153.0, -39079.901764381146, -32150.950390213777, -41193.952106708544, -38490.12863518341, -54196.63240869432, 187500.0, -37446.190410398296, -39199.863576872776, 0.794, -0.642, 0.182, 192.0, 0.0, 0.0, 0.0, 0.0, 0.0, 0.0, 0.0, 0.0, 0.0, 1.6635918195574663E9, 0.0, 2022-09-19 17:50:19.557
154.0, -39068.88235436468, -32155.957180971767, -41184.40791182613, -38508.90410052587, -54202.957952375175, 187500.0, -37230.11609674884, -39227.110353363794, 0.794, -0.642, 0.182, 192.0, 0.0, 0.0, 0.0, 0.0, 0.0, 0.0, 0.0, 0.0, 0.0, 1.663591819561402E9, 0.0, 2022-09-19 17:50:19.561
155.0, -39100.35361055775, -32183.360419673973, -41224.46223789004, -38538.922493329344, -54240.39712433781, 187500.0, -37197.19197716618, -39257.598132800835, 0.794, -0.642, 0.182, 192.0, 0.0, 0.0, 0.0, 0.0, 0.0, 0.0, 0.0, 0.0, 0.0, 1.6635918195654075E9, 0.0, 2022-09-19 17:50:19.565
156.0, -39101.47119778051, -32167.110701454963, -41241.628377631714, -38493.4366933628, -54221.17462410625, 187500.0, -37483.8978032944, -39206.23382404254, 0.794, -0.642, 0.182, 192.0, 0.0, 0.0, 0.0, 0.0, 0.0, 0.0, 0.0, 0.0, 0.0, 1.6635918195694964E9, 0.0, 2022-09-19 17:50:19.569
157.0, -39069.97758984299, -32130.02915740361, -41209.48656910498, -38458.90324817935, -54182.126126542826, 187500.0, -37551.84710643853, -39180.43991094112, 0.794, -0.642, 0.182, 192.0, 0.0, 0.0, 0.0, 0.0, 0.0, 0.0, 0.0, 0.0, 0.0, 1.6635918195744743E9, 0.0, 2022-09-19 17:50:19.574
158.0, -39065.86486886321, -32134.298340594574, -41226.13861872419, -38473.81186173104, -54192.63144643682, 187500.0, -37445.22928538672, -39190.967582579564, 0.794, -0.642, 0.182, 192.0, 0.0, 0.0, 0.0, 0.0, 0.0, 0.0, 0.0, 0.0, 0.0, 1.663591819577499E9, 0.0, 2022-09-19 17:50:19.577
159.0, -39067.54124969736, -32141.11562265344, -41204.34566788026, -38499.00227773217, -54210.378731534336, 187500.0, -37237.916855563744, -39234.598187756324, 0.788, -0.644, 0.184, 192.0, 24.0, 160.0, 235.0, 224.0, 5.0, 192.0, 0.0, 0.0, 0.0, 1.6635918195804875E9, 0.0, 2022-09-19 17:50:19.580
160.0, -39081.421683004104, -32162.17096593034, -41206.20086267005, -38518.40359191938, -54240.39712433781, 187500.0, -37205.30566040345, -39256.99463570054, 0.788, -0.644, 0.184, 192.0, 0.0, 0.0, 0.0, 0.0, 0.0, 0.0, 0.0, 0.0, 0.0, 1.6635918195854473E9, 0.0, 2022-09-19 17:50:19.585
161.0, -39087.76957842941, -32166.931887499322, -41243.43886893259, -38488.76517877164, -54233.1998626232, 187500.0, -37495.52071041116, -39209.497178733014, 0.788, -0.644, 0.184, 192.0, 0.0, 0.0, 0.0, 0.0, 0.0, 0.0, 0.0, 0.0, 0.0, 1.6635918195894775E9, 0.0, 2022-09-19 17:50:19.589
162.0, -39084.17094757211, -32150.16807915784, -41212.95108949555, -38465.94404768277, -54209.3952547783, 187500.0, -37567.895658957445, -39180.12698651874, 0.788, -0.644, 0.184, 192.0, 0.0, 0.0, 0.0, 0.0, 0.0, 0.0, 0.0, 0.0, 0.0, 1.6635918195934784E9, 0.0, 2022-09-19 17:50:19.593
163.0, -39079.83470914778, -32145.45186107777, -41223.56816811182, -38482.0820071795, -54216.45840602618, 187500.0, -37459.8920297494, -39202.81400714088, 0.788, -0.644, 0.184, 192.0, 0.0, 0.0, 0.0, 0.0, 0.0, 0.0, 0.0, 0.0, 0.0, 1.6635918195975263E9, 0.0, 2022-09-19 17:50:19.597
164.0, -39037.20993247151, -32129.336253325495, -41167.934676162564, -38494.21900441874, -54217.06190312647, 187500.0, -37241.068451531944, -39229.25612083151, 0.788, -0.644, 0.184, 192.0, 0.0, 0.0, 0.0, 0.0, 0.0, 0.0, 0.0, 0.0, 0.0, 1.663591819602432E9, 0.0, 2022-09-19 17:50:19.602
165.0, -39056.186563514064, -32154.30315188207, -41222.78585705589, -38510.35696391547, -54246.20857789619, 187500.0, -37211.02770698401, -39244.05297566092, 0.788, -0.644, 0.184, 192.0, 0.0, 0.0, 0.0, 0.0, 0.0, 0.0, 0.0, 0.0, 0.0, 1.6635918196054182E9, 0.0, 2022-09-19 17:50:19.605
166.0, -39066.49071770796, -32153.69965478178, -41224.79751405687, -38468.55920178404, -54226.91902243126, 187500.0, -37501.33216396954, -39188.06185580038, 0.788, -0.644, 0.184, 192.0, 0.0, 0.0, 0.0, 0.0, 0.0, 0.0, 0.0, 0.0, 0.0, 1.6635918196094487E9, 0.0, 2022-09-19 17:50:19.609
167.0, -39063.00384557293, -32139.483945308206, -41204.97151672501, -38459.46204179073, -54206.98126637713, 187500.0, -37565.14639438944, -39186.27371624395, 0.788, -0.644, 0.184, 192.0, 0.0, 0.0, 0.0, 0.0, 0.0, 0.0, 0.0, 0.0, 0.0, 1.6635918196134686E9, 0.0, 2022-09-19 17:50:19.613
168.0, -39043.5131244079, -32120.239093332184, -41209.397162127156, -38466.8828209499, -54205.5954582209, 187500.0, -37429.471305545725, -39203.909242619186, 0.788, -0.644, 0.184, 192.0, 0.0, 0.0, 0.0, 0.0, 0.0, 0.0, 0.0, 0.0, 0.0, 1.663591819617529E9, 0.0, 2022-09-19 17:50:19.617
169.0, -39054.55488616883, -32143.104927909964, -41198.981249210985, -38508.43471389231, -54232.238737611624, 187500.0, -37228.0373845145, -39257.19580140064, 0.782, -0.644, 0.18, 192.0, 24.0, 112.0, 235.0, 224.0, 5.0, 160.0, 0.0, 0.0, 0.0, 1.6635918196204772E9, 0.0, 2022-09-19 17:50:19.620
170.0, -39089.200090074555, -32167.55773634407, -41222.741153566974, -38531.27819672563, -54264.08997346044, 187500.0, -37217.21914019813, -39272.976132986085, 0.782, -0.644, 0.18, 192.0, 0.0, 0.0, 0.0, 0.0, 0.0, 0.0, 0.0, 0.0, 0.0, 1.6635918196254425E9, 0.0, 2022-09-19 17:50:19.625
171.0, -39093.22340407651, -32152.090329181, -41252.91600858164, -38473.431882075296, -54233.87041495686, 187500.0, -37500.05811453559, -39199.170672794666, 0.782, -0.644, 0.18, 192.0, 0.0, 0.0, 0.0, 0.0, 0.0, 0.0, 0.0, 0.0, 0.0, 1.6635918196294756E9, 0.0, 2022-09-19 17:50:19.629
172.0, -39053.906685579626, -32122.65308173336, -41224.79751405687, -38447.05682361803, -54194.2407720376, 187500.0, -37551.3106645716, -39178.18238475113, 0.782, -0.644, 0.18, 192.0, 0.0, 0.0, 0.0, 0.0, 0.0, 0.0, 0.0, 0.0, 0.0, 1.6635918196334815E9, 0.0, 2022-09-19 17:50:19.633
173.0, -39074.33618001177, -32130.051509148063, -41196.81312999882, -38474.32595185351, -54205.193126820704, 187500.0, -37445.45280283127, -39211.01709735597, 0.782, -0.644, 0.18, 192.0, 0.0, 0.0, 0.0, 0.0, 0.0, 0.0, 0.0, 0.0, 0.0, 1.6635918196374848E9, 0.0, 2022-09-19 17:50:19.637
174.0, -39050.464516933505, -32134.61126501695, -41194.91323172012, -38509.082914481514, -54222.336914817926, 187500.0, -37233.62532062833, -39255.05003393293, 0.782, -0.644, 0.18, 192.0, 0.0, 0.0, 0.0, 0.0, 0.0, 0.0, 0.0, 0.0, 0.0, 1.6635918196414971E9, 0.0, 2022-09-19 17:50:19.641
175.0, -39067.228325274984, -32157.61121006146, -41232.195941471575, -38531.68052812583, -54259.373755380366, 187500.0, -37211.69825931767, -39273.892554508755, 0.782, -0.644, 0.18, 192.0, 0.0, 0.0, 0.0, 0.0, 0.0, 0.0, 0.0, 0.0, 0.0, 1.663591819645499E9, 0.0, 2022-09-19 17:50:19.645
176.0, -39072.52568871089, -32149.899858224377, -41248.2891974794, -38487.625239804416, -54234.92094694626, 187500.0, -37495.408951688885, -39215.53214973595, 0.782, -0.644, 0.18, 192.0, 0.0, 0.0, 0.0, 0.0, 0.0, 0.0, 0.0, 0.0, 0.0, 1.6635918196485093E9, 0.0, 2022-09-19 17:50:19.648
177.0, -39040.316824950794, -32127.302244580063, -41223.70227857856, -38462.256009847646, -54196.587705205406, 187500.0, -37552.160030860905, -39188.21831801156, 0.782, -0.644, 0.18, 192.0, 0.0, 0.0, 0.0, 0.0, 0.0, 0.0, 0.0, 0.0, 0.0, 1.6635918196526494E9, 0.0, 2022-09-19 17:50:19.652
178.0, -39041.099136006735, -32125.31293932354, -41186.35251359374, -38469.85560296245, -54198.37584476183, 187500.0, -37438.32259635003, -39204.22216704156, 0.782, -0.644, 0.18, 192.0, 0.0, 0.0, 0.0, 0.0, 0.0, 0.0, 0.0, 0.0, 0.0, 1.6635918196576116E9, 0.0, 2022-09-19 17:50:19.657
179.0, -39060.791022871854, -32161.768634530144, -41189.95114445104, -38504.72432431273, -54226.42728405324, 187500.0, -37231.79247758299, -39250.49027806405, 0.786, -0.656, 0.182, 192.0, 24.0, 144.0, 235.0, 128.0, 5.0, 176.0, 0.0, 0.0, 0.0, 1.663591819661527E9, 0.0, 2022-09-19 17:50:19.661
180.0, -39079.83470914778, -32217.04449856812, -41229.40197341466, -38526.31610945656, -54265.27461591657, 187500.0, -37221.845951300376, -39270.02570271798, 0.786, -0.656, 0.182, 192.0, 0.0, 0.0, 0.0, 0.0, 0.0, 0.0, 0.0, 0.0, 0.0, 1.6635918196655247E9, 0.0, 2022-09-19 17:50:19.665
181.0, -39070.78225264338, -32140.51212555315, -41247.10455502326, -38477.38814084389, -54254.23285415565, 187500.0, -37511.72572514126, -39208.53605372144, 0.786, -0.656, 0.182, 192.0, 0.0, 0.0, 0.0, 0.0, 0.0, 0.0, 0.0, 0.0, 0.0, 1.6635918196696036E9, 0.0, 2022-09-19 17:50:19.669
182.0, -39048.58697039926, -32104.9281483803, -41215.767409296925, -38456.75748071164, -54237.11141790288, 187500.0, -37557.59150476355, -39189.8499953568, 0.786, -0.656, 0.182, 192.0, 0.0, 0.0, 0.0, 0.0, 0.0, 0.0, 0.0, 0.0, 0.0, 1.6635918196726139E9, 0.0, 2022-09-19 17:50:19.672
183.0, -39044.74247035295, -32125.156477112352, -41200.7246852785, -38472.47075706372, -54248.957842464195, 187500.0, -37441.94357895179, -39213.27462354596, 0.786, -0.656, 0.182, 192.0, 0.0, 0.0, 0.0, 0.0, 0.0, 0.0, 0.0, 0.0, 0.0, 1.6635918196765509E9, 0.0, 2022-09-19 17:50:19.676
184.0, -39039.15453423912, -32137.539343540593, -41186.128996149186, -38502.019763233635, -54270.281406674556, 187500.0, -37235.59227414039, -39250.3114641084, 0.786, -0.656, 0.182, 192.0, 0.0, 0.0, 0.0, 0.0, 0.0, 0.0, 0.0, 0.0, 0.0, 1.6635918196806188E9, 0.0, 2022-09-19 17:50:19.680
185.0, -39053.05731929032, -32151.26331463615, -41232.86649380523, -38514.44733315078, -54313.17440428429, 187500.0, -37227.74681183658, -39263.43193810367, 0.786, -0.656, 0.182, 192.0, 0.0, 0.0, 0.0, 0.0, 0.0, 0.0, 0.0, 0.0, 0.0, 1.6635918196855965E9, 0.0, 2022-09-19 17:50:19.685
186.0, -39070.55873519883, -32142.8367069765, -41281.481537995525, -38478.550431555566, -54314.873136862894, 187500.0, -37523.52744621366, -39216.56032998089, 0.786, -0.656, 0.182, 192.0, 0.0, 0.0, 0.0, 0.0, 0.0, 0.0, 0.0, 0.0, 0.0, 1.6635918196896122E9, 0.0, 2022-09-19 17:50:19.689
187.0, -39041.993205784944, -32118.607415986946, -41221.26593843293, -38454.87993417739, -54285.54764813753, 187500.0, -37570.846089225546, -39198.03073382744, 0.786, -0.656, 0.182, 192.0, 0.0, 0.0, 0.0, 0.0, 0.0, 0.0, 0.0, 0.0, 0.0, 1.6635918196936343E9, 0.0, 2022-09-19 17:50:19.693
188.0, -39026.905778277614, -32115.813447930035, -41191.82869098529, -38463.507707537145, -54280.07147074598, 187500.0, -37448.26912263264, -39211.598242711814, 0.786, -0.656, 0.182, 192.0, 0.0, 0.0, 0.0, 0.0, 0.0, 0.0, 0.0, 0.0, 0.0, 1.663591819697588E9, 0.0, 2022-09-19 17:50:19.697
189.0, -39034.57242662578, -32137.919323196333, -41201.842272501264, -38501.68448706681, -54297.84110758795, 187500.0, -37236.32988170742, -39256.39113860025, 0.786, -0.656, 0.182, 192.0, 0.0, 0.0, 0.0, 0.0, 0.0, 0.0, 0.0, 0.0, 0.0, 1.6635918197005816E9, 0.0, 2022-09-19 17:50:19.700
190.0, -39063.16030778412, -32163.914401997856, -41226.54095012438, -38516.12371398493, -54320.41636948781, 187500.0, -37230.7866490825, -39257.77694675648, 0.782, -0.652, 0.182, 192.0, 24.0, 112.0, 235.0, 160.0, 5.0, 176.0, 0.0, 0.0, 0.0, 1.6635918197046537E9, 0.0, 2022-09-19 17:50:19.704
191.0, -39066.80364213033, -32160.159308929364, -41245.00349104447, -38477.29873386607, -54296.209430242714, 187500.0, -37517.09014381053, -39208.245481043516, 0.782, -0.652, 0.182, 192.0, 0.0, 0.0, 0.0, 0.0, 0.0, 0.0, 0.0, 0.0, 0.0, 1.663591819708636E9, 0.0, 2022-09-19 17:50:19.708
192.0, -39051.805621600826, -32143.574314543526, -41224.95397626805, -38467.30750409455, -54264.24643567162, 187500.0, -37560.49723154274, -39198.18719603863, 0.782, -0.652, 0.182, 192.0, 0.0, 0.0, 0.0, 0.0, 0.0, 0.0, 0.0, 0.0, 0.0, 1.663591819713626E9, 0.0, 2022-09-19 17:50:19.713
193.0, -39045.65889187562, -32142.635541276402, -41220.997717499464, -38487.3346671265, -54263.12884844886, 187500.0, -37436.62386377143, -39224.31638530688, 0.782, -0.652, 0.182, 192.0, 0.0, 0.0, 0.0, 0.0, 0.0, 0.0, 0.0, 0.0, 0.0, 1.6635918197176197E9, 0.0, 2022-09-19 17:50:19.717
194.0, -39044.04956627483, -32158.326465884027, -41235.99573802898, -38521.35402218748, -54277.25515094461, 187500.0, -37221.10834373335, -39268.34932188384, 0.782, -0.652, 0.182, 192.0, 0.0, 0.0, 0.0, 0.0, 0.0, 0.0, 0.0, 0.0, 0.0, 1.6635918197216716E9, 0.0, 2022-09-19 17:50:19.721
195.0, -39070.82695613229, -32180.83467255052, -41233.69350835008, -38536.128525272434, -54293.81779358599, 187500.0, -37224.25993970155, -39279.07815922239, 0.782, -0.652, 0.182, 192.0, 0.0, 0.0, 0.0, 0.0, 0.0, 0.0, 0.0, 0.0, 0.0, 1.6635918197257187E9, 0.0, 2022-09-19 17:50:19.725
196.0, -39086.42847376209, -32177.012524248665, -41253.07247079283, -38493.2355276627, -54270.348461907925, 187500.0, -37513.24564376422, -39223.33290855085, 0.782, -0.652, 0.182, 192.0, 0.0, 0.0, 0.0, 0.0, 0.0, 0.0, 0.0, 0.0, 0.0, 1.6635918197286973E9, 0.0, 2022-09-19 17:50:19.728
197.0, -39049.481040177474, -32144.736605255202, -41218.11434246473, -38460.80314645805, -54222.56043226248, 187500.0, -37541.20767607781, -39193.158053536186, 0.782, -0.652, 0.182, 192.0, 0.0, 0.0, 0.0, 0.0, 0.0, 0.0, 0.0, 0.0, 0.0, 1.663591819732624E9, 0.0, 2022-09-19 17:50:19.732
198.0, -39027.2634061889, -32136.421756317828, -41204.70329579154, -38469.83325121799, -54218.93944966071, 187500.0, -37415.4791135167, -39213.833417157344, 0.782, -0.652, 0.182, 192.0, 0.0, 0.0, 0.0, 0.0, 0.0, 0.0, 0.0, 0.0, 0.0, 1.663591819736631E9, 0.0, 2022-09-19 17:50:19.736
199.0, -39027.84455154474, -32149.899858224377, -41201.66345854562, -38506.44540863579, -54241.335897604935, 187500.0, -37209.15016044977, -39262.15788866972, 0.782, -0.652, 0.182, 192.0, 0.0, 0.0, 0.0, 0.0, 0.0, 0.0, 0.0, 0.0, 0.0, 1.6635918197406526E9, 0.0, 2022-09-19 17:50:19.740
200.0, -39064.970799085, -32176.07375098154, -41233.76056358344, -38525.15381874488, -54273.50005787612, 187500.0, -37224.6846228462, -39275.30071440944, 0.78, -0.64, 0.182, 192.0, 24.0, 96.0, 236.0, 0.0, 5.0, 176.0, 0.0, 0.0, 0.0, 1.6635918197457697E9, 0.0, 2022-09-19 17:50:19.745
201.0, -39064.3225984958, -32169.770559045144, -41258.10161329527, -38483.490167080185, -54257.98794722414, 187500.0, -37511.61396641898, -39221.254196316506, 0.78, -0.64, 0.182, 192.0, 0.0, 0.0, 0.0, 0.0, 0.0, 0.0, 0.0, 0.0, 0.0, 1.6635918197496777E9, 0.0, 2022-09-19 17:50:19.749
202.0, -39035.0641650038, -32139.707462752758, -41254.97236907153, -38456.04222488907, -54223.655667740786, 187500.0, -37543.42049877888, -39197.31547800487, 0.78, -0.64, 0.182, 192.0, 0.0, 0.0, 0.0, 0.0, 0.0, 0.0, 0.0, 0.0, 0.0, 1.6635918197557025E9, 0.0, 2022-09-19 17:50:19.755
203.0, -39025.47526663247, -32134.54420978358, -41191.96280145202, -38463.82063195952, -54220.10174037239, 187500.0, -37422.36345080894, -39211.86646364528, 0.78, -0.64, 0.182, 192.0, 0.0, 0.0, 0.0, 0.0, 0.0, 0.0, 0.0, 0.0, 0.0, 1.6635918197587152E9, 0.0, 2022-09-19 17:50:19.758
204.0, -39025.6093770992, -32150.011616946653, -41187.15717639413, -38503.40557138986, -54247.840255241426, 187500.0, -37214.447523885676, -39260.615618302305, 0.78, -0.64, 0.182, 192.0, 0.0, 0.0, 0.0, 0.0, 0.0, 0.0, 0.0, 0.0, 0.0, 1.6635918197617607E9, 0.0, 2022-09-19 17:50:19.761
205.0, -39052.92320882359, -32170.217593934252, -41225.7809908129, -38515.654327351374, -54277.09868873342, 187500.0, -37220.84012279989, -39263.20842065912, 0.78, -0.64, 0.182, 192.0, 0.0, 0.0, 0.0, 0.0, 0.0, 0.0, 0.0, 0.0, 0.0, 1.663591819765736E9, 0.0, 2022-09-19 17:50:19.765
206.0, -39078.49360448046, -32173.927983513833, -41255.30764523836, -38479.80212924506, -54261.85479901491, 187500.0, -37509.49055069573, -39213.54284447942, 0.78, -0.64, 0.182, 192.0, 0.0, 0.0, 0.0, 0.0, 0.0, 0.0, 0.0, 0.0, 0.0, 1.663591819768724E9, 0.0, 2022-09-19 17:50:19.768
207.0, -39049.99513029995, -32149.899858224377, -41211.74409529497, -38454.72347196621, -54227.74603697611, 187500.0, -37535.77620217517, -39195.437931470624, 0.78, -0.64, 0.182, 192.0, 0.0, 0.0, 0.0, 0.0, 0.0, 0.0, 0.0, 0.0, 0.0, 1.6635918197737248E9, 0.0, 2022-09-19 17:50:19.773
208.0, -39025.8105427993, -32135.684148750803, -41188.16300489462, -38462.36776856992, -54224.92971717474, 187500.0, -37415.903796661354, -39212.08998108983, 0.78, -0.64, 0.182, 192.0, 0.0, 0.0, 0.0, 0.0, 0.0, 0.0, 0.0, 0.0, 0.0, 1.6635918197777007E9, 0.0, 2022-09-19 17:50:19.777
209.0, -39026.30228117732, -32147.485869823206, -41188.02889442789, -38499.5387195991, -54248.823731997465, 187500.0, -37213.62050934083, -39259.81095550191, 0.78, -0.64, 0.182, 192.0, 0.0, 0.0, 0.0, 0.0, 0.0, 0.0, 0.0, 0.0, 0.0, 1.663591819781812E9, 0.0, 2022-09-19 17:50:19.781
210.0, -39049.52574366638, -32163.847346764487, -41221.37769715521, -38508.97115575924, -54276.137563721844, 187500.0, -37227.36683218084, -39264.43776660416, 0.776, -0.64, 0.188, 192.0, 24.0, 64.0, 236.0, 0.0, 5.0, 224.0, 0.0, 0.0, 0.0, 1.6635918197847495E9, 0.0, 2022-09-19 17:50:19.784
211.0, -39069.95523809853, -32159.60051531798, -41244.914084066644, -38470.2802861071, -54257.36209837939, 187500.0, -37514.05030656461, -39210.36889676677, 0.776, -0.64, 0.188, 192.0, 0.0, 0.0, 0.0, 0.0, 0.0, 0.0, 0.0, 0.0, 0.0, 1.663591819788756E9, 0.0, 2022-09-19 17:50:19.788
212.0, -39052.9679123125, -32145.518916311135, -41234.855799061756, -38461.25018134715, -54242.252319127605, 187500.0, -37551.35536806052, -39206.88202463174, 0.776, -0.64, 0.188, 192.0, 0.0, 0.0, 0.0, 0.0, 0.0, 0.0, 0.0, 0.0, 0.0, 1.663591819792736E9, 0.0, 2022-09-19 17:50:19.792
213.0, -39038.52868539437, -32140.10979415295, -41257.94515108409, -38479.24333563368, -54247.37086860787, 187500.0, -37426.78909621109, -39233.57000751138, 0.776, -0.64, 0.188, 192.0, 0.0, 0.0, 0.0, 0.0, 0.0, 0.0, 0.0, 0.0, 0.0, 1.6635918197967627E9, 0.0, 2022-09-19 17:50:19.796
214.0, -39031.33142367976, -32145.36245409995, -41185.05611241533, -38511.69806858279, -54256.87036000137, 187500.0, -37208.569015093926, -39276.39594988775, 0.776, -0.64, 0.188, 192.0, 0.0, 0.0, 0.0, 0.0, 0.0, 0.0, 0.0, 0.0, 0.0, 1.6635918198018909E9, 0.0, 2022-09-19 17:50:19.801
215.0, -39053.37024371269, -32160.9416199853, -41205.37384812521, -38513.419152905844, -54282.61956961389, 187500.0, -37228.52912289252, -39269.15398468423, 0.776, -0.64, 0.188, 192.0, 0.0, 0.0, 0.0, 0.0, 0.0, 0.0, 0.0, 0.0, 0.0, 1.6635918198057754E9, 0.0, 2022-09-19 17:50:19.805
216.0, -39071.83278463278, -32154.280800137618, -41246.34459571178, -38473.74480649767, -54264.93933974974, 187500.0, -37517.224254277266, -39218.728449193055, 0.776, -0.64, 0.188, 192.0, 0.0, 0.0, 0.0, 0.0, 0.0, 0.0, 0.0, 0.0, 0.0, 1.6635918198097806E9, 0.0, 2022-09-19 17:50:19.809
217.0, -39048.63167388817, -32144.26721862164, -41225.71393557954, -38461.36194006943, -54242.78876099453, 187500.0, -37544.895713912934, -39208.02196359896, 0.776, -0.64, 0.188, 192.0, 0.0, 0.0, 0.0, 0.0, 0.0, 0.0, 0.0, 0.0, 0.0, 1.663591819812786E9, 0.0, 2022-09-19 17:50:19.812
218.0, -39048.60932214372, -32139.618055774936, -41190.44288282906, -38467.24044886118, -54244.30867961749, 187500.0, -37417.535474006596, -39221.880045161255, 0.776, -0.64, 0.188, 192.0, 0.0, 0.0, 0.0, 0.0, 0.0, 0.0, 0.0, 0.0, 0.0, 1.6635918198168747E9, 0.0, 2022-09-19 17:50:19.816
219.0, -39025.25174918792, -32139.528648797113, -41192.543946807855, -38503.45027487878, -54268.33680490695, 187500.0, -37210.1336372058, -39266.22590616059, 0.776, -0.64, 0.188, 192.0, 0.0, 0.0, 0.0, 0.0, 0.0, 0.0, 0.0, 0.0, 0.0, 1.6635918198208475E9, 0.0, 2022-09-19 17:50:19.820
220.0, -39052.25265648993, -32148.55875355706, -41227.59148211378, -38507.02655399162, -54291.85084007393, 187500.0, -37231.72542234963, -39267.589362572355, 0.786, -0.64, 0.19, 192.0, 24.0, 144.0, 236.0, 0.0, 5.0, 240.0, 0.0, 0.0, 0.0, 1.663591819824918E9, 0.0, 2022-09-19 17:50:19.824
221.0, -39065.30607525183, -32143.864887221443, -41242.14246775419, -38468.33568433949, -54273.09772647593, 187500.0, -37525.98613810374, -39218.52728349296, 0.786, -0.64, 0.19, 192.0, 0.0, 0.0, 0.0, 0.0, 0.0, 0.0, 0.0, 0.0, 0.0, 1.663591819828894E9, 0.0, 2022-09-19 17:50:19.828
222.0, -39051.17977275608, -32140.780346486612, -41214.91804300762, -38453.60588474344, -54246.07446742946, 187500.0, -37557.79267046364, -39206.41263799818, 0.786, -0.64, 0.19, 192.0, 0.0, 0.0, 0.0, 0.0, 0.0, 0.0, 0.0, 0.0, 0.0, 1.6635918198338792E9, 0.0, 2022-09-19 17:50:19.833
223.0, -39015.39462988313, -32139.059262163555, -41195.136749164674, -38462.032492403094, -54241.13473190484, 187500.0, -37423.72690722071, -39224.94223415163, 0.786, -0.64, 0.19, 192.0, 0.0, 0.0, 0.0, 0.0, 0.0, 0.0, 0.0, 0.0, 0.0, 1.663591819837888E9, 0.0, 2022-09-19 17:50:19.837
224.0, -39003.88348148864, -32171.022256734643, -41209.330106893794, -38494.397818374375, -54262.41359262629, 187500.0, -37202.690506302184, -39260.593266557844, 0.786, -0.64, 0.19, 192.0, 0.0, 0.0, 0.0, 0.0, 0.0, 0.0, 0.0, 0.0, 0.0, 1.6635918198409784E9, 0.0, 2022-09-19 17:50:19.840
225.0, -39052.990264056956, -32160.47223335174, -41230.787781570885, -38505.439580135295, -54293.23664823016, 187500.0, -37230.3396141934, -39271.47856610758, 0.786, -0.64, 0.19, 192.0, 0.0, 0.0, 0.0, 0.0, 0.0, 0.0, 0.0, 0.0, 0.0, 1.6635918198448827E9, 0.0, 2022-09-19 17:50:19.844
226.0, -39046.06122327581, -32109.465552504727, -41215.00744998544, -38449.69432946376, -54261.56422633699, 187500.0, -37509.110571039986, -39199.84122512832, 0.786, -0.64, 0.19, 192.0, 0.0, 0.0, 0.0, 0.0, 0.0, 0.0, 0.0, 0.0, 0.0, 1.6635918198489425E9, 0.0, 2022-09-19 17:50:19.848
227.0, -39017.94272875103, -32100.994241356166, -41198.713028277525, -38436.21622755721, -54241.49235981612, 187500.0, -37526.25435903721, -39192.19692852461, 0.786, -0.64, 0.19, 192.0, 0.0, 0.0, 0.0, 0.0, 0.0, 0.0, 0.0, 0.0, 0.0, 1.6635918198529308E9, 0.0, 2022-09-19 17:50:19.852
228.0, -39020.20025494102, -32112.438334517283, -41194.1756241531, -38456.936294667285, -54247.415572096776, 187500.0, -37409.555901236046, -39221.611824227795, 0.786, -0.64, 0.19, 192.0, 0.0, 0.0, 0.0, 0.0, 0.0, 0.0, 0.0, 0.0, 0.0, 1.6635918198569744E9, 0.0, 2022-09-19 17:50:19.856
229.0, -39028.85038004522, -32145.094233166485, -41202.84810100176, -38504.94784175728, -54276.629302099864, 187500.0, -37206.5797098374, -39278.094682466355, 0.786, -0.64, 0.19, 192.0, 0.0, 0.0, 0.0, 0.0, 0.0, 0.0, 0.0, 0.0, 0.0, 1.6635918198618746E9, 0.0, 2022-09-19 17:50:19.861
230.0, -39076.37018875721, -32177.50426262668, -41262.77312788643, -38530.07120252505, -54309.4193112158, 187500.0, -37241.71665212115, -39298.5241768985, 0.784, -0.64, 0.188, 192.0, 24.0, 128.0, 236.0, 0.0, 5.0, 224.0, 0.0, 0.0, 0.0, 1.6635918198658507E9, 0.0, 2022-09-19 17:50:19.865
231.0, -39062.51210719492, -32145.630675033415, -41245.271711977926, -38467.1286901389, -54267.46508687319, 187500.0, -37521.13580955694, -39212.76053342349, 0.784, -0.64, 0.188, 192.0, 0.0, 0.0, 0.0, 0.0, 0.0, 0.0, 0.0, 0.0, 0.0, 1.663591819868893E9, 0.0, 2022-09-19 17:50:19.868
232.0, -39021.49665611943, -32113.511218251137, -41202.78104576839, -38440.23954155917, -54227.47781604264, 187500.0, -37534.6586149524, -39190.02880931244, 0.784, -0.64, 0.188, 192.0, 0.0, 0.0, 0.0, 0.0, 0.0, 0.0, 0.0, 0.0, 0.0, 1.6635918198729064E9, 0.0, 2022-09-19 17:50:19.872
233.0, -39011.728943792456, -32118.138029353388, -41180.56341177981, -38464.267666848624, -54236.17264463576, 187500.0, -37409.15356983585, -39218.102600348306, 0.784, -0.64, 0.188, 192.0, 0.0, 0.0, 0.0, 0.0, 0.0, 0.0, 0.0, 0.0, 0.0, 1.663591819876946E9, 0.0, 2022-09-19 17:50:19.876
234.0, -39015.03700197185, -32136.04177666209, -41187.023065927395, -38501.0362864776, -54253.36113612189, 187500.0, -37193.101607930854, -39260.10152817983, 0.784, -0.64, 0.188, 192.0, 0.0, 0.0, 0.0, 0.0, 0.0, 0.0, 0.0, 0.0, 0.0, 1.6635918198809352E9, 0.0, 2022-09-19 17:50:19.880
235.0, -39038.34987143873, -32155.241925149196, -41225.7809908129, -38511.1392749714, -54276.24932244412, 187500.0, -37231.05487001596, -39263.543696825946, 0.784, -0.64, 0.188, 192.0, 0.0, 0.0, 0.0, 0.0, 0.0, 0.0, 0.0, 0.0, 0.0, 1.6635918198848853E9, 0.0, 2022-09-19 17:50:19.884
236.0, -39052.72204312349, -32154.236096648707, -41249.49619167998, -38473.25306811966, -54262.27948215956, 187500.0, -37523.572149702566, -39222.7070597061, 0.784, -0.64, 0.188, 192.0, 0.0, 0.0, 0.0, 0.0, 0.0, 0.0, 0.0, 0.0, 0.0, 1.6635918198899288E9, 0.0, 2022-09-19 17:50:19.889
237.0, -39039.80273482832, -32144.669550021834, -41272.674950680135, -38474.03537917559, -54257.83148501295, 187500.0, -37549.56722850409, -39229.501990020515, 0.784, -0.64, 0.188, 192.0, 0.0, 0.0, 0.0, 0.0, 0.0, 0.0, 0.0, 0.0, 0.0, 1.6635918198939345E9, 0.0, 2022-09-19 17:50:19.893
238.0, -39023.50831312041, -32134.275988850117, -41283.20262231858, -38489.011047960645, -54257.607967568394, 187500.0, -37417.62488098441, -39265.44359510465, 0.784, -0.64, 0.188, 192.0, 0.0, 0.0, 0.0, 0.0, 0.0, 0.0, 0.0, 0.0, 0.0, 1.6635918198968985E9, 0.0, 2022-09-19 17:50:19.896
239.0, -39022.72600206447, -32145.183640144307, -41173.880240187675, -38506.512463869156, -54250.567168064976, 187500.0, -37201.05882895694, -39272.19382193015, 0.784, -0.64, 0.188, 192.0, 0.0, 0.0, 0.0, 0.0, 0.0, 0.0, 0.0, 0.0, 0.0, 1.663591819900927E9, 0.0, 2022-09-19 17:50:19.900
240.0, -39051.224476244985, -32168.831785778024, -41186.598382782744, -38512.1898069608, -54275.19879045473, 187500.0, -37239.72734686462, -39257.68753977866, 0.778, -0.632, 0.188, 192.0, 24.0, 80.0, 236.0, 64.0, 5.0, 224.0, 0.0, 0.0, 0.0, 1.6635918199050136E9, 0.0, 2022-09-19 17:50:19.905
241.0, -39063.182659528575, -32160.382826373916, -41227.63618560269, -38464.93821918228, -54249.717801775674, 187500.0, -37515.36905948747, -39199.304783261396, 0.778, -0.632, 0.188, 192.0, 0.0, 0.0, 0.0, 0.0, 0.0, 0.0, 0.0, 0.0, 0.0, 1.6635918199089508E9, 0.0, 2022-09-19 17:50:19.908
242.0, -39031.510237635404, -32138.567523785536, -41197.99777245495, -38444.28520730558, -54225.82378695295, 187500.0, -37533.496324240725, -39195.750855893, 0.778, -0.632, 0.188, 192.0, 0.0, 0.0, 0.0, 0.0, 0.0, 0.0, 0.0, 0.0, 0.0, 1.6635918199129417E9, 0.0, 2022-09-19 17:50:19.912
243.0, -39021.653118330614, -32136.153535384365, -41223.85874078974, -38467.86629770593, -54239.793627237515, 187500.0, -37413.71332570473, -39230.99955689902, 0.778, -0.632, 0.188, 192.0, 0.0, 0.0, 0.0, 0.0, 0.0, 0.0, 0.0, 0.0, 0.0, 1.6635918199179451E9, 0.0, 2022-09-19 17:50:19.917
244.0, -39030.459705646004, -32147.73173901221, -41184.45261531504, -38501.77389404463, -54263.82175252697, 187500.0, -37203.942203991675, -39275.233659176076, 0.778, -0.632, 0.188, 192.0, 0.0, 0.0, 0.0, 0.0, 0.0, 0.0, 0.0, 0.0, 0.0, 1.6635918199219542E9, 0.0, 2022-09-19 17:50:19.921
245.0, -39047.84936283223, -32162.416835119348, -41205.977345225496, -38503.24910917868, -54285.50294464862, 187500.0, -37246.41051845676, -39273.04318821945, 0.778, -0.632, 0.188, 192.0, 0.0, 0.0, 0.0, 0.0, 0.0, 0.0, 0.0, 0.0, 0.0, 1.6635918199249585E9, 0.0, 2022-09-19 17:50:19.924
246.0, -39035.44414465954, -32148.35758785696, -41228.843179803276, -38458.880896434894, -54259.731383291655, 187500.0, -37522.09693456852, -39214.59337646882, 0.778, -0.632, 0.188, 192.0, 0.0, 0.0, 0.0, 0.0, 0.0, 0.0, 0.0, 0.0, 0.0, 1.6635918199290795E9, 0.0, 2022-09-19 17:50:19.929
247.0, -39033.83481905876, -32146.79296574509, -41207.944298737566, -38455.41637604432, -54246.38739185184, 187500.0, -37536.40205101992, -39216.783847425446, 0.778, -0.632, 0.188, 192.0, 0.0, 0.0, 0.0, 0.0, 0.0, 0.0, 0.0, 0.0, 0.0, 1.6635918199329796E9, 0.0, 2022-09-19 17:50:19.932
248.0, -39024.1118102207, -32147.08353842301, -41192.63335378568, -38459.99848365766, -54245.381563351344, 187500.0, -37408.48301750219, -39227.31151906389, 0.778, -0.632, 0.188, 192.0, 0.0, 0.0, 0.0, 0.0, 0.0, 0.0, 0.0, 0.0, 0.0, 1.6635918199370985E9, 0.0, 2022-09-19 17:50:19.937
249.0, -39032.1137347357, -32181.728742328734, -41193.326257863795, -38494.46487360774, -54265.14050544984, 187500.0, -37203.07048595792, -39269.131632939774, 0.778, -0.632, 0.188, 192.0, 0.0, 0.0, 0.0, 0.0, 0.0, 0.0, 0.0, 0.0, 0.0, 1.66359181994101E9, 0.0, 2022-09-19 17:50:19.941
250.0, -39054.44312744655, -32188.568376132058, -41230.8324850598, -38507.898272025384, -54298.35519771042, 187500.0, -37256.78172788402, -39279.03345573348, 0.788, -0.64, 0.182, 192.0, 24.0, 160.0, 236.0, 0.0, 5.0, 176.0, 0.0, 0.0, 0.0, 1.6635918199460006E9, 0.0, 2022-09-19 17:50:19.946
251.0, -39038.14870573863, -32137.919323196333, -41242.8353718323, -38466.41343431633, -54285.34648243743, 187500.0, -37531.28350153965, -39235.29109183444, 0.788, -0.64, 0.182, 192.0, 0.0, 0.0, 0.0, 0.0, 0.0, 0.0, 0.0, 0.0, 0.0, 1.663591819950092E9, 0.0, 2022-09-19 17:50:19.950
252.0, -39009.4043623691, -32112.751258939657, -41208.79366502687, -38442.36295728242, -54258.12205769087, 187500.0, -37531.59642596202, -39216.04623985842, 0.788, -0.64, 0.182, 192.0, 0.0, 0.0, 0.0, 0.0, 0.0, 0.0, 0.0, 0.0, 0.0, 1.663591819953016E9, 0.0, 2022-09-19 17:50:19.953
253.0, -39011.103094947706, -32109.44320076027, -41194.73441776448, -38454.075271377005, -54258.79261002453, 187500.0, -37405.68904944528, -39225.09869636282, 0.788, -0.64, 0.182, 192.0, 0.0, 0.0, 0.0, 0.0, 0.0, 0.0, 0.0, 0.0, 0.0, 1.663591819957144E9, 0.0, 2022-09-19 17:50:19.957
254.0, -39010.76781878088, -32127.145782368876, -41234.989909528485, -38494.30841139655, -54288.96746503919, 187500.0, -37200.030648712, -39268.34932188384, 0.788, -0.64, 0.182, 192.0, 0.0, 0.0, 0.0, 0.0, 0.0, 0.0, 0.0, 0.0, 0.0, 1.663591819961054E9, 0.0, 2022-09-19 17:50:19.961
255.0, -39036.91935979359, -32151.576239058526, -41281.325075784334, -38503.89730976788, -54308.74875888214, 187500.0, -37254.703015649684, -39271.61267657431, 0.788, -0.64, 0.182, 192.0, 0.0, 0.0, 0.0, 0.0, 0.0, 0.0, 0.0, 0.0, 0.0, 1.6635918199650495E9, 0.0, 2022-09-19 17:50:19.965
0.0, -39041.6132261292, -32142.054395920564, -41225.892749535175, -38461.697216236265, -54275.26584568809, 187500.0, -37534.50215274122, -39220.3601265383, 0.788, -0.64, 0.182, 192.0, 0.0, 0.0, 0.0, 0.0, 0.0, 0.0, 0.0, 0.0, 0.0, 1.663591819969064E9, 0.0, 2022-09-19 17:50:19.969
1.0, -39016.691031061535, -32121.177866599308, -41196.63431604318, -38445.827477672996, -54243.92869996175, 187500.0, -37538.2125423208, -39205.69738217561, 0.788, -0.64, 0.182, 192.0, 0.0, 0.0, 0.0, 0.0, 0.0, 0.0, 0.0, 0.0, 0.0, 1.6635918199730325E9, 0.0, 2022-09-19 17:50:19.973
2.0, -39011.55012983682, -32123.435392789295, -41185.92783044909, -38463.641818003875, -54249.49428433112, 187500.0, -37407.00780236814, -39227.08800161934, 0.788, -0.64, 0.182, 192.0, 0.0, 0.0, 0.0, 0.0, 0.0, 0.0, 0.0, 0.0, 0.0, 1.663591819978129E9, 0.0, 2022-09-19 17:50:19.978
3.0, -39014.92524324957, -32133.292512094085, -41181.993923424954, -38497.92939399832, -54268.29210141803, 187500.0, -37199.38244812279, -39272.774967285986, 0.788, -0.64, 0.182, 192.0, 0.0, 0.0, 0.0, 0.0, 0.0, 0.0, 0.0, 0.0, 0.0, 1.6635918199810493E9, 0.0, 2022-09-19 17:50:19.981
4.0, -39052.63263614567, -32161.45571010777, -41225.53512162389, -38508.166492958844, -54304.70309313573, 187500.0, -37262.70494016468, -39277.69235106616, 0.782, -0.64, 0.184, 192.0, 24.0, 112.0, 236.0, 0.0, 5.0, 192.0, 0.0, 0.0, 0.0, 1.6635918199850807E9, 0.0, 2022-09-19 17:50:19.985
5.0, -39057.41590945911, -32155.867773993945, -41249.518543424434, -38469.162698884335, -54285.97233128218, 187500.0, -37544.7616034462, -39230.08313537635, 0.782, -0.64, 0.184, 192.0, 0.0, 0.0, 0.0, 0.0, 0.0, 0.0, 0.0, 0.0, 0.0, 1.6635918199891148E9, 0.0, 2022-09-19 17:50:19.989
6.0, -39024.51414162089, -32131.83964870449, -41205.10562719174, -38451.840096931475, -54254.09874368891, 187500.0, -37540.559475488604, -39218.303766048404, 0.782, -0.64, 0.184, 192.0, 0.0, 0.0, 0.0, 0.0, 0.0, 0.0, 0.0, 0.0, 0.0, 1.6635918199930737E9, 0.0, 2022-09-19 17:50:19.993
7.0, -39016.847493272726, -32133.69484349428, -41169.074615129786, -38460.26670459112, -54244.93452846224, 187500.0, -37395.720171418216, -39231.42424004367, 0.782, -0.64, 0.184, 192.0, 0.0, 0.0, 0.0, 0.0, 0.0, 0.0, 0.0, 0.0, 0.0, 1.6635918199970798E9, 0.0, 2022-09-19 17:50:19.997
8.0, -39019.44029562954, -32140.825049975523, -41167.599399995735, -38494.17430092982, -54262.95003449322, 187500.0, -37186.84311948337, -39270.09275795135, 0.782, -0.64, 0.184, 192.0, 0.0, 0.0, 0.0, 0.0, 0.0, 0.0, 0.0, 0.0, 0.0, 1.6635918200012488E9, 0.0, 2022-09-19 17:50:20.001
9.0, -39052.81145010131, -32162.640352563903, -41244.422345688625, -38510.46872263774, -54294.98008429767, 187500.0, -37263.68841692071, -39279.32402841139, 0.782, -0.64, 0.184, 192.0, 0.0, 0.0, 0.0, 0.0, 0.0, 0.0, 0.0, 0.0, 0.0, 1.6635918200061042E9, 0.0, 2022-09-19 17:50:20.006
10.0, -39064.07672930679, -32152.000922203177, -41277.3911687602, -38466.4804895497, -54274.34942416542, 187500.0, -37543.10757435651, -39224.49519926253, 0.782, -0.64, 0.184, 192.0, 0.0, 0.0, 0.0, 0.0, 0.0, 0.0, 0.0, 0.0, 0.0, 1.6635918200091035E9, 0.0, 2022-09-19 17:50:20.009
11.0, -39009.31495539129, -32111.097229849966, -41163.19610633804, -38435.29980603454, -54231.56818527797, 187500.0, -37533.31751028508, -39196.98020183804, 0.782, -0.64, 0.184, 192.0, 0.0, 0.0, 0.0, 0.0, 0.0, 0.0, 0.0, 0.0, 0.0, 1.663591820013115E9, 0.0, 2022-09-19 17:50:20.013
12.0, -38996.9544407075, -32115.299357807562, -41168.13584186266, -38455.14815511086, -54238.49722605911, 187500.0, -37399.18469180878, -39229.09965862032, 0.782, -0.64, 0.184, 192.0, 0.0, 0.0, 0.0, 0.0, 0.0, 0.0, 0.0, 0.0, 0.0, 1.6635918200171216E9, 0.0, 2022-09-19 17:50:20.017
13.0, -39008.376182124164, -32134.92418943932, -41186.30781010483, -38491.1344636839, -54265.945168250226, 187500.0, -37191.73815151908, -39270.20451667363, 0.782, -0.64, 0.184, 192.0, 0.0, 0.0, 0.0, 0.0, 0.0, 0.0, 0.0, 0.0, 0.0, 1.663591820021165E9, 0.0, 2022-09-19 17:50:20.021
14.0, -39049.77161285539, -32155.35368387147, -41242.6342061322, -38505.931318513314, -54300.970351811695, 187500.0, -37269.589277456915, -39278.87699352229, 0.79, -0.634, 0.186, 192.0, 24.0, 176.0, 236.0, 48.0, 5.0, 208.0, 0.0, 0.0, 0.0, 1.663591820025169E9, 0.0, 2022-09-19 17:50:20.025
15.0, -39033.99128126995, -32131.996110915676, -41222.69645007807, -38454.075271377005, -54275.91404627729, 187500.0, -37539.933626643855, -39218.61669047078, 0.79, -0.634, 0.186, 192.0, 0.0, 0.0, 0.0, 0.0, 0.0, 0.0, 0.0, 0.0, 0.0, 1.6635918200292077E9, 0.0, 2022-09-19 17:50:20.029
16.0, -39018.12154270668, -32132.55490452706, -41242.96948229903, -38451.683634720284, -54270.6613863303, 187500.0, -37537.85491440951, -39226.57391149687, 0.79, -0.634, 0.186, 192.0, 0.0, 0.0, 0.0, 0.0, 0.0, 0.0, 0.0, 0.0, 0.0, 1.6635918200341864E9, 0.0, 2022-09-19 17:50:20.034
17.0, -39004.77755126686, -32129.984453914698, -41244.48940092199, -38460.08789063548, -54271.06371773049, 187500.0, -37404.59381396697, -39236.43103080166, 0.79, -0.634, 0.186, 192.0, 0.0, 0.0, 0.0, 0.0, 0.0, 0.0, 0.0, 0.0, 0.0, 1.663591820037157E9, 0.0, 2022-09-19 17:50:20.037
18.0, -39010.29843214732, -32137.87461970742, -41198.48951083297, -38494.7330945412, -54293.191944741244, 187500.0, -37196.811997510435, -39288.577650615895, 0.79, -0.634, 0.186, 192.0, 0.0, 0.0, 0.0, 0.0, 0.0, 0.0, 0.0, 0.0, 0.0, 1.6635918200401616E9, 0.0, 2022-09-19 17:50:20.040
19.0, -39055.40425245813, -32164.18262293132, -41237.00156652946, -38510.51342612665, -54334.96735512822, 187500.0, -37280.16165258428, -39297.56305188692, 0.79, -0.634, 0.186, 192.0, 0.0, 0.0, 0.0, 0.0, 0.0, 0.0, 0.0, 0.0, 0.0, 1.6635918200451636E9, 0.0, 2022-09-19 17:50:20.045
20.0, -39065.01550257391, -32153.27497163713, -41246.88103757871, -38466.793413972075, -54317.823567130996, 187500.0, -37559.55845827561, -39247.02575767347, 0.79, -0.634, 0.186, 192.0, 0.0, 0.0, 0.0, 0.0, 0.0, 0.0, 0.0, 0.0, 0.0, 1.6635918200491936E9, 0.0, 2022-09-19 17:50:20.049
21.0, -39037.947540038534, -32126.184657357295, -41234.74404033948, -38446.69919570675, -54291.247342973635, 187500.0, -37545.38745229095, -39224.472847518075, 0.79, -0.634, 0.186, 192.0, 0.0, 0.0, 0.0, 0.0, 0.0, 0.0, 0.0, 0.0, 0.0, 1.6635918200531807E9, 0.0, 2022-09-19 17:50:20.053
22.0, -39035.33238593726, -32132.97958767171, -41193.28155437488, -38466.65930350534, -54302.11029077892, 187500.0, -37406.02432561211, -39255.38531009976, 0.79, -0.634, 0.186, 192.0, 0.0, 0.0, 0.0, 0.0, 0.0, 0.0, 0.0, 0.0, 0.0, 1.6635918200571795E9, 0.0, 2022-09-19 17:50:20.057
23.0, -39042.350833696226, -32154.817242004545, -41215.00744998544, -38514.2908709396, -54335.54850048405, 187500.0, -37208.52431160502, -39316.36086897384, 0.79, -0.634, 0.186, 192.0, 0.0, 0.0, 0.0, 0.0, 0.0, 0.0, 0.0, 0.0, 0.0, 1.6635918200611744E9, 0.0, 2022-09-19 17:50:20.061
24.0, -39064.30024675134, -32169.614096833957, -41232.464162405035, -38519.52117914214, -54357.117933883426, 187500.0, -37295.42789404725, -39311.17526426021, 0.784, -0.64, 0.182, 192.0, 24.0, 128.0, 236.0, 0.0, 5.0, 176.0, 0.0, 0.0, 0.0, 1.6635918200642042E9, 0.0, 2022-09-19 17:50:20.064
25.0, -39051.2691797339, -32149.296361124085, -41244.66821487763, -38475.82351873202, -54330.13937832587, 187500.0, -37561.16778387639, -39255.74293801105, 0.784, -0.64, 0.182, 192.0, 0.0, 0.0, 0.0, 0.0, 0.0, 0.0, 0.0, 0.0, 0.0, 1.6635918200682054E9, 0.0, 2022-09-19 17:50:20.068
26.0, -39021.09432471923, -32122.608378244448, -41226.809171057845, -38458.32210282351, -54301.08211053397, 187500.0, -37544.18045809036, -39240.32023433688, 0.784, -0.64, 0.182, 192.0, 0.0, 0.0, 0.0, 0.0, 0.0, 0.0, 0.0, 0.0, 0.0, 1.6635918200732138E9, 0.0, 2022-09-19 17:50:20.073
27.0, -39020.82610378577, -32131.92905568231, -41213.75575229595, -38481.970248457226, -54304.79250011355, 187500.0, -37418.96598565173, -39273.2220021751, 0.784, -0.64, 0.182, 192.0, 0.0, 0.0, 0.0, 0.0, 0.0, 0.0, 0.0, 0.0, 0.0, 1.6635918200772896E9, 0.0, 2022-09-19 17:50:20.077
28.0, -39000.53071982035, -32134.11952663893, -41208.61485107122, -38508.76999005914, -54317.957677597726, 187500.0, -37203.20459642465, -39299.46295016562, 0.784, -0.64, 0.182, 192.0, 0.0, 0.0, 0.0, 0.0, 0.0, 0.0, 0.0, 0.0, 0.0, 1.6635918200812345E9, 0.0, 2022-09-19 17:50:20.081
29.0, -39030.191484712544, -32148.379939601415, -41239.59436888628, -38506.66892608034, -54331.56988997101, 187500.0, -37277.03240836053, -39286.85656629283, 0.784, -0.64, 0.182, 192.0, 0.0, 0.0, 0.0, 0.0, 0.0, 0.0, 0.0, 0.0, 0.0, 1.6635918200852296E9, 0.0, 2022-09-19 17:50:20.085
30.0, -39042.6637581186, -32141.629712775914, -41256.872267350234, -38471.129652396405, -54306.40182571433, 187500.0, -37550.684815726854, -39244.745879739035, 0.784, -0.64, 0.182, 192.0, 0.0, 0.0, 0.0, 0.0, 0.0, 0.0, 0.0, 0.0, 0.0, 1.6635918200892487E9, 0.0, 2022-09-19 17:50:20.089
31.0, -39018.0097839844, -32119.725003209714, -41219.34368840977, -38460.3784633134, -54280.22793295717, 187500.0, -37539.24072256574, -39238.62150175828, 0.784, -0.64, 0.182, 192.0, 0.0, 0.0, 0.0, 0.0, 0.0, 0.0, 0.0, 0.0, 0.0, 1.663591820092281E9, 0.0, 2022-09-19 17:50:20.092
32.0, -39005.85043500071, -32121.624901488412, -41189.682923517576, -38476.04703617657, -54281.0102440131, 187500.0, -37398.06710458602, -39263.72251078159, 0.784, -0.64, 0.182, 192.0, 0.0, 0.0, 0.0, 0.0, 0.0, 0.0, 0.0, 0.0, 0.0, 1.6635918200962467E9, 0.0, 2022-09-19 17:50:20.096
33.0, -39012.86888275968, -32143.127279654418, -41212.14642669516, -38509.95463251527, -54301.30562797852, 187500.0, -37184.853814226844, -39305.833197335385, 0.784, -0.64, 0.182, 192.0, 0.0, 0.0, 0.0, 0.0, 0.0, 0.0, 0.0, 0.0, 0.0, 1.6635918201012447E9, 0.0, 2022-09-19 17:50:20.101
34.0, -39065.39548222965, -32169.010599733665, -41242.25422647646, -38514.9390715288, -54331.41342775982, 187500.0, -37279.33463803943, -39297.093665253364, 0.778, -0.64, 0.176, 192.0, 24.0, 80.0, 236.0, 0.0, 5.0, 128.0, 0.0, 0.0, 0.0, 1.6635918201053057E9, 0.0, 2022-09-19 17:50:20.105
35.0, -39055.225438502486, -32152.26914313664, -41235.95103454006, -38463.75357672615, -54297.2152587432, 187500.0, -37543.80047843462, -39237.593321513334, 0.778, -0.64, 0.176, 192.0, 0.0, 0.0, 0.0, 0.0, 0.0, 0.0, 0.0, 0.0, 0.0, 1.663591820109275E9, 0.0, 2022-09-19 17:50:20.109
36.0, -39031.55494112432, -32138.366358085437, -41204.25626090244, -38451.46011727573, -54264.58171183845, 187500.0, -37532.9598823738, -39231.804219699414, 0.778, -0.64, 0.176, 192.0, 0.0, 0.0, 0.0, 0.0, 0.0, 0.0, 0.0, 0.0, 0.0, 1.6635918201133273E9, 0.0, 2022-09-19 17:50:20.113
37.0, -39016.5122171059, -32126.74345096868, -41204.83740625827, -38472.873088463915, -54273.50005787612, 187500.0, -37404.81733141153, -39253.127783909775, 0.778, -0.64, 0.176, 192.0, 0.0, 0.0, 0.0, 0.0, 0.0, 0.0, 0.0, 0.0, 0.0, 1.6635918201173325E9, 0.0, 2022-09-19 17:50:20.117
38.0, -39012.980641481954, -32137.606398773958, -41225.22219720152, -38509.2393766927, -54293.08018601897, 187500.0, -37193.90627073125, -39300.15585424374, 0.778, -0.64, 0.176, 192.0, 0.0, 0.0, 0.0, 0.0, 0.0, 0.0, 0.0, 0.0, 0.0, 1.6635918201203208E9, 0.0, 2022-09-19 17:50:20.120
39.0, -39052.18560125656, -32156.717140283246, -41258.615703417745, -38505.37252490193, -54312.66031416182, 187500.0, -37287.224803832156, -39288.30942968243, 0.778, -0.64, 0.176, 192.0, 0.0, 0.0, 0.0, 0.0, 0.0, 0.0, 0.0, 0.0, 0.0, 1.6635918201243105E9, 0.0, 2022-09-19 17:50:20.124
40.0, -39056.186563514064, -32139.32748309702, -41276.27358153744, -38456.3775010559, -54282.4631074027, 187500.0, -37555.602199507026, -39224.674013218166, 0.778, -0.64, 0.176, 192.0, 0.0, 0.0, 0.0, 0.0, 0.0, 0.0, 0.0, 0.0, 0.0, 1.6635918201293485E9, 0.0, 2022-09-19 17:50:20.129
41.0, -39013.67354556007, -32098.244976788163, -41167.71115871801, -38429.823628643, -54237.96078419218, 187500.0, -37530.52354222817, -39211.62059445627, 0.778, -0.64, 0.176, 192.0, 0.0, 0.0, 0.0, 0.0, 0.0, 0.0, 0.0, 0.0, 0.0, 1.6635918201333945E9, 0.0, 2022-09-19 17:50:20.133
42.0, -38998.04967618581, -32103.475284990705, -41167.06295812881, -38450.96837889771, -54247.16970290777, 187500.0, -37386.93593584728, -39243.60594077181, 0.778, -0.64, 0.176, 192.0, 0.0, 0.0, 0.0, 0.0, 0.0, 0.0, 0.0, 0.0, 0.0, 1.6635918201373713E9, 0.0, 2022-09-19 17:50:20.137
43.0, -39008.800865268815, -32125.670567234825, -41186.03958917136, -38494.2860596521, -54278.4621451452, 187500.0, -37182.21630838112, -39286.476586637094, 0.778, -0.64, 0.176, 192.0, 0.0, 0.0, 0.0, 0.0, 0.0, 0.0, 0.0, 0.0, 0.0, 1.6635918201413643E9, 0.0, 2022-09-19 17:50:20.141
44.0, -39033.34308068074, -32139.08161390801, -41225.02103150142, -38495.738923041696, -54300.344502966946, 187500.0, -37278.93230663923, -39276.77592954349, 0.778, -0.64, 0.176, 192.0, 0.0, 0.0, 0.0, 0.0, 0.0, 0.0, 0.0, 0.0, 0.0, 1.6635918201443624E9, 0.0, 2022-09-19 17:50:20.144
45.0, -39040.07095576179, -32130.051509148063, -41238.007395029956, -38456.019873144614, -54276.22697069967, 187500.0, -37547.77908894767, -39227.49033301954, 0.782, -0.642, 0.18, 192.0, 24.0, 112.0, 235.0, 240.0, 5.0, 160.0, 0.0, 0.0, 0.0, 1.663591820148393E9, 0.0, 2022-09-19 17:50:20.148
46.0, -39011.08074320325, -32106.20219781425, -41200.12118817821, -38438.98784386967, -54239.994792937614, 187500.0, -37528.48953348274, -39213.94517587962, 0.782, -0.642, 0.18, 192.0, 0.0, 0.0, 0.0, 0.0, 0.0, 0.0, 0.0, 0.0, 0.0, 1.6635918201523728E9, 0.0, 2022-09-19 17:50:20.152
47.0, -39014.455856616005, -32117.199256086264, -41188.96766769501, -38461.38429181389, -54248.51080757509, 187500.0, -37390.84749112696, -39240.85667620381, 0.782, -0.642, 0.18, 192.0, 0.0, 0.0, 0.0, 0.0, 0.0, 0.0, 0.0, 0.0, 0.0, 1.6635918201563995E9, 0.0, 2022-09-19 17:50:20.156
48.0, -39033.72306033648, -32145.02717793312, -41197.55073756585, -38509.798170304086, -54284.78768882605, 187500.0, -37187.35720960584, -39295.909022797234, 0.782, -0.642, 0.18, 192.0, 0.0, 0.0, 0.0, 0.0, 0.0, 0.0, 0.0, 0.0, 0.0, 1.6635918201614377E9, 0.0, 2022-09-19 17:50:20.161
49.0, -39043.22255172999, -32145.83184073351, -41225.53512162389, -38497.6388213204, -54293.88484881936, 187500.0, -37280.2510595621, -39278.31819991091, 0.782, -0.642, 0.18, 192.0, 0.0, 0.0, 0.0, 0.0, 0.0, 0.0, 0.0, 0.0, 0.0, 1.663591820165374E9, 0.0, 2022-09-19 17:50:20.165
50.0, -39038.48398190546, -32127.83868644699, -41219.27663317641, -38444.73224219468, -54249.62839479785, 187500.0, -37538.54781848763, -39210.23478630004, 0.782, -0.642, 0.18, 192.0, 0.0, 0.0, 0.0, 0.0, 0.0, 0.0, 0.0, 0.0, 0.0, 1.6635918201693792E9, 0.0, 2022-09-19 17:50:20.169
51.0, -39013.09240020423, -32103.07295359051, -41185.52549904889, -38428.14724780885, -54220.39231305031, 187500.0, -37505.55664367159, -39197.0025535825, 0.782, -0.642, 0.18, 192.0, 0.0, 0.0, 0.0, 0.0, 0.0, 0.0, 0.0, 0.0, 0.0, 1.6635918201724029E9, 0.0, 2022-09-19 17:50:20.172
52.0, -39011.661888559094, -32107.49859899266, -41182.8209379698, -38453.85175393245, -54238.36311559238, 187500.0, -37362.639589624356, -39236.11810637928, 0.782, -0.642, 0.18, 192.0, 0.0, 0.0, 0.0, 0.0, 0.0, 0.0, 0.0, 0.0, 0.0, 1.6635918201764393E9, 0.0, 2022-09-19 17:50:20.176
53.0, -39016.825141528265, -32127.391651557882, -41189.99584793995, -38496.230661419715, -54263.352365893414, 187500.0, -37166.748901218045, -39283.28028717999, 0.782, -0.642, 0.18, 192.0, 0.0, 0.0, 0.0, 0.0, 0.0, 0.0, 0.0, 0.0, 0.0, 1.6635918201803963E9, 0.0, 2022-09-19 17:50:20.180
54.0, -39039.37805168367, -32159.824032762535, -41238.94616829707, -38509.015859248146, -54297.528183165574, 187500.0, -37281.547460740505, -39288.95763027163, 0.782, -0.642, 0.18, 192.0, 0.0, 0.0, 0.0, 0.0, 0.0, 0.0, 0.0, 0.0, 0.0, 1.6635918201844065E9, 0.0, 2022-09-19 17:50:20.184
55.0, -39025.89994977712, -32127.50341028016, -41203.742170779966, -38445.246332317154, -54253.36113612189, 187500.0, -37533.25045505172, -39214.01223111299, 0.786, -0.638, 0.182, 192.0, 24.0, 144.0, 236.0, 16.0, 5.0, 176.0, 0.0, 0.0, 0.0, 1.6635918201894312E9, 0.0, 2022-09-19 17:50:20.189
56.0, -39005.582214067246, -32107.610357714937, -41186.888955460665, -38439.524285736596, -54234.36215333488, 187500.0, -37508.32825998405, -39210.95004212261, 0.786, -0.638, 0.182, 192.0, 0.0, 0.0, 0.0, 0.0, 0.0, 0.0, 0.0, 0.0, 0.0, 1.6635918201934736E9, 0.0, 2022-09-19 17:50:20.193
57.0, -39007.57151932377, -32112.79596242857, -41182.843289714256, -38462.34541682547, -54244.93452846224, 187500.0, -37366.99817979315, -39243.60594077181, 0.786, -0.638, 0.182, 192.0, 0.0, 0.0, 0.0, 0.0, 0.0, 0.0, 0.0, 0.0, 0.0, 1.6635918201975007E9, 0.0, 2022-09-19 17:50:20.197
58.0, -39009.8066937693, -32124.9329596678, -41184.20674612603, -38498.175263187324, -54266.16868569478, 187500.0, -37169.16288961922, -39284.77785405849, 0.786, -0.638, 0.182, 192.0, 0.0, 0.0, 0.0, 0.0, 0.0, 0.0, 0.0, 0.0, 0.0, 1.663591820200491E9, 0.0, 2022-09-19 17:50:20.200
59.0, -39034.952406281525, -32138.813392974545, -41229.55843562585, -38491.31327763954, -54279.155049223315, 187500.0, -37280.16165258428, -39268.28226665047, 0.786, -0.638, 0.182, 192.0, 0.0, 0.0, 0.0, 0.0, 0.0, 0.0, 0.0, 0.0, 0.0, 1.6635918202044876E9, 0.0, 2022-09-19 17:50:20.204
60.0, -39033.8124673143, -32130.74441322618, -41233.42528741661, -38453.85175393245, -54249.96367096468, 187500.0, -37540.93945514434, -39218.54963523742, 0.786, -0.638, 0.182, 192.0, 0.0, 0.0, 0.0, 0.0, 0.0, 0.0, 0.0, 0.0, 0.0, 1.663591820208515E9, 0.0, 2022-09-19 17:50:20.208
61.0, -39020.93786250804, -32123.569503256025, -41191.471063074, -38456.10928012244, -54235.457388813185, 187500.0, -37520.17468454536, -39227.37857429726, 0.786, -0.638, 0.182, 192.0, 0.0, 0.0, 0.0, 0.0, 0.0, 0.0, 0.0, 0.0, 0.0, 1.66359182021255E9, 0.0, 2022-09-19 17:50:20.212
62.0, -39002.54237682133, -32109.800828671556, -41178.19412686755, -38462.524230781106, -54233.713952745675, 187500.0, -37367.042883282054, -39238.800315713925, 0.786, -0.638, 0.182, 192.0, 0.0, 0.0, 0.0, 0.0, 0.0, 0.0, 0.0, 0.0, 0.0, 1.663591820216542E9, 0.0, 2022-09-19 17:50:20.216
63.0, -39019.57440609627, -32135.12535513942, -41219.813075043334, -38510.9381092713, -54274.97527301017, 187500.0, -37170.034607652975, -39294.05382800744, 0.786, -0.638, 0.182, 192.0, 0.0, 0.0, 0.0, 0.0, 0.0, 0.0, 0.0, 0.0, 0.0, 1.6635918202215383E9, 0.0, 2022-09-19 17:50:20.221
64.0, -39052.275008234385, -32160.628695562926, -41233.53704613889, -38505.95367025777, -54295.158898253314, 187500.0, -37290.10817886689, -39279.07815922239, 0.786, -0.638, 0.182, 192.0, 0.0, 0.0, 0.0, 0.0, 0.0, 0.0, 0.0, 0.0, 0.0, 1.6635918202255375E9, 0.0, 2022-09-19 17:50:20.225
65.0, -39044.183676741566, -32152.783233259113, -41213.9792697405, -38455.41637604432, -54254.6575373003, 187500.0, -37526.924911370865, -39220.985975383046, 0.788, -0.634, 0.186, 192.0, 24.0, 160.0, 236.0, 48.0, 5.0, 208.0, 0.0, 0.0, 0.0, 1.6635918202285035E9, 0.0, 2022-09-19 17:50:20.228
66.0, -39011.41601937008, -32117.1322008529, -41186.08429266027, -38439.47958224769, -54226.49433928661, 187500.0, -37496.928870311844, -39210.63711770024, 0.788, -0.634, 0.186, 192.0, 0.0, 0.0, 0.0, 0.0, 0.0, 0.0, 0.0, 0.0, 0.0, 1.6635918202324917E9, 0.0, 2022-09-19 17:50:20.232
67.0, -39005.157530922595, -32104.7269826802, -41169.47694652998, -38458.545620268065, -54231.746999233605, 187500.0, -37365.67942687028, -39237.459211046604, 0.788, -0.634, 0.186, 192.0, 0.0, 0.0, 0.0, 0.0, 0.0, 0.0, 0.0, 0.0, 0.0, 1.663591820236591E9, 0.0, 2022-09-19 17:50:20.236
68.0, -39011.930109492554, -32119.79205844308, -41176.87537394469, -38500.11986495493, -54261.98890948164, 187500.0, -37167.57591576289, -39281.00040924554, 0.788, -0.634, 0.186, 192.0, 0.0, 0.0, 0.0, 0.0, 0.0, 0.0, 0.0, 0.0, 0.0, 1.663591820240542E9, 0.0, 2022-09-19 17:50:20.240
69.0, -39039.37805168367, -32141.853230220466, -41215.36507789673, -38497.99644923168, -54283.1113079919, 187500.0, -37290.66697247827, -39272.48439460807, 0.788, -0.634, 0.186, 192.0, 0.0, 0.0, 0.0, 0.0, 0.0, 0.0, 0.0, 0.0, 0.0, 1.663591820245519E9, 0.0, 2022-09-19 17:50:20.245
70.0, -39032.1137347357, -32128.64334924738, -41217.04145873088, -38455.75165221115, -54253.04821169951, 187500.0, -37546.32622555807, -39223.08703936184, 0.788, -0.634, 0.186, 192.0, 0.0, 0.0, 0.0, 0.0, 0.0, 0.0, 0.0, 0.0, 0.0, 1.6635918202495484E9, 0.0, 2022-09-19 17:50:20.249
71.0, -39000.35190586471, -32105.509293736137, -41185.79371998236, -38445.80512592854, -54224.25916484108, 187500.0, -37512.50803619719, -39227.110353363794, 0.788, -0.634, 0.186, 192.0, 0.0, 0.0, 0.0, 0.0, 0.0, 0.0, 0.0, 0.0, 0.0, 1.6635918202535937E9, 0.0, 2022-09-19 17:50:20.253
72.0, -38994.27223137287, -32108.30326179305, -41169.81222269681, -38457.338626067474, -54223.365095062865, 187500.0, -37367.37815944888, -39242.30953959341, 0.788, -0.634, 0.186, 192.0, 0.0, 0.0, 0.0, 0.0, 0.0, 0.0, 0.0, 0.0, 0.0, 1.6635918202566636E9, 0.0, 2022-09-19 17:50:20.256
73.0, -39005.04577220032, -32128.620997502923, -41169.141670363155, -38492.43086486231, -54248.44375234172, 187500.0, -37162.65853198273, -39274.7195690536, 0.788, -0.634, 0.186, 192.0, 0.0, 0.0, 0.0, 0.0, 0.0, 0.0, 0.0, 0.0, 0.0, 1.6635918202605639E9, 0.0, 2022-09-19 17:50:20.260
74.0, -39038.12635399418, -32137.02525341812, -41204.368019624715, -38484.116015924934, -54263.86645601589, 187500.0, -37275.57954497094, -39255.74293801105, 0.788, -0.634, 0.186, 192.0, 0.0, 0.0, 0.0, 0.0, 0.0, 0.0, 0.0, 0.0, 0.0, 1.6635918202645912E9, 0.0, 2022-09-19 17:50:20.264
75.0, -39041.25559821792, -32122.20604684425, -41202.44576960156, -38439.63604445887, -54230.83057771094, 187500.0, -37525.62851019246, -39206.85967288729, 0.782, -0.632, 0.192, 192.0, 24.0, 112.0, 236.0, 64.0, 6.0, 0.0, 0.0, 0.0, 0.0, 1.6635918202685547E9, 0.0, 2022-09-19 17:50:20.268
76.0, -39013.91941474908, -32111.432506016794, -41178.372940823196, -38437.93731188027, -54211.71983620165, 187500.0, -37496.928870311844, -39211.397077011716, 0.782, -0.632, 0.192, 192.0, 0.0, 0.0, 0.0, 0.0, 0.0, 0.0, 0.0, 0.0, 0.0, 1.6635918202725596E9, 0.0, 2022-09-19 17:50:20.272
77.0, -39008.24207165743, -32111.92424439481, -41165.7665569504, -38459.84202144647, -54216.950144404196, 187500.0, -37346.45692663872, -39239.87319944778, 0.782, -0.632, 0.192, 192.0, 0.0, 0.0, 0.0, 0.0, 0.0, 0.0, 0.0, 0.0, 0.0, 1.663591820277655E9, 0.0, 2022-09-19 17:50:20.277
78.0, -38998.653173286104, -32117.7804014421, -41162.6149609822, -38494.062542207546, -54237.2008248807, 187500.0, -37136.73050841457, -39279.36873190031, 0.782, -0.632, 0.192, 192.0, 0.0, 0.0, 0.0, 0.0, 0.0, 0.0, 0.0, 0.0, 0.0, 1.6635918202816072E9, 0.0, 2022-09-19 17:50:20.281
79.0, -39020.893159019135, -32134.566561528038, -41203.96568822452, -38486.59705955948, -54255.171627422766, 187500.0, -37269.43281524573, -39258.33574036786, 0.782, -0.632, 0.192, 192.0, 0.0, 0.0, 0.0, 0.0, 0.0, 0.0, 0.0, 0.0, 0.0, 1.663591820284602E9, 0.0, 2022-09-19 17:50:20.284
80.0, -39032.985452769455, -32133.583084772003, -41222.09295297777, -38451.974207398205, -54236.82084522496, 187500.0, -37529.62947244996, -39213.43108575715, 0.782, -0.632, 0.192, 192.0, 0.0, 0.0, 0.0, 0.0, 0.0, 0.0, 0.0, 0.0, 0.0, 1.6635918202886097E9, 0.0, 2022-09-19 17:50:20.288
81.0, -39017.02630722836, -32118.272139820117, -41208.10076094875, -38441.58064622649, -54208.38942627781, 187500.0, -37490.96095454228, -39209.161902566186, 0.782, -0.632, 0.192, 192.0, 0.0, 0.0, 0.0, 0.0, 0.0, 0.0, 0.0, 0.0, 0.0, 1.6635918202927067E9, 0.0, 2022-09-19 17:50:20.292
82.0, -39005.04577220032, -32103.74350592417, -41192.38748459667, -38451.415413786825, -54201.01335060756, 187500.0, -37343.75236555962, -39226.26098707449, 0.782, -0.632, 0.192, 192.0, 0.0, 0.0, 0.0, 0.0, 0.0, 0.0, 0.0, 0.0, 0.0, 1.6635918202966447E9, 0.0, 2022-09-19 17:50:20.296
83.0, -39019.99908924092, -32120.663776476835, -41159.88804815865, -38481.18793740129, -54223.54390901851, 187500.0, -37153.09198535585, -39260.14623166874, 0.782, -0.632, 0.192, 192.0, 0.0, 0.0, 0.0, 0.0, 0.0, 0.0, 0.0, 0.0, 0.0, 1.663591820300714E9, 0.0, 2022-09-19 17:50:20.300
84.0, -39035.645310359636, -32149.721044268736, -41183.13386239218, -38482.4843385797, -54249.04724944202, 187500.0, -37295.27143183606, -39253.8653914768, 0.782, -0.632, 0.192, 192.0, 0.0, 0.0, 0.0, 0.0, 0.0, 0.0, 0.0, 0.0, 0.0, 1.6635918203057168E9, 0.0, 2022-09-19 17:50:20.305
85.0, -39013.964118237986, -32120.887293921387, -41182.66447575861, -38424.79448614055, -54206.60128672139, 187500.0, -37533.83160040755, -39185.75962612148, 0.782, -0.636, 0.192, 192.0, 24.0, 112.0, 236.0, 32.0, 6.0, 0.0, 0.0, 0.0, 0.0, 1.6635918203096423E9, 0.0, 2022-09-19 17:50:20.309
86.0, -38987.81257722528, -32094.69104941977, -41153.406042266615, -38409.57294816649, -54179.71213814165, 187500.0, -37485.75299808419, -39181.31162897487, 0.782, -0.636, 0.192, 192.0, 0.0, 0.0, 0.0, 0.0, 0.0, 0.0, 0.0, 0.0, 0.0, 1.6635918203126984E9, 0.0, 2022-09-19 17:50:20.312
87.0, -38998.13908316363, -32107.900930392854, -41151.70730968801, -38445.4251462728, -54199.940466873704, 187500.0, -37344.065289982, -39221.47771376106, 0.782, -0.636, 0.192, 192.0, 0.0, 0.0, 0.0, 0.0, 0.0, 0.0, 0.0, 0.0, 0.0, 1.663591820316677E9, 0.0, 2022-09-19 17:50:20.316
88.0, -39021.161379952595, -32137.20406737376, -41163.77725169388, -38497.34824864248, -54238.87720571485, 187500.0, -37158.65756972523, -39277.44648187715, 0.782, -0.636, 0.192, 192.0, 0.0, 0.0, 0.0, 0.0, 0.0, 0.0, 0.0, 0.0, 0.0, 1.663591820320737E9, 0.0, 2022-09-19 17:50:20.320
89.0, -39038.46163016101, -32138.92515169682, -41196.0755224318, -38480.629143789905, -54246.789723252026, 187500.0, -37286.53189975404, -39251.876086220276, 0.782, -0.636, 0.192, 192.0, 0.0, 0.0, 0.0, 0.0, 0.0, 0.0, 0.0, 0.0, 0.0, 1.6635918203246589E9, 0.0, 2022-09-19 17:50:20.324
90.0, -39019.9096822631, -32120.35085205446, -41195.65083928715, -38438.42905025829, -54222.471025284656, 187500.0, -37536.37969927546, -39207.552576965405, 0.782, -0.636, 0.192, 192.0, 0.0, 0.0, 0.0, 0.0, 0.0, 0.0, 0.0, 0.0, 0.0, 1.6635918203306837E9, 0.0, 2022-09-19 17:50:20.330
91.0, -38991.43355982704, -32101.597738456458, -41163.553734249326, -38430.98591935467, -54202.86854539735, 187500.0, -37493.39729468791, -39201.249385029005, 0.782, -0.636, 0.192, 192.0, 0.0, 0.0, 0.0, 0.0, 0.0, 0.0, 0.0, 0.0, 0.0, 1.6635918203336487E9, 0.0, 2022-09-19 17:50:20.333
92.0, -38979.72124573246, -32093.50640696364, -41147.594588708234, -38443.1229165939, -54204.36611227586, 187500.0, -37338.522057357084, -39220.85186491631, 0.782, -0.636, 0.192, 192.0, 0.0, 0.0, 0.0, 0.0, 0.0, 0.0, 0.0, 0.0, 0.0, 1.6635918203376858E9, 0.0, 2022-09-19 17:50:20.337
93.0, -38999.03315294185, -32119.881465420898, -41162.95023714903, -38489.68160029431, -54241.38060109384, 187500.0, -37148.867505653805, -39276.79828128794, 0.782, -0.636, 0.192, 192.0, 0.0, 0.0, 0.0, 0.0, 0.0, 0.0, 0.0, 0.0, 0.0, 1.6635918203407376E9, 0.0, 2022-09-19 17:50:20.340
94.0, -39036.67349060458, -32141.137974397898, -41203.71981903551, -38481.746731012674, -54264.604063582905, 187500.0, -37293.1033126239, -39259.58743805736, 0.782, -0.636, 0.192, 192.0, 0.0, 0.0, 0.0, 0.0, 0.0, 0.0, 0.0, 0.0, 0.0, 1.6635918203447008E9, 0.0, 2022-09-19 17:50:20.344
95.0, -39034.952406281525, -32137.807564474057, -41205.64206905867, -38441.200666570745, -54236.97730743615, 187500.0, -37538.27959755416, -39214.79454216892, 0.786, -0.636, 0.19, 192.0, 24.0, 144.0, 236.0, 32.0, 5.0, 240.0, 0.0, 0.0, 0.0, 1.6635918203487053E9, 0.0, 2022-09-19 17:50:20.348
96.0, -39010.70076354752, -32121.624901488412, -41187.13482464967, -38441.17831482629, -54218.51476651606, 187500.0, -37498.35938195698, -39211.06180084489, 0.786, -0.636, 0.19, 192.0, 0.0, 0.0, 0.0, 0.0, 0.0, 0.0, 0.0, 0.0, 0.0, 1.6635918203527837E9, 0.0, 2022-09-19 17:50:20.352
97.0, -39000.128388420155, -32101.776552412102, -41159.843344669745, -38449.00142538565, -54208.21061232217, 187500.0, -37343.417089392795, -39218.43787651514, 0.786, -0.636, 0.19, 192.0, 0.0, 0.0, 0.0, 0.0, 0.0, 0.0, 0.0, 0.0, 0.0, 1.6635918203567145E9, 0.0, 2022-09-19 17:50:20.356
98.0, -39000.57542330926, -32106.917453636823, -41163.17375459358, -38483.08783567999, -54230.67411549975, 187500.0, -37144.039528851456, -39260.190935157654, 0.786, -0.636, 0.19, 192.0, 0.0, 0.0, 0.0, 0.0, 0.0, 0.0, 0.0, 0.0, 0.0, 1.663591820360711E9, 0.0, 2022-09-19 17:50:20.360
99.0, -39041.032080773366, -32138.187544129796, -41215.96857499702, -38492.922603240324, -54261.56422633699, 187500.0, -37304.43564706274, -39261.48733633606, 0.786, -0.636, 0.19, 192.0, 0.0, 0.0, 0.0, 0.0, 0.0, 0.0, 0.0, 0.0, 0.0, 1.6635918203657374E9, 0.0, 2022-09-19 17:50:20.365
100.0, -39027.01753699989, -32118.339195053482, -41228.17262746962, -38453.06944287651, -54229.13184513234, 187500.0, -37550.81892619359, -39208.446646743614, 0.786, -0.636, 0.19, 192.0, 0.0, 0.0, 0.0, 0.0, 0.0, 0.0, 0.0, 0.0, 0.0, 1.663591820368708E9, 0.0, 2022-09-19 17:50:20.368
101.0, -39001.00010645391, -32103.318822779518, -41171.10862387522, -38443.145268338354, -54207.718873944155, 187500.0, -37496.25831797819, -39206.56910020937, 0.786, -0.636, 0.19, 192.0, 0.0, 0.0, 0.0, 0.0, 0.0, 0.0, 0.0, 0.0, 0.0, 1.6635918203727276E9, 0.0, 2022-09-19 17:50:20.372
102.0, -38997.692048274526, -32111.387802527883, -41162.12322260418, -38464.64764650436, -54216.70427521518, 187500.0, -37350.99433076314, -39231.40188829922, 0.786, -0.636, 0.19, 192.0, 0.0, 0.0, 0.0, 0.0, 0.0, 0.0, 0.0, 0.0, 0.0, 1.6635918203767495E9, 0.0, 2022-09-19 17:50:20.376
103.0, -38986.33736209123, -32108.54913098206, -41160.55860049232, -38492.60967881795, -54232.73047598964, 187500.0, -37150.36507253231, -39263.78956601496, 0.786, -0.636, 0.19, 192.0, 0.0, 0.0, 0.0, 0.0, 0.0, 0.0, 0.0, 0.0, 0.0, 1.663591820380726E9, 0.0, 2022-09-19 17:50:20.380
104.0, -39021.13902820814, -32130.520895781625, -41218.29315642037, -38486.82057700403, -54249.6060430534, 187500.0, -37298.557138271, -39247.7633652405, 0.786, -0.636, 0.19, 192.0, 0.0, 0.0, 0.0, 0.0, 0.0, 0.0, 0.0, 0.0, 0.0, 1.6635918203848088E9, 0.0, 2022-09-19 17:50:20.384
105.0, -39020.15555145211, -32121.177866599308, -41197.81895849931, -38443.23467531618, -54214.51380425857, 187500.0, -37541.20767607781, -39203.52926296345, 0.782, -0.634, 0.19, 192.0, 24.0, 112.0, 236.0, 48.0, 5.0, 240.0, 0.0, 0.0, 0.0, 1.6635918203887916E9, 0.0, 2022-09-19 17:50:20.388
106.0, -39009.71728679148, -32107.431543759292, -41179.73639723497, -38444.776945683596, -54203.15911807527, 187500.0, -37500.23692849123, -39213.565196223884, 0.782, -0.634, 0.19, 192.0, 0.0, 0.0, 0.0, 0.0, 0.0, 0.0, 0.0, 0.0, 0.0, 1.6635918203937893E9, 0.0, 2022-09-19 17:50:20.393
107.0, -39010.05256295831, -32110.73960193868, -41181.368074580205, -38467.7321872392, -54212.457443768675, 187500.0, -37349.988502262655, -39238.12976338026, 0.782, -0.634, 0.19, 192.0, 0.0, 0.0, 0.0, 0.0, 0.0, 0.0, 0.0, 0.0, 0.0, 1.6635918203967752E9, 0.0, 2022-09-19 17:50:20.396
108.0, -38994.83102498425, -32128.866866691933, -41162.19027783755, -38501.50567311116, -54244.77806625105, 187500.0, -37150.09685159884, -39283.21323194662, 0.782, -0.634, 0.19, 192.0, 0.0, 0.0, 0.0, 0.0, 0.0, 0.0, 0.0, 0.0, 0.0, 1.6635918204008098E9, 0.0, 2022-09-19 17:50:20.400
109.0, -39024.312975920795, -32145.809488989056, -41207.05022895935, -38496.14125444189, -54262.63711007084, 187500.0, -37309.48714130964, -39269.08692945087, 0.782, -0.634, 0.19, 192.0, 0.0, 0.0, 0.0, 0.0, 0.0, 0.0, 0.0, 0.0, 0.0, 1.6635918204048023E9, 0.0, 2022-09-19 17:50:20.404
110.0, -39011.460722858996, -32118.36154679794, -41197.59544105476, -38445.6263119729, -54220.5487752615, 187500.0, -37541.78882143364, -39207.35141126531, 0.782, -0.634, 0.19, 192.0, 0.0, 0.0, 0.0, 0.0, 0.0, 0.0, 0.0, 0.0, 0.0, 1.6635918204089563E9, 0.0, 2022-09-19 17:50:20.408
111.0, -38986.15854813559, -32100.547206467058, -41174.304923332325, -38438.00436711364, -54204.05318785348, 187500.0, -37493.24083247672, -39203.909242619186, 0.782, -0.634, 0.19, 192.0, 0.0, 0.0, 0.0, 0.0, 0.0, 0.0, 0.0, 0.0, 0.0, 1.6635918204128766E9, 0.0, 2022-09-19 17:50:20.412
112.0, -38985.778568479844, -32104.97285186921, -41161.40796678162, -38462.18895461428, -54210.17756583424, 187500.0, -37338.34324340144, -39237.816838957886, 0.782, -0.634, 0.19, 192.0, 0.0, 0.0, 0.0, 0.0, 0.0, 0.0, 0.0, 0.0, 0.0, 1.6635918204169044E9, 0.0, 2022-09-19 17:50:20.416
113.0, -38999.18961515303, -32125.715270723736, -41177.43416755607, -38496.3871236309, -54239.726572004154, 187500.0, -37142.20668580612, -39284.28611568047, 0.782, -0.634, 0.19, 192.0, 0.0, 0.0, 0.0, 0.0, 0.0, 0.0, 0.0, 0.0, 0.0, 1.6635918204219124E9, 0.0, 2022-09-19 17:50:20.421
114.0, -39030.16913296808, -32140.467422064237, -41212.414647628626, -38482.70785602425, -54254.054040200004, 187500.0, -37298.33362082644, -39257.62048454529, 0.782, -0.634, 0.19, 192.0, 0.0, 0.0, 0.0, 0.0, 0.0, 0.0, 0.0, 0.0, 0.0, 1.6635918204249763E9, 0.0, 2022-09-19 17:50:20.424
115.0, -39027.48692363345, -32120.484962521194, -41196.96959221001, -38436.79737291305, -54216.05607462598, 187500.0, -37533.13869632944, -39200.847053628815, 0.79, -0.634, 0.188, 192.0, 24.0, 176.0, 236.0, 48.0, 5.0, 224.0, 0.0, 0.0, 0.0, 1.663591820427884E9, 0.0, 2022-09-19 17:50:20.427
116.0, -39003.16822566608, -32106.626880958902, -41173.746129720945, -38435.29980603454, -54200.40985350727, 187500.0, -37491.072713264555, -39205.4068094977, 0.79, -0.634, 0.188, 192.0, 0.0, 0.0, 0.0, 0.0, 0.0, 0.0, 0.0, 0.0, 0.0, 1.6635918204328797E9, 0.0, 2022-09-19 17:50:20.432
117.0, -38982.24699285591, -32101.955366367743, -41158.85986791371, -38452.734166709684, -54207.94239138871, 187500.0, -37334.02935672156, -39227.78090569746, 0.79, -0.634, 0.188, 192.0, 0.0, 0.0, 0.0, 0.0, 0.0, 0.0, 0.0, 0.0, 0.0, 1.6635918204368827E9, 0.0, 2022-09-19 17:50:20.436
118.0, -38994.42869358405, -32118.40625028685, -41166.124184861685, -38491.872071250924, -54235.54679579101, 187500.0, -37146.54292423045, -39271.21034517412, 0.79, -0.634, 0.188, 192.0, 0.0, 0.0, 0.0, 0.0, 0.0, 0.0, 0.0, 0.0, 0.0, 1.663591820440854E9, 0.0, 2022-09-19 17:50:20.440
119.0, -39032.963101025, -32148.201125645774, -41215.78976104138, -38493.704914296264, -54261.89950250382, 187500.0, -37320.61831004838, -39262.224943903086, 0.79, -0.634, 0.188, 192.0, 0.0, 0.0, 0.0, 0.0, 0.0, 0.0, 0.0, 0.0, 0.0, 1.6635918204450107E9, 0.0, 2022-09-19 17:50:20.445
120.0, -39032.001976013424, -32132.55490452706, -41215.00744998544, -38457.986826656685, -54231.92581318925, 187500.0, -37548.78491744815, -39223.04233587293, 0.79, -0.634, 0.188, 192.0, 0.0, 0.0, 0.0, 0.0, 0.0, 0.0, 0.0, 0.0, 0.0, 1.6635918204498937E9, 0.0, 2022-09-19 17:50:20.449
121.0, -39014.27704266036, -32115.746392696667, -41186.10664440473, -38449.49316376366, -54212.59155423541, 187500.0, -37490.82684407554, -39215.3533357803, 0.79, -0.634, 0.188, 192.0, 0.0, 0.0, 0.0, 0.0, 0.0, 0.0, 0.0, 0.0, 0.0, 1.6635918204529457E9, 0.0, 2022-09-19 17:50:20.452
122.0, -39007.34800187922, -32115.858151418946, -41171.39919655314, -38466.435786060785, -54218.894746171805, 187500.0, -37339.72905155767, -39240.00730991451, 0.79, -0.634, 0.188, 192.0, 0.0, 0.0, 0.0, 0.0, 0.0, 0.0, 0.0, 0.0, 0.0, 1.6635918204568684E9, 0.0, 2022-09-19 17:50:20.456
123.0, -38996.44035058503, -32119.814410187533, -41173.07557738729, -38496.431827119806, -54242.028801683045, 187500.0, -37144.84419165185, -39277.40177838824, 0.79, -0.634, 0.188, 192.0, 0.0, 0.0, 0.0, 0.0, 0.0, 0.0, 0.0, 0.0, 0.0, 1.6635918204608428E9, 0.0, 2022-09-19 17:50:20.460
124.0, -39023.03892648684, -32139.93098019731, -41217.73436280899, -38487.267611893134, -54260.11136294739, 187500.0, -37318.874873980865, -39261.867315991796, 0.79, -0.634, 0.188, 192.0, 0.0, 0.0, 0.0, 0.0, 0.0, 0.0, 0.0, 0.0, 0.0, 1.6635918204650462E9, 0.0, 2022-09-19 17:50:20.465
125.0, -39026.57050211078, -32129.64917774787, -41220.12599946571, -38449.89549516386, -54235.47974055765, 187500.0, -37556.60802800751, -39224.78577194044, 0.788, -0.628, 0.184, 192.0, 24.0, 160.0, 236.0, 96.0, 5.0, 192.0, 0.0, 0.0, 0.0, 1.6635918204688945E9, 0.0, 2022-09-19 17:50:20.468
126.0, -39018.59092934024, -32120.999052643667, -41195.0249904424, -38452.30948356503, -54220.92875491724, 187500.0, -37505.86956809396, -39224.83047542936, 0.788, -0.628, 0.184, 192.0, 0.0, 0.0, 0.0, 0.0, 0.0, 0.0, 0.0, 0.0, 0.0, 1.6635918204729192E9, 0.0, 2022-09-19 17:50:20.472
127.0, -38990.18186213754, -32114.58410198499, -41185.48079555998, -38465.94404768277, -54224.79560670801, 187500.0, -37334.252874166115, -39246.10933615081, 0.788, -0.628, 0.184, 192.0, 0.0, 0.0, 0.0, 0.0, 0.0, 0.0, 0.0, 0.0, 0.0, 1.6635918204778993E9, 0.0, 2022-09-19 17:50:20.477
128.0, -38995.09924591771, -32130.811468459546, -41179.4681763015, -38497.70587655376, -54247.99671745262, 187500.0, -37138.67511018218, -39285.18018545869, 0.788, -0.628, 0.184, 192.0, 0.0, 0.0, 0.0, 0.0, 0.0, 0.0, 0.0, 0.0, 0.0, 1.6635918204808896E9, 0.0, 2022-09-19 17:50:20.480
129.0, -39037.589912127245, -32158.952314728776, -41222.45058088906, -38500.09751321048, -54275.77993581056, 187500.0, -37316.4608855797, -39278.74288305556, 0.788, -0.628, 0.184, 192.0, 0.0, 0.0, 0.0, 0.0, 0.0, 0.0, 0.0, 0.0, 0.0, 1.6635918204840221E9, 0.0, 2022-09-19 17:50:20.484
130.0, -39028.783324811855, -32132.89018069389, -41200.21059515603, -38453.33766380998, -54240.68769701573, 187500.0, -37541.94528364483, -39223.3105568064, 0.788, -0.628, 0.184, 192.0, 0.0, 0.0, 0.0, 0.0, 0.0, 0.0, 0.0, 0.0, 0.0, 1.663591820488927E9, 0.0, 2022-09-19 17:50:20.488
131.0, -39000.19544365352, -32101.284814034083, -41159.44101326955, -38440.440707259266, -54215.40787403678, 187500.0, -37477.10287297999, -39213.72165843507, 0.788, -0.628, 0.184, 192.0, 0.0, 0.0, 0.0, 0.0, 0.0, 0.0, 0.0, 0.0, 0.0, 1.663591820492898E9, 0.0, 2022-09-19 17:50:20.492
132.0, -38988.728998747945, -32106.06808734752, -41158.14461209114, -38464.580591271, -54229.95885967718, 187500.0, -37326.29565314003, -39242.53305703796, 0.788, -0.628, 0.184, 192.0, 0.0, 0.0, 0.0, 0.0, 0.0, 0.0, 0.0, 0.0, 0.0, 1.663591820496958E9, 0.0, 2022-09-19 17:50:20.496
133.0, -39002.94470822152, -32131.034985904098, -41170.21455409701, -38503.65144057888, -54260.290176903036, 187500.0, -37147.99578762004, -39285.38135115878, 0.788, -0.628, 0.184, 192.0, 0.0, 0.0, 0.0, 0.0, 0.0, 0.0, 0.0, 0.0, 0.0, 1.6635918205010312E9, 0.0, 2022-09-19 17:50:20.501
134.0, -39044.27308371939, -32155.666608293846, -41215.0298017299, -38500.05280972157, -54280.205581212715, 187500.0, -37332.308272398506, -39269.288095150965, 0.788, -0.628, 0.184, 192.0, 0.0, 0.0, 0.0, 0.0, 0.0, 0.0, 0.0, 0.0, 0.0, 1.6635918205050006E9, 0.0, 2022-09-19 17:50:20.505
135.0, -39031.7114033355, -32136.198238873276, -41209.84419701627, -38460.69138773577, -54248.28729013053, 187500.0, -37549.94720815983, -39224.606957984804, 0.788, -0.634, 0.182, 192.0, 24.0, 160.0, 236.0, 48.0, 5.0, 176.0, 0.0, 0.0, 0.0, 1.6635918205089793E9, 0.0, 2022-09-19 17:50:20.508
136.0, -39001.98358320994, -32109.465552504727, -41178.75292047893, -38449.49316376366, -54221.755769462085, 187500.0, -37480.36622767046, -39212.46996074557, 0.788, -0.634, 0.182, 192.0, 0.0, 0.0, 0.0, 0.0, 0.0, 0.0, 0.0, 0.0, 0.0, 1.6635918205119765E9, 0.0, 2022-09-19 17:50:20.511
137.0, -38995.85920522919, -32119.702651465257, -41169.342836063246, -38478.259858877645, -54231.88110970034, 187500.0, -37325.62510080637, -39248.366862340794, 0.788, -0.634, 0.182, 192.0, 0.0, 0.0, 0.0, 0.0, 0.0, 0.0, 0.0, 0.0, 0.0, 1.6635918205169683E9, 0.0, 2022-09-19 17:50:20.516
138.0, -39025.229397443465, -32151.576239058526, -41182.08333040278, -38516.74956282968, -54260.80426702551, 187500.0, -37151.19208707716, -39290.49990063905, 0.788, -0.634, 0.182, 192.0, 0.0, 0.0, 0.0, 0.0, 0.0, 0.0, 0.0, 0.0, 0.0, 1.66359182052098E9, 0.0, 2022-09-19 17:50:20.520
139.0, -39051.89502857865, -32162.059207208065, -41219.85777853224, -38493.973135229724, -54268.515618862584, 187500.0, -37324.820438005976, -39262.04612994744, 0.788, -0.634, 0.182, 192.0, 0.0, 0.0, 0.0, 0.0, 0.0, 0.0, 0.0, 0.0, 0.0, 1.6635918205250816E9, 0.0, 2022-09-19 17:50:20.525
140.0, -39042.26142671841, -32143.060224421053, -41210.045362716366, -38457.8750679344, -54238.050191170005, 187500.0, -37549.164897103896, -39223.46701901758, 0.788, -0.634, 0.182, 192.0, 0.0, 0.0, 0.0, 0.0, 0.0, 0.0, 0.0, 0.0, 0.0, 1.6635918205290017E9, 0.0, 2022-09-19 17:50:20.529
141.0, -38998.787283752834, -32121.893122421876, -41179.31171409032, -38459.84202144647, -54226.382580564336, 187500.0, -37487.027047518146, -39233.0112139, 0.788, -0.634, 0.182, 192.0, 0.0, 0.0, 0.0, 0.0, 0.0, 0.0, 0.0, 0.0, 0.0, 1.663591820533005E9, 0.0, 2022-09-19 17:50:20.533
142.0, -38986.33736209123, -32119.36737529843, -41166.414757539605, -38480.33857111199, -54237.37963883635, 187500.0, -37327.4579438517, -39255.921751966685, 0.788, -0.634, 0.182, 192.0, 0.0, 0.0, 0.0, 0.0, 0.0, 0.0, 0.0, 0.0, 0.0, 1.663591820537066E9, 0.0, 2022-09-19 17:50:20.537
143.0, -38990.114806904174, -32130.230323103708, -41173.85788844322, -38514.78260931762, -54268.739136307144, 187500.0, -37144.33010152938, -39299.64176412127, 0.788, -0.634, 0.182, 192.0, 0.0, 0.0, 0.0, 0.0, 0.0, 0.0, 0.0, 0.0, 0.0, 1.6635918205400574E9, 0.0, 2022-09-19 17:50:20.540
144.0, -39028.939787023046, -32149.452823335272, -41219.34368840977, -38506.82538829153, -54288.7662993391, 187500.0, -37334.65520556631, -39284.35317091384, 0.788, -0.634, 0.182, 192.0, 0.0, 0.0, 0.0, 0.0, 0.0, 0.0, 0.0, 0.0, 0.0, 1.663591820545102E9, 0.0, 2022-09-19 17:50:20.545
145.0, -39023.82123754278, -32128.88921843639, -41206.08910394777, -38461.6301610029, -54255.104572189404, 187500.0, -37558.12794663048, -39233.16767611119, 0.788, -0.634, 0.182, 192.0, 0.0, 0.0, 0.0, 0.0, 0.0, 0.0, 0.0, 0.0, 0.0, 1.663591820549086E9, 0.0, 2022-09-19 17:50:20.549
146.0, -39015.84166477223, -32123.055413133552, -41184.47496705949, -38458.56797201252, -54237.73726674763, 187500.0, -37498.49349242372, -39230.01608014299, 0.782, -0.642, 0.18, 192.0, 24.0, 112.0, 235.0, 240.0, 5.0, 160.0, 0.0, 0.0, 0.0, 1.6635918205530908E9, 0.0, 2022-09-19 17:50:20.553
147.0, -38997.84851048571, -32126.184657357295, -41171.6674174866, -38483.17724265781, -54240.95591794919, 187500.0, -37331.458906109205, -39259.073347934886, 0.782, -0.642, 0.18, 192.0, 0.0, 0.0, 0.0, 0.0, 0.0, 0.0, 0.0, 0.0, 0.0, 1.6635918205570993E9, 0.0, 2022-09-19 17:50:20.557
148.0, -39007.28094664585, -32138.88044820791, -41176.76361522241, -38512.1898069608, -54260.73721179214, 187500.0, -37148.643988209245, -39294.165586729716, 0.782, -0.642, 0.18, 192.0, 0.0, 0.0, 0.0, 0.0, 0.0, 0.0, 0.0, 0.0, 0.0, 1.6635918205610268E9, 0.0, 2022-09-19 17:50:20.561
149.0, -39044.69776686404, -32155.219573404742, -41214.73922905198, -38495.20248117477, -54269.49909561862, 187500.0, -37334.878723010865, -39267.27643814999, 0.782, -0.642, 0.18, 192.0, 0.0, 0.0, 0.0, 0.0, 0.0, 0.0, 0.0, 0.0, 0.0, 1.663591820565235E9, 0.0, 2022-09-19 17:50:20.565
150.0, -39045.65889187562, -32140.825049975523, -41207.229042914994, -38456.936294667285, -54234.29509810151, 187500.0, -37557.79267046364, -39217.38734452574, 0.782, -0.642, 0.18, 192.0, 0.0, 0.0, 0.0, 0.0, 0.0, 0.0, 0.0, 0.0, 0.0, 1.6635918205701065E9, 0.0, 2022-09-19 17:50:20.570
151.0, -39027.62103410018, -32126.251712590663, -41181.792757724856, -38458.56797201252, -54217.3971792933, 187500.0, -37495.85598657799, -39225.41162078519, 0.782, -0.642, 0.18, 192.0, 0.0, 0.0, 0.0, 0.0, 0.0, 0.0, 0.0, 0.0, 0.0, 1.6635918205730765E9, 0.0, 2022-09-19 17:50:20.573
152.0, -39027.5092753779, -32135.684148750803, -41181.54688853585, -38489.368675871934, -54232.90928994528, 187500.0, -37332.7106037987, -39264.14719392624, 0.782, -0.642, 0.18, 192.0, 0.0, 0.0, 0.0, 0.0, 0.0, 0.0, 0.0, 0.0, 0.0, 1.6635918205770829E9, 0.0, 2022-09-19 17:50:20.577
153.0, -39016.80278978381, -32142.903762209866, -41182.88799320316, -38508.3900104034, -54251.86356924338, 187500.0, -37150.58858997686, -39285.291944180964, 0.782, -0.642, 0.18, 192.0, 0.0, 0.0, 0.0, 0.0, 0.0, 0.0, 0.0, 0.0, 0.0, 1.6635918205811281E9, 0.0, 2022-09-19 17:50:20.581
154.0, -39037.56756038279, -32149.765747757647, -41221.221234944016, -38490.15098692787, -54265.56518859449, 187500.0, -37350.86022029641, -39260.10152817983, 0.782, -0.642, 0.18, 192.0, 0.0, 0.0, 0.0, 0.0, 0.0, 0.0, 0.0, 0.0, 0.0, 1.6635918205861468E9, 0.0, 2022-09-19 17:50:20.586
155.0, -39023.50831312041, -32121.490791021683, -41196.56726080981, -38442.40766077133, -54223.230984596135, 187500.0, -37554.819888451086, -39205.295050775414, 0.782, -0.642, 0.18, 192.0, 0.0, 0.0, 0.0, 0.0, 0.0, 0.0, 0.0, 0.0, 0.0, 1.6635918205901313E9, 0.0, 2022-09-19 17:50:20.590
156.0, -39012.26538565938, -32100.726020422702, -41169.87927793017, -38435.88095139038, -54202.8461936529, 187500.0, -37485.93181203983, -39205.295050775414, 0.786, -0.646, 0.182, 192.0, 24.0, 144.0, 235.0, 208.0, 5.0, 176.0, 0.0, 0.0, 0.0, 1.6635918205931408E9, 0.0, 2022-09-19 17:50:20.593
157.0, -39000.620126798174, -32108.9291106378, -41161.83264992627, -38466.301675594055, -54214.983190892126, 187500.0, -37322.160580415795, -39239.04618490293, 0.786, -0.646, 0.182, 192.0, 0.0, 0.0, 0.0, 0.0, 0.0, 0.0, 0.0, 0.0, 0.0, 1.6635918205961351E9, 0.0, 2022-09-19 17:50:20.596
158.0, -39000.03898144233, -32124.0835933785, -41171.89093493115, -38505.37252490193, -54245.538025562535, 187500.0, -37148.0181393645, -39279.7710633005, 0.786, -0.646, 0.182, 192.0, 0.0, 0.0, 0.0, 0.0, 0.0, 0.0, 0.0, 0.0, 0.0, 1.6635918206001208E9, 0.0, 2022-09-19 17:50:20.600
159.0, -39024.603548598716, -32136.868791206933, -41213.308717406835, -38492.922603240324, -54262.30183390401, 187500.0, -37341.9642260032, -39257.2181531451, 0.786, -0.646, 0.182, 192.0, 0.0, 0.0, 0.0, 0.0, 0.0, 0.0, 0.0, 0.0, 0.0, 1.6635918206051092E9, 0.0, 2022-09-19 17:50:20.605
160.0, -39016.89219676163, -32116.97573864171, -41206.80435977034, -38457.74095746767, -54231.277612600046, 187500.0, -37548.53904825915, -39214.19104506863, 0.786, -0.646, 0.182, 192.0, 0.0, 0.0, 0.0, 0.0, 0.0, 0.0, 0.0, 0.0, 0.0, 1.6635918206090865E9, 0.0, 2022-09-19 17:50:20.609
161.0, -39010.43254261405, -32112.326575795007, -41184.63142927068, -38463.150079625855, -54220.16879560576, 187500.0, -37485.64123936191, -39228.607920242306, 0.786, -0.646, 0.182, 192.0, 0.0, 0.0, 0.0, 0.0, 0.0, 0.0, 0.0, 0.0, 0.0, 1.6635918206131191E9, 0.0, 2022-09-19 17:50:20.613
