%OpenBCI Raw EEG Data
%Number of channels = 8
%Sample Rate = 250 Hz
%Board = OpenBCI_GUI$BoardCytonSerial
Sample Index, EXG Channel 0, EXG Channel 1, EXG Channel 2, EXG Channel 3, EXG Channel 4, EXG Channel 5, EXG Channel 6, EXG Channel 7, Accel Channel 0, Accel Channel 1, Accel Channel 2, Other, Other, Other, Other, Other, Other, Other, Analog Channel 0, Analog Channel 1, Analog Channel 2, Timestamp, Other, Timestamp (Formatted)
43.0, -7929.6836769203765, -18875.981137273448, -30868.899031746274, -12584.747384160446, -187500.02235174447, 187500.0, -41966.83072648415, -9334.066132791773, 0.61, -0.6940000000000001, 0.434, 192.0, 19.0, 16.0, 234.0, 80.0, 13.0, 144.0, 0.0, 0.0, 0.0, 1.6635896575705616E9, 0.0, 2022-09-19 17:14:17.570
44.0, -7929.303697264636, -18872.270747693867, -30875.44809287168, -12582.378099248184, -187500.02235174447, 187500.0, -41968.909438718496, -9318.777539584344, 0.61, -0.6940000000000001, 0.434, 192.0, 0.0, 0.0, 0.0, 0.0, 0.0, 0.0, 0.0, 0.0, 0.0, 1.6635896575705872E9, 0.0, 2022-09-19 17:14:17.570
45.0, -7912.562240667611, -18859.887881265626, -30888.881491289318, -12584.076831826787, -187500.02235174447, 187500.0, -41979.861793501594, -9309.99330401341, 0.61, -0.6940000000000001, 0.434, 192.0, 0.0, 0.0, 0.0, 0.0, 0.0, 0.0, 0.0, 0.0, 0.0, 1.6635896575706017E9, 0.0, 2022-09-19 17:14:17.570
0.0, 0.0, 0.0, 0.0, 0.0, 0.0, 0.0, 0.0, 0.0, 0.61, -0.6940000000000001, 0.434, 192.0, 0.0, 0.0, 0.0, 0.0, 0.0, 0.0, 0.0, 0.0, 0.0, 1.6635896576507025E9, 0.0, 2022-09-19 17:14:17.650
1.0, -10084.302435434156, -18453.309649623592, -30038.17409732033, -11614.324046888834, -128153.07863391384, 187500.0, -41443.88931320779, -9287.216876413451, 0.618, -0.6980000000000001, 0.44, 192.0, 19.0, 80.0, 234.0, 48.0, 13.0, 192.0, 0.0, 0.0, 0.0, 1.6635896576667824E9, 0.0, 2022-09-19 17:14:17.666
2.0, -10109.179927012912, -18463.524396839668, -30042.37622527793, -11614.189936422103, -128262.66923697821, 187500.0, -41456.5851040584, -9299.487984119414, 0.618, -0.6980000000000001, 0.44, 192.0, 0.0, 0.0, 0.0, 0.0, 0.0, 0.0, 0.0, 0.0, 0.0, 1.6635896576707206E9, 0.0, 2022-09-19 17:14:17.670
3.0, -10106.207145000357, -18459.255213648703, -30043.51616424515, -11612.781776521419, -128349.12578453134, 187500.0, -41448.04673767647, -9292.715405549456, 0.618, -0.6980000000000001, 0.44, 192.0, 0.0, 0.0, 0.0, 0.0, 0.0, 0.0, 0.0, 0.0, 0.0, 1.663589657673776E9, 0.0, 2022-09-19 17:14:17.673
4.0, -10084.458897645343, -18451.297992622614, -30046.645408468892, -11611.798299765385, -128419.04204118754, 187500.0, -41440.82712421741, -9288.021539213842, 0.618, -0.6980000000000001, 0.44, 192.0, 0.0, 0.0, 0.0, 0.0, 0.0, 0.0, 0.0, 0.0, 0.0, 1.6635896576788132E9, 0.0, 2022-09-19 17:14:17.678
5.0, -10062.397725867955, -18452.974373456764, -30054.602629494984, -11616.58157307882, -128484.24207976367, 187500.0, -41445.02925217501, -9291.486059604415, 0.618, -0.6980000000000001, 0.44, 192.0, 0.0, 0.0, 0.0, 0.0, 0.0, 0.0, 0.0, 0.0, 0.0, 1.6635896576818092E9, 0.0, 2022-09-19 17:14:17.681
6.0, -10069.729098049296, -18464.217300917782, -30055.496699273193, -11605.20453515107, -128573.89492677391, 187500.0, -41453.388804601294, -9281.941864721997, 0.618, -0.6980000000000001, 0.44, 192.0, 0.0, 0.0, 0.0, 0.0, 0.0, 0.0, 0.0, 0.0, 0.0, 1.6635896576847932E9, 0.0, 2022-09-19 17:14:17.684
7.0, -10091.18677272639, -18477.65069933542, -30051.18281259332, -11599.191915892592, -128678.121111169, 187500.0, -41451.7347755116, -9283.26061764486, 0.618, -0.6980000000000001, 0.44, 192.0, 0.0, 0.0, 0.0, 0.0, 0.0, 0.0, 0.0, 0.0, 0.0, 1.6635896576897676E9, 0.0, 2022-09-19 17:14:17.689
8.0, -10085.911761034939, -18473.403867888912, -30043.918495645346, -11593.849848967773, -128760.50964123127, 187500.0, -41445.6327492753, -9281.271312388339, 0.608, -0.6880000000000001, 0.444, 192.0, 19.0, 0.0, 234.0, 128.0, 13.0, 224.0, 0.0, 0.0, 0.0, 1.6635896576937602E9, 0.0, 2022-09-19 17:14:17.693
9.0, -10067.4268683704, -18465.044315462626, -30053.70855971677, -11596.979093191516, -128829.62123508708, 187500.0, -41449.36549059934, -9269.044908171285, 0.608, -0.6880000000000001, 0.444, 192.0, 0.0, 0.0, 0.0, 0.0, 0.0, 0.0, 0.0, 0.0, 0.0, 1.6635896576979392E9, 0.0, 2022-09-19 17:14:17.697
10.0, -10038.928394189883, -18452.907318223395, -30061.889298187412, -11599.326026359324, -128888.42867474898, 187500.0, -41447.10796440935, -9257.801980710266, 0.608, -0.6880000000000001, 0.444, 192.0, 0.0, 0.0, 0.0, 0.0, 0.0, 0.0, 0.0, 0.0, 0.0, 1.6635896577018552E9, 0.0, 2022-09-19 17:14:17.701
11.0, -10042.370562836, -18455.99185895823, -30047.986513136213, -11597.224962380526, -128972.96297227895, 187500.0, -41441.72119399562, -9266.563864536747, 0.608, -0.6880000000000001, 0.444, 192.0, 0.0, 0.0, 0.0, 0.0, 0.0, 0.0, 0.0, 0.0, 0.0, 1.663589657705825E9, 0.0, 2022-09-19 17:14:17.705
12.0, -10067.583330581587, -18470.162864942893, -30052.881545171924, -11602.902305472173, -129076.58565957376, 187500.0, -41448.76199349904, -9290.636693315113, 0.608, -0.6880000000000001, 0.444, 192.0, 0.0, 0.0, 0.0, 0.0, 0.0, 0.0, 0.0, 0.0, 0.0, 1.6635896577098293E9, 0.0, 2022-09-19 17:14:17.709
13.0, -10069.773801538206, -18472.532149855157, -30064.70561798878, -11603.39404385019, -129162.59517223778, 187500.0, -41452.85236273437, -9288.26740840285, 0.608, -0.6880000000000001, 0.444, 192.0, 0.0, 0.0, 0.0, 0.0, 0.0, 0.0, 0.0, 0.0, 0.0, 1.663589657712885E9, 0.0, 2022-09-19 17:14:17.712
14.0, -10055.401629853444, -18468.486484108744, -30073.28868785962, -11601.874125227228, -129233.94194053912, 187500.0, -41454.90872322425, -9288.423870614037, 0.608, -0.6880000000000001, 0.444, 192.0, 0.0, 0.0, 0.0, 0.0, 0.0, 0.0, 0.0, 0.0, 0.0, 1.6635896577178192E9, 0.0, 2022-09-19 17:14:17.717
15.0, -10028.490129529255, -18463.70321079531, -30068.930097690834, -11588.261912853946, -129294.42576103518, 187500.0, -41444.87278996382, -9263.389916824093, 0.608, -0.6880000000000001, 0.444, 192.0, 0.0, 0.0, 0.0, 0.0, 0.0, 0.0, 0.0, 0.0, 0.0, 1.6635896577218294E9, 0.0, 2022-09-19 17:14:17.721
16.0, -10037.766103478207, -18481.584606359556, -30073.691019259815, -11581.534037772899, -129385.95615457966, 187500.0, -41455.132240668805, -9248.347192805672, 0.608, -0.6880000000000001, 0.444, 192.0, 0.0, 0.0, 0.0, 0.0, 0.0, 0.0, 0.0, 0.0, 0.0, 1.6635896577259476E9, 0.0, 2022-09-19 17:14:17.725
17.0, -10064.632900313485, -18498.549580401133, -30072.014638425666, -11581.489334283988, -129494.25035646564, 187500.0, -41456.9874354586, -9261.087687145196, 0.608, -0.6880000000000001, 0.444, 192.0, 0.0, 0.0, 0.0, 0.0, 0.0, 0.0, 0.0, 0.0, 0.0, 1.663589657729824E9, 0.0, 2022-09-19 17:14:17.729
18.0, -10067.4268683704, -18502.774060103187, -30077.155539650386, -11580.751726716964, -129584.46199708724, 187500.0, -41458.99909245958, -9264.887483702598, 0.612, -0.6940000000000001, 0.444, 192.0, 19.0, 32.0, 234.0, 80.0, 13.0, 224.0, 0.0, 0.0, 0.0, 1.6635896577338212E9, 0.0, 2022-09-19 17:14:17.733
19.0, -10046.12565590449, -18495.509743155213, -30075.926193705345, -11584.260950596446, -129649.68438740783, 187500.0, -41454.30522612396, -9263.032288912807, 0.612, -0.6940000000000001, 0.444, 192.0, 0.0, 0.0, 0.0, 0.0, 0.0, 0.0, 0.0, 0.0, 0.0, 1.66358965773784E9, 0.0, 2022-09-19 17:14:17.737
20.0, -10023.438635282355, -18488.84892330753, -30083.749304264704, -11596.442651324589, -129713.40921084992, 187500.0, -41458.417947103735, -9259.567768522236, 0.612, -0.6940000000000001, 0.444, 192.0, 0.0, 0.0, 0.0, 0.0, 0.0, 0.0, 0.0, 0.0, 0.0, 1.6635896577408752E9, 0.0, 2022-09-19 17:14:17.740
21.0, -10025.383237049966, -18497.744917600743, -30080.12832166294, -11601.382386849213, -129801.00569737026, 187500.0, -41467.60451407487, -9260.953576678465, 0.612, -0.6940000000000001, 0.444, 192.0, 0.0, 0.0, 0.0, 0.0, 0.0, 0.0, 0.0, 0.0, 0.0, 1.6635896577459E9, 0.0, 2022-09-19 17:14:17.745
22.0, -10049.456065828332, -18521.974208590294, -30066.42670231184, -11606.72445377403, -129908.22701552237, 187500.0, -41457.993263959084, -9274.49873381838, 0.612, -0.6940000000000001, 0.444, 192.0, 0.0, 0.0, 0.0, 0.0, 0.0, 0.0, 0.0, 0.0, 0.0, 1.6635896577498615E9, 0.0, 2022-09-19 17:14:17.749
23.0, -10051.221853640302, -18525.394025491958, -30060.7940627091, -11610.658360798165, -129997.67869683252, 187500.0, -41447.1303161538, -9273.336443106704, 0.612, -0.6940000000000001, 0.444, 192.0, 0.0, 0.0, 0.0, 0.0, 0.0, 0.0, 0.0, 0.0, 0.0, 1.6635896577538683E9, 0.0, 2022-09-19 17:14:17.753
24.0, -10036.17912962188, -18518.24146726626, -30061.66578074286, -11620.58253533632, -130071.37239830165, 187500.0, -41443.308167851945, -9274.92341696303, 0.612, -0.6940000000000001, 0.444, 192.0, 0.0, 0.0, 0.0, 0.0, 0.0, 0.0, 0.0, 0.0, 0.0, 1.663589657757905E9, 0.0, 2022-09-19 17:14:17.757
25.0, -10004.774928662173, -18505.94800781584, -30059.095330130498, -11624.717608060553, -130131.92327403108, 187500.0, -41437.8319904604, -9267.972024437431, 0.612, -0.6940000000000001, 0.444, 192.0, 0.0, 0.0, 0.0, 0.0, 0.0, 0.0, 0.0, 0.0, 0.0, 1.6635896577609327E9, 0.0, 2022-09-19 17:14:17.760
26.0, -10007.613600207997, -18518.219115521802, -30061.643428998403, -11630.864337785762, -130220.90556870766, 187500.0, -41450.103098166364, -9283.595893811691, 0.612, -0.6940000000000001, 0.444, 192.0, 0.0, 0.0, 0.0, 0.0, 0.0, 0.0, 0.0, 0.0, 0.0, 1.663589657764932E9, 0.0, 2022-09-19 17:14:17.764
27.0, -10033.049885398137, -18538.76036867623, -30057.217783596254, -11623.197689437591, -130326.67402347017, 187500.0, -41451.46655457813, -9297.588085840713, 0.612, -0.6940000000000001, 0.444, 192.0, 0.0, 0.0, 0.0, 0.0, 0.0, 0.0, 0.0, 0.0, 0.0, 1.663589657768931E9, 0.0, 2022-09-19 17:14:17.768
28.0, -10042.907004702927, -18545.33178154609, -30065.443225555806, -11631.289020930413, -130419.52316993751, 187500.0, -41458.82027850393, -9316.810586072277, 0.604, -0.6880000000000001, 0.436, 192.0, 18.0, 224.0, 234.0, 128.0, 13.0, 160.0, 0.0, 0.0, 0.0, 1.6635896577739408E9, 0.0, 2022-09-19 17:14:17.773
29.0, -10029.719475474296, -18540.14617683246, -30068.48306280173, -11628.53975636241, -130491.2052144057, 187500.0, -41459.44612734868, -9284.847591501188, 0.604, -0.6880000000000001, 0.436, 192.0, 0.0, 0.0, 0.0, 0.0, 0.0, 0.0, 0.0, 0.0, 0.0, 1.663589657777968E9, 0.0, 2022-09-19 17:14:17.777
30.0, -9999.365806503989, -18526.735130159275, -30066.0467226561, -11620.716645803053, -130546.81635461049, 187500.0, -41457.56858081443, -9260.30537608926, 0.604, -0.6880000000000001, 0.436, 192.0, 0.0, 0.0, 0.0, 0.0, 0.0, 0.0, 0.0, 0.0, 0.0, 1.6635896577819564E9, 0.0, 2022-09-19 17:14:17.781
31.0, -9999.611675692997, -18531.697217428355, -30049.50643175917, -11615.508689344966, -130627.77437302761, 187500.0, -41444.91749345273, -9265.26746335834, 0.604, -0.6880000000000001, 0.436, 192.0, 0.0, 0.0, 0.0, 0.0, 0.0, 0.0, 0.0, 0.0, 0.0, 1.6635896577859716E9, 0.0, 2022-09-19 17:14:17.785
32.0, -10023.103359115525, -18543.81186292313, -30037.61530370895, -11605.226886895525, -130730.32417658856, 187500.0, -41438.94957768316, -9277.024480941831, 0.604, -0.6880000000000001, 0.436, 192.0, 0.0, 0.0, 0.0, 0.0, 0.0, 0.0, 0.0, 0.0, 0.0, 1.6635896577889812E9, 0.0, 2022-09-19 17:14:17.788
33.0, -10026.478472528277, -18540.794377421666, -30042.219763066743, -11598.230790881014, -130816.80307588614, 187500.0, -41438.703708494155, -9278.11971642014, 0.604, -0.6880000000000001, 0.436, 192.0, 0.0, 0.0, 0.0, 0.0, 0.0, 0.0, 0.0, 0.0, 0.0, 1.6635896577931235E9, 0.0, 2022-09-19 17:14:17.793
34.0, -10012.173356076879, -18528.43386273788, -30048.03121662512, -11611.77594802093, -130886.78638777572, 187500.0, -41435.0827258924, -9279.237303642905, 0.604, -0.6880000000000001, 0.436, 192.0, 0.0, 0.0, 0.0, 0.0, 0.0, 0.0, 0.0, 0.0, 0.0, 1.663589657796975E9, 0.0, 2022-09-19 17:14:17.796
35.0, -9985.038338308137, -18512.452365452333, -30052.255696327175, -11616.15688993417, -130945.16914429297, 187500.0, -41436.3791270708, -9275.728079763423, 0.604, -0.6880000000000001, 0.436, 192.0, 0.0, 0.0, 0.0, 0.0, 0.0, 0.0, 0.0, 0.0, 0.0, 1.663589657800974E9, 0.0, 2022-09-19 17:14:17.800
36.0, -9986.73707088674, -18522.53300220168, -30049.864059670457, -11603.125822916725, -131026.64125283257, 187500.0, -41445.87861846431, -9288.669739803045, 0.604, -0.6880000000000001, 0.436, 192.0, 0.0, 0.0, 0.0, 0.0, 0.0, 0.0, 0.0, 0.0, 0.0, 1.6635896578060365E9, 0.0, 2022-09-19 17:14:17.806
37.0, -10023.393931793444, -18553.467816527824, -30064.23623135522, -11603.05876768336, -131139.18228616504, 187500.0, -41458.23913314809, -9311.245001702906, 0.604, -0.6880000000000001, 0.436, 192.0, 0.0, 0.0, 0.0, 0.0, 0.0, 0.0, 0.0, 0.0, 0.0, 1.6635896578099697E9, 0.0, 2022-09-19 17:14:17.809
38.0, -10030.166510363402, -18557.736999718785, -30050.46755677075, -11593.536924545399, -131225.70588895155, 187500.0, -41445.699804508666, -9312.116719736663, 0.602, -0.686, 0.444, 192.0, 18.0, 208.0, 234.0, 144.0, 13.0, 224.0, 0.0, 0.0, 0.0, 1.663589657813982E9, 0.0, 2022-09-19 17:14:17.813
39.0, -10013.737978188752, -18541.934316388884, -30037.101213586477, -11581.15405811716, -131292.492901384, 187500.0, -41431.841722946374, -9282.724175777934, 0.602, -0.686, 0.444, 192.0, 0.0, 0.0, 0.0, 0.0, 0.0, 0.0, 0.0, 0.0, 0.0, 1.6635896578170135E9, 0.0, 2022-09-19 17:14:17.817
40.0, -9988.97224533227, -18526.690426670364, -30043.717329945248, -11582.919845929127, -131351.16623057917, 187500.0, -41436.602644515355, -9261.69118424549, 0.602, -0.686, 0.444, 192.0, 0.0, 0.0, 0.0, 0.0, 0.0, 0.0, 0.0, 0.0, 0.0, 1.663589657821041E9, 0.0, 2022-09-19 17:14:17.821
41.0, -9996.303617513611, -18533.887688384973, -30045.79604217959, -11587.72547098702, -131438.5615513994, 187500.0, -41442.63761551829, -9261.892349945587, 0.602, -0.686, 0.444, 192.0, 0.0, 0.0, 0.0, 0.0, 0.0, 0.0, 0.0, 0.0, 0.0, 1.6635896578249867E9, 0.0, 2022-09-19 17:14:17.824
42.0, -10023.595097493542, -18540.5261564882, -30037.883524642413, -11589.938293688094, -131543.39123289482, 187500.0, -41439.37426082781, -9275.370451852137, 0.602, -0.686, 0.444, 192.0, 0.0, 0.0, 0.0, 0.0, 0.0, 0.0, 0.0, 0.0, 0.0, 1.6635896578290431E9, 0.0, 2022-09-19 17:14:17.829
43.0, -10031.373504563988, -18535.29584828566, -30045.080786357023, -11599.10250891477, -131632.0158996601, 187500.0, -41441.78824922899, -9290.569638081746, 0.602, -0.686, 0.444, 192.0, 0.0, 0.0, 0.0, 0.0, 0.0, 0.0, 0.0, 0.0, 0.0, 1.663589657834097E9, 0.0, 2022-09-19 17:14:17.834
44.0, -10019.325914302579, -18513.301731741634, -30050.46755677075, -11607.126785174225, -131702.31213597205, 187500.0, -41442.548208540466, -9288.066242702753, 0.602, -0.686, 0.444, 192.0, 0.0, 0.0, 0.0, 0.0, 0.0, 0.0, 0.0, 0.0, 0.0, 1.6635896578380473E9, 0.0, 2022-09-19 17:14:17.838
45.0, -9992.839097123038, -18479.41648714739, -30044.298475301086, -11605.897439229184, -131758.99615991072, 187500.0, -41437.27319684901, -9274.051698929274, 0.602, -0.686, 0.444, 192.0, 0.0, 0.0, 0.0, 0.0, 0.0, 0.0, 0.0, 0.0, 0.0, 1.6635896578420584E9, 0.0, 2022-09-19 17:14:17.842
46.0, -9997.421204736376, -18479.260024936204, -30047.070091613543, -11620.403721380679, -131842.7704981292, 187500.0, -41443.39757482977, -9283.998225211886, 0.602, -0.686, 0.444, 192.0, 0.0, 0.0, 0.0, 0.0, 0.0, 0.0, 0.0, 0.0, 0.0, 1.6635896578450737E9, 0.0, 2022-09-19 17:14:17.845
47.0, -10028.356019062521, -18494.19099023235, -30054.401463794886, -11632.20544245308, -131951.0423482707, 187500.0, -41452.36062435635, -9295.330559650727, 0.602, -0.686, 0.444, 192.0, 0.0, 0.0, 0.0, 0.0, 0.0, 0.0, 0.0, 0.0, 0.0, 1.663589657849094E9, 0.0, 2022-09-19 17:14:17.849
48.0, -10033.429865053877, -18486.256120950715, -30052.7921381941, -11636.25110819949, -132037.54359931275, 187500.0, -41446.07978416441, -9293.31890264975, 0.604, -0.6900000000000001, 0.444, 192.0, 18.0, 224.0, 234.0, 112.0, 13.0, 224.0, 0.0, 0.0, 0.0, 1.6635896578530855E9, 0.0, 2022-09-19 17:14:17.853
49.0, -10018.923582902382, -18472.062763221595, -30044.253771812175, -11635.692314588108, -132106.38697223508, 187500.0, -41437.72023173812, -9284.221742656438, 0.604, -0.6900000000000001, 0.444, 192.0, 0.0, 0.0, 0.0, 0.0, 0.0, 0.0, 0.0, 0.0, 0.0, 1.6635896578570335E9, 0.0, 2022-09-19 17:14:17.857
50.0, -9992.481469211754, -18457.243556647725, -30036.050681597077, -11624.270573171447, -132163.0486444293, 187500.0, -41433.56280726943, -9266.675623259023, 0.604, -0.6900000000000001, 0.444, 192.0, 0.0, 0.0, 0.0, 0.0, 0.0, 0.0, 0.0, 0.0, 0.0, 1.6635896578621E9, 0.0, 2022-09-19 17:14:17.862
51.0, -9997.97999834776, -18469.335850398045, -30046.8912776579, -11638.30746868938, -132249.16991581558, 187500.0, -41441.11769689533, -9287.88742874711, 0.604, -0.6900000000000001, 0.444, 192.0, 0.0, 0.0, 0.0, 0.0, 0.0, 0.0, 0.0, 0.0, 0.0, 1.6635896578660932E9, 0.0, 2022-09-19 17:14:17.866
52.0, -10028.534833018164, -18489.05008900763, -30047.114795102454, -11643.180148980637, -132356.3018269899, 187500.0, -41441.922359695716, -9301.477289375936, 0.604, -0.6900000000000001, 0.444, 192.0, 0.0, 0.0, 0.0, 0.0, 0.0, 0.0, 0.0, 0.0, 0.0, 1.6635896578701067E9, 0.0, 2022-09-19 17:14:17.870
53.0, -10038.995449423248, -18492.04522276464, -30053.86502192796, -11643.805997825384, -132447.18401994515, 187500.0, -41447.59970278737, -9297.453975373981, 0.604, -0.6900000000000001, 0.444, 192.0, 0.0, 0.0, 0.0, 0.0, 0.0, 0.0, 0.0, 0.0, 0.0, 1.6635896578731475E9, 0.0, 2022-09-19 17:14:17.873
54.0, -10023.2151178378, -18487.731336084766, -30052.00982713817, -11636.16170122167, -132516.27326205652, 187500.0, -41440.178923628206, -9283.662949045056, 0.604, -0.6900000000000001, 0.444, 192.0, 0.0, 0.0, 0.0, 0.0, 0.0, 0.0, 0.0, 0.0, 0.0, 1.6635896578771343E9, 0.0, 2022-09-19 17:14:17.877
55.0, -9994.068443068081, -18479.729411569766, -30060.123510375444, -11635.468797143556, -132569.17984118222, 187500.0, -41445.94567369767, -9272.442373328493, 0.604, -0.6900000000000001, 0.444, 192.0, 0.0, 0.0, 0.0, 0.0, 0.0, 0.0, 0.0, 0.0, 0.0, 1.6635896578811283E9, 0.0, 2022-09-19 17:14:17.881
56.0, -10002.048015838625, -18495.24152222175, -30060.972876664746, -11637.234584955524, -132656.64221723584, 187500.0, -41455.691034280186, -9285.719309534945, 0.604, -0.6900000000000001, 0.444, 192.0, 0.0, 0.0, 0.0, 0.0, 0.0, 0.0, 0.0, 0.0, 0.0, 1.6635896578851333E9, 0.0, 2022-09-19 17:14:17.885
57.0, -10032.356981320023, -18506.75267061623, -30055.787271951114, -11629.322067418345, -132765.40580575535, 187500.0, -41461.97187447213, -9298.07982421873, 0.604, -0.6900000000000001, 0.444, 192.0, 0.0, 0.0, 0.0, 0.0, 0.0, 0.0, 0.0, 0.0, 0.0, 1.663589657889167E9, 0.0, 2022-09-19 17:14:17.889
58.0, -10039.755408734729, -18497.94608330084, -30052.61332423846, -11616.000427722982, -132850.610655619, 187500.0, -41455.80279300246, -9285.831068257221, 0.602, -0.6940000000000001, 0.438, 192.0, 18.0, 208.0, 234.0, 80.0, 13.0, 176.0, 0.0, 0.0, 0.0, 1.663589657894092E9, 0.0, 2022-09-19 17:14:17.894
59.0, -10027.886632428961, -18484.244463949737, -30047.159498591365, -11610.479546842522, -132919.05169714114, 187500.0, -41447.42088883172, -9269.737812249401, 0.602, -0.6940000000000001, 0.438, 192.0, 0.0, 0.0, 0.0, 0.0, 0.0, 0.0, 0.0, 0.0, 0.0, 1.66358965789715E9, 0.0, 2022-09-19 17:14:17.897
60.0, -10000.483393726754, -18473.068591722084, -30052.769786449648, -11616.91684924565, -132976.2498112023, 187500.0, -41454.2828743795, -9264.328690091215, 0.602, -0.6940000000000001, 0.438, 192.0, 0.0, 0.0, 0.0, 0.0, 0.0, 0.0, 0.0, 0.0, 0.0, 1.663589657901156E9, 0.0, 2022-09-19 17:14:17.901
61.0, -10000.148117559924, -18480.5117226257, -30043.13618458941, -11619.017913224448, -133056.42551856345, 187500.0, -41450.05839467745, -9280.489001332404, 0.602, -0.6940000000000001, 0.438, 192.0, 0.0, 0.0, 0.0, 0.0, 0.0, 0.0, 0.0, 0.0, 0.0, 1.6635896579051845E9, 0.0, 2022-09-19 17:14:17.905
62.0, -10027.260783584212, -18498.571932145587, -30039.202277565277, -11610.25602939797, -133159.10943259115, 187500.0, -41450.77365050002, -9285.40638511257, 0.602, -0.6940000000000001, 0.438, 192.0, 0.0, 0.0, 0.0, 0.0, 0.0, 0.0, 0.0, 0.0, 0.0, 1.6635896579091463E9, 0.0, 2022-09-19 17:14:17.909
63.0, -10040.358905835023, -18503.019929292193, -30044.18671657881, -11617.699160301587, -133251.3103784693, 187500.0, -41448.65023477677, -9295.956408495476, 0.602, -0.6940000000000001, 0.438, 192.0, 0.0, 0.0, 0.0, 0.0, 0.0, 0.0, 0.0, 0.0, 0.0, 1.6635896579131637E9, 0.0, 2022-09-19 17:14:17.913
64.0, -10032.044056897648, -18496.493219911245, -30051.38397829342, -11625.499919116488, -133325.29465261634, 187500.0, -41452.04769993397, -9307.51226037887, 0.602, -0.6940000000000001, 0.438, 192.0, 0.0, 0.0, 0.0, 0.0, 0.0, 0.0, 0.0, 0.0, 0.0, 1.6635896579171746E9, 0.0, 2022-09-19 17:14:17.917
65.0, -10002.159774560901, -18477.33777491305, -30050.8922399154, -11623.376503393234, -133380.05642653184, 187500.0, -41454.30522612396, -9296.291684662305, 0.602, -0.6940000000000001, 0.438, 192.0, 0.0, 0.0, 0.0, 0.0, 0.0, 0.0, 0.0, 0.0, 0.0, 1.6635896579222128E9, 0.0, 2022-09-19 17:14:17.922
66.0, -10000.617504193486, -18480.914054025896, -30036.430661252816, -11616.380407378723, -133457.7957937474, 187500.0, -41453.522915068024, -9282.880637989121, 0.602, -0.6940000000000001, 0.438, 192.0, 0.0, 0.0, 0.0, 0.0, 0.0, 0.0, 0.0, 0.0, 0.0, 1.6635896579251666E9, 0.0, 2022-09-19 17:14:17.925
67.0, -10036.290888344156, -18503.42226069239, -30033.971969362734, -11614.905192244672, -133567.3640450673, 187500.0, -41455.46751683563, -9303.488946376914, 0.602, -0.6940000000000001, 0.438, 192.0, 0.0, 0.0, 0.0, 0.0, 0.0, 0.0, 0.0, 0.0, 0.0, 1.66358965792923E9, 0.0, 2022-09-19 17:14:17.929
68.0, -10050.953632706838, -18505.545676415644, -30034.75428041867, -11618.570878335344, -133661.82251713544, 187500.0, -41450.14780165527, -9318.911650051075, 0.606, -0.6940000000000001, 0.44, 192.0, 18.0, 240.0, 234.0, 80.0, 13.0, 192.0, 0.0, 0.0, 0.0, 1.6635896579332004E9, 0.0, 2022-09-19 17:14:17.933
69.0, -10041.65530701343, -18495.777964088677, -30041.32569328853, -11624.516442360455, -133734.24216917064, 187500.0, -41453.031176690005, -9314.284838948828, 0.606, -0.6940000000000001, 0.44, 192.0, 0.0, 0.0, 0.0, 0.0, 0.0, 0.0, 0.0, 0.0, 0.0, 1.6635896579372537E9, 0.0, 2022-09-19 17:14:17.937
70.0, -10010.049940353625, -18481.137571470448, -30041.191582821797, -11632.764236064462, -133787.2828587631, 187500.0, -41448.80669698795, -9309.054530746285, 0.606, -0.6940000000000001, 0.44, 192.0, 0.0, 0.0, 0.0, 0.0, 0.0, 0.0, 0.0, 0.0, 0.0, 1.663589657941232E9, 0.0, 2022-09-19 17:14:17.941
71.0, -10003.813803650595, -18484.26681569419, -30034.821335652035, -11625.701084816586, -133863.56936258904, 187500.0, -41447.04090917599, -9297.476327118437, 0.606, -0.6940000000000001, 0.44, 192.0, 0.0, 0.0, 0.0, 0.0, 0.0, 0.0, 0.0, 0.0, 0.0, 1.663589657945309E9, 0.0, 2022-09-19 17:14:17.945
72.0, -10037.207309866824, -18505.85860083802, -30037.36943451994, -11620.20255568058, -133975.6186575435, 187500.0, -41454.66285403525, -9289.65321655908, 0.606, -0.6940000000000001, 0.44, 192.0, 0.0, 0.0, 0.0, 0.0, 0.0, 0.0, 0.0, 0.0, 0.0, 1.663589657949299E9, 0.0, 2022-09-19 17:14:17.949
73.0, -10053.188807152368, -18507.624388649987, -30035.38012926342, -11619.86727951375, -134070.61357147858, 187500.0, -41454.0370051905, -9289.139126436607, 0.606, -0.6940000000000001, 0.44, 192.0, 0.0, 0.0, 0.0, 0.0, 0.0, 0.0, 0.0, 0.0, 0.0, 1.663589657953342E9, 0.0, 2022-09-19 17:14:17.953
74.0, -10045.477455315287, -18500.203609490825, -30043.89614390089, -11628.092721473304, -134144.19551422543, 187500.0, -41460.943694227186, -9285.048757201286, 0.606, -0.6940000000000001, 0.44, 192.0, 0.0, 0.0, 0.0, 0.0, 0.0, 0.0, 0.0, 0.0, 0.0, 1.6635896579563236E9, 0.0, 2022-09-19 17:14:17.956
75.0, -10018.387141035455, -18486.613748862, -30056.033141140124, -11637.458102400078, -134202.04182887578, 187500.0, -41464.564676828944, -9279.997262954386, 0.606, -0.6940000000000001, 0.44, 192.0, 0.0, 0.0, 0.0, 0.0, 0.0, 0.0, 0.0, 0.0, 0.0, 1.663589657961294E9, 0.0, 2022-09-19 17:14:17.961
76.0, -10015.235545067257, -18487.99955701823, -30056.927210918333, -11635.848776799296, -134277.92600130153, 187500.0, -41464.430566362214, -9288.155649680573, 0.606, -0.6940000000000001, 0.44, 192.0, 0.0, 0.0, 0.0, 0.0, 0.0, 0.0, 0.0, 0.0, 0.0, 1.6635896579652977E9, 0.0, 2022-09-19 17:14:17.965
77.0, -10039.822463968094, -18495.219170477292, -30052.255696327175, -11621.990695237006, -134379.20175542854, 187500.0, -41462.91064773925, -9285.182867668018, 0.606, -0.6940000000000001, 0.44, 192.0, 0.0, 0.0, 0.0, 0.0, 0.0, 0.0, 0.0, 0.0, 0.0, 1.6635896579693325E9, 0.0, 2022-09-19 17:14:17.969
78.0, -10051.98181295178, -18494.347452443537, -30053.41798703885, -11620.716645803053, -134470.35216931728, 187500.0, -41459.42377560423, -9276.018652441342, 0.606, -0.6940000000000001, 0.44, 192.0, 0.0, 0.0, 0.0, 0.0, 0.0, 0.0, 0.0, 0.0, 0.0, 1.6635896579733143E9, 0.0, 2022-09-19 17:14:17.973
79.0, -10050.238376884268, -18496.828496078077, -30061.106987131476, -11630.082026729826, -134548.6503301442, 187500.0, -41463.22357216162, -9277.31505361975, 0.604, -0.6920000000000001, 0.436, 192.0, 18.0, 224.0, 234.0, 96.0, 13.0, 160.0, 0.0, 0.0, 0.0, 1.6635896579783E9, 0.0, 2022-09-19 17:14:17.978
80.0, -10030.188862107858, -18493.7663070877, -30072.506376803685, -11641.481416402034, -134610.85523496332, 187500.0, -41467.20218267467, -9282.970044966942, 0.604, -0.6920000000000001, 0.436, 192.0, 0.0, 0.0, 0.0, 0.0, 0.0, 0.0, 0.0, 0.0, 0.0, 1.6635896579813464E9, 0.0, 2022-09-19 17:14:17.981
81.0, -10029.339495818556, -18507.266760738705, -30061.643428998403, -11641.548471635399, -134690.36038999085, 187500.0, -41462.6871302947, -9287.149821180084, 0.604, -0.6920000000000001, 0.436, 192.0, 0.0, 0.0, 0.0, 0.0, 0.0, 0.0, 0.0, 0.0, 0.0, 1.6635896579843688E9, 0.0, 2022-09-19 17:14:17.984
82.0, -10054.306394375133, -18530.13259531648, -30050.95929514877, -11634.261802942969, -134793.29017320756, 187500.0, -41464.5870285734, -9286.345158379694, 0.604, -0.6920000000000001, 0.436, 192.0, 0.0, 0.0, 0.0, 0.0, 0.0, 0.0, 0.0, 0.0, 0.0, 1.6635896579893205E9, 0.0, 2022-09-19 17:14:17.989
83.0, -10067.024536970202, -18535.586420963577, -30050.445205026295, -11625.902250516683, -134887.65923829787, 187500.0, -41465.6375605628, -9277.583274553213, 0.604, -0.6920000000000001, 0.436, 192.0, 0.0, 0.0, 0.0, 0.0, 0.0, 0.0, 0.0, 0.0, 0.0, 1.6635896579932976E9, 0.0, 2022-09-19 17:14:17.993
84.0, -10056.899196731949, -18529.95378136084, -30050.0428736261, -11624.896422016194, -134959.7659659107, 187500.0, -41450.21485688864, -9267.972024437431, 0.604, -0.6920000000000001, 0.436, 192.0, 0.0, 0.0, 0.0, 0.0, 0.0, 0.0, 0.0, 0.0, 0.0, 1.6635896579973543E9, 0.0, 2022-09-19 17:14:17.997
85.0, -10029.965344663304, -18522.197726034847, -30059.698827230794, -11634.820596554351, -135016.24882414925, 187500.0, -41451.9359412117, -9274.699899518479, 0.604, -0.6920000000000001, 0.436, 192.0, 0.0, 0.0, 0.0, 0.0, 0.0, 0.0, 0.0, 0.0, 0.0, 1.6635896580014083E9, 0.0, 2022-09-19 17:14:18.001
86.0, -10021.918716659393, -18530.51257497222, -30064.52680403314, -11645.549433892898, -135088.0426273397, 187500.0, -41461.74835702757, -9306.528783622836, 0.604, -0.6920000000000001, 0.436, 192.0, 0.0, 0.0, 0.0, 0.0, 0.0, 0.0, 0.0, 0.0, 0.0, 1.663589658006298E9, 0.0, 2022-09-19 17:14:18.006
87.0, -10047.533815805176, -18541.42022626641, -30045.86309741296, -11624.583497593821, -135188.58077389965, 187500.0, -41454.66285403525, -9299.487984119414, 0.604, -0.6920000000000001, 0.436, 192.0, 0.0, 0.0, 0.0, 0.0, 0.0, 0.0, 0.0, 0.0, 0.0, 1.66358965800937E9, 0.0, 2022-09-19 17:14:18.009
88.0, -10060.117847933514, -18533.82063315161, -30038.2411525537, -11608.244372396992, -135279.84294651067, 187500.0, -41446.41506033124, -9248.97304165042, 0.604, -0.6920000000000001, 0.436, 192.0, 0.0, 0.0, 0.0, 0.0, 0.0, 0.0, 0.0, 0.0, 0.0, 1.6635896580133524E9, 0.0, 2022-09-19 17:14:18.013
89.0, -10051.780647251684, -18520.789566134164, -30041.057472355067, -11615.173413178136, -135352.53081947935, 187500.0, -41444.67162426372, -9247.07314337172, 0.594, -0.6980000000000001, 0.44, 192.0, 18.0, 144.0, 234.0, 48.0, 13.0, 192.0, 0.0, 0.0, 0.0, 1.663589658017316E9, 0.0, 2022-09-19 17:14:18.017
90.0, -10027.484301028766, -18512.027682307682, -30054.8932021729, -11626.617506339253, -135410.48889285195, 187500.0, -41455.691034280186, -9250.649422484568, 0.594, -0.6980000000000001, 0.44, 192.0, 0.0, 0.0, 0.0, 0.0, 0.0, 0.0, 0.0, 0.0, 0.0, 1.6635896580213597E9, 0.0, 2022-09-19 17:14:18.021
91.0, -10023.259821326712, -18528.635028437977, -30071.746417492202, -11637.569861122354, -135486.3283617888, 187500.0, -41477.59574384639, -9274.319919862739, 0.594, -0.6980000000000001, 0.44, 192.0, 0.0, 0.0, 0.0, 0.0, 0.0, 0.0, 0.0, 0.0, 0.0, 1.6635896580254216E9, 0.0, 2022-09-19 17:14:18.025
92.0, -10050.75246700674, -18549.757426948243, -30062.068112143053, -11635.245279699002, -135589.7498833835, 187500.0, -41473.97476124463, -9294.190620683506, 0.594, -0.6980000000000001, 0.44, 192.0, 0.0, 0.0, 0.0, 0.0, 0.0, 0.0, 0.0, 0.0, 0.0, 1.6635896580294344E9, 0.0, 2022-09-19 17:14:18.029
93.0, -10064.14116193547, -18550.025647881706, -30053.395635294397, -11623.175337693136, -135679.29097167146, 187500.0, -41466.598685574376, -9280.243132143394, 0.594, -0.6980000000000001, 0.44, 192.0, 0.0, 0.0, 0.0, 0.0, 0.0, 0.0, 0.0, 0.0, 0.0, 1.663589658033409E9, 0.0, 2022-09-19 17:14:18.033
94.0, -10050.484246073276, -18539.453272754345, -30053.03800738311, -11618.481471357522, -135746.12268759284, 187500.0, -41457.74739477008, -9270.31895760524, 0.594, -0.6980000000000001, 0.44, 192.0, 0.0, 0.0, 0.0, 0.0, 0.0, 0.0, 0.0, 0.0, 0.0, 1.6635896580364044E9, 0.0, 2022-09-19 17:14:18.036
95.0, -10016.688408456852, -18530.110243572028, -30046.84657416899, -11616.805090523374, -135795.07300794995, 187500.0, -41449.76782199953, -9272.822352984233, 0.594, -0.6980000000000001, 0.44, 192.0, 0.0, 0.0, 0.0, 0.0, 0.0, 0.0, 0.0, 0.0, 0.0, 1.6635896580404427E9, 0.0, 2022-09-19 17:14:18.040
96.0, -10007.703007185819, -18539.654438454443, -30043.270295056143, -11617.028607967926, -135864.7210436727, 187500.0, -41451.57831330041, -9295.688187562011, 0.594, -0.6980000000000001, 0.44, 192.0, 0.0, 0.0, 0.0, 0.0, 0.0, 0.0, 0.0, 0.0, 0.0, 1.6635896580454323E9, 0.0, 2022-09-19 17:14:18.045
97.0, -10032.356981320023, -18561.939127676385, -30034.95544611877, -11614.078177699826, -135965.2368384882, 187500.0, -41454.93107496871, -9313.413120915071, 0.594, -0.6980000000000001, 0.44, 192.0, 0.0, 0.0, 0.0, 0.0, 0.0, 0.0, 0.0, 0.0, 0.0, 1.6635896580495198E9, 0.0, 2022-09-19 17:14:18.049
98.0, -10042.638783769464, -18569.292851602182, -30031.84855363948, -11616.58157307882, -136055.5602378321, 187500.0, -41455.24399939108, -9305.858231289176, 0.594, -0.6980000000000001, 0.44, 192.0, 0.0, 0.0, 0.0, 0.0, 0.0, 0.0, 0.0, 0.0, 0.0, 1.6635896580534613E9, 0.0, 2022-09-19 17:14:18.053
99.0, -10034.368638320999, -18557.96051716334, -30035.0895565855, -11621.878936514728, -136130.30447129064, 187500.0, -41449.00786268805, -9299.309170163771, 0.602, -0.6940000000000001, 0.444, 192.0, 18.0, 208.0, 234.0, 80.0, 13.0, 224.0, 0.0, 0.0, 0.0, 1.6635896580574536E9, 0.0, 2022-09-19 17:14:18.057
100.0, -10003.947914117327, -18539.296810543157, -30040.833954910515, -11616.11218644526, -136185.2003556729, 187500.0, -41443.35287134086, -9274.699899518479, 0.602, -0.6940000000000001, 0.444, 192.0, 0.0, 0.0, 0.0, 0.0, 0.0, 0.0, 0.0, 0.0, 0.0, 1.6635896580614748E9, 0.0, 2022-09-19 17:14:18.061
101.0, -9995.633065179953, -18550.137406603983, -30041.10217584398, -11607.842040996795, -136255.0048536068, 187500.0, -41448.47142082112, -9255.58915800919, 0.602, -0.6940000000000001, 0.444, 192.0, 0.0, 0.0, 0.0, 0.0, 0.0, 0.0, 0.0, 0.0, 0.0, 1.6635896580644634E9, 0.0, 2022-09-19 17:14:18.064
102.0, -10022.276344570679, -18577.607700539553, -30046.958332891267, -11606.612695051754, -136356.32531122272, 187500.0, -41461.54719132748, -9259.478361544414, 0.602, -0.6940000000000001, 0.444, 192.0, 0.0, 0.0, 0.0, 0.0, 0.0, 0.0, 0.0, 0.0, 0.0, 1.663589658068503E9, 0.0, 2022-09-19 17:14:18.068
103.0, -10033.161644120413, -18574.72432550482, -30054.647332983892, -11605.62921829572, -136444.2570739099, 187500.0, -41466.039891962995, -9259.813637711244, 0.602, -0.6940000000000001, 0.444, 192.0, 0.0, 0.0, 0.0, 0.0, 0.0, 0.0, 0.0, 0.0, 0.0, 1.6635896580733805E9, 0.0, 2022-09-19 17:14:18.073
104.0, -10017.046036368136, -18549.399799036957, -30040.47632699923, -11604.735148517508, -136509.92649911958, 187500.0, -41450.57248479992, -9261.042983656285, 0.602, -0.6940000000000001, 0.444, 192.0, 0.0, 0.0, 0.0, 0.0, 0.0, 0.0, 0.0, 0.0, 0.0, 1.6635896580774431E9, 0.0, 2022-09-19 17:14:18.077
105.0, -9991.185068033346, -18530.020836594205, -30047.830050925026, -11613.92171548864, -136566.05172944686, 187500.0, -41447.532647554, -9264.26163485785, 0.602, -0.6940000000000001, 0.444, 192.0, 0.0, 0.0, 0.0, 0.0, 0.0, 0.0, 0.0, 0.0, 0.0, 1.6635896580814714E9, 0.0, 2022-09-19 17:14:18.081
106.0, -9988.905190098905, -18536.994580864262, -30065.264411600165, -11625.186994694113, -136642.15941931718, 187500.0, -41459.93786572669, -9273.157629151063, 0.602, -0.6940000000000001, 0.444, 192.0, 0.0, 0.0, 0.0, 0.0, 0.0, 0.0, 0.0, 0.0, 0.0, 1.6635896580854864E9, 0.0, 2022-09-19 17:14:18.085
107.0, -10015.727283445274, -18559.636897997487, -30058.737702219216, -11619.129671946726, -136742.4293449437, 187500.0, -41464.721139040135, -9265.31216684725, 0.602, -0.6940000000000001, 0.444, 192.0, 0.0, 0.0, 0.0, 0.0, 0.0, 0.0, 0.0, 0.0, 0.0, 1.663589658088421E9, 0.0, 2022-09-19 17:14:18.088
108.0, -10026.478472528277, -18560.19569160887, -30056.211955095765, -11618.615581824253, -136825.1978546617, 187500.0, -41459.91551398224, -9270.944806449987, 0.602, -0.6940000000000001, 0.444, 192.0, 0.0, 0.0, 0.0, 0.0, 0.0, 0.0, 0.0, 0.0, 0.0, 1.6635896580925443E9, 0.0, 2022-09-19 17:14:18.092
109.0, -10014.341475289044, -18540.459101254834, -30043.247943311686, -11605.875087484728, -136889.2579542706, 187500.0, -41447.085612664894, -9253.555149263759, 0.604, -0.6940000000000001, 0.448, 192.0, 18.0, 224.0, 234.0, 80.0, 14.0, 0.0, 0.0, 0.0, 0.0, 1.66358965809645E9, 0.0, 2022-09-19 17:14:18.096
110.0, -9990.805088377607, -18524.052920824637, -30056.256658584676, -11612.401796865679, -136943.90796946382, 187500.0, -41459.28966513749, -9254.605681253157, 0.604, -0.6940000000000001, 0.448, 192.0, 0.0, 0.0, 0.0, 0.0, 0.0, 0.0, 0.0, 0.0, 0.0, 1.6635896581015239E9, 0.0, 2022-09-19 17:14:18.101
111.0, -9982.110259784491, -18527.182165048383, -30051.294571315597, -11612.20063116558, -137011.76786563016, 187500.0, -41461.74835702757, -9258.673698744024, 0.604, -0.6940000000000001, 0.448, 192.0, 0.0, 0.0, 0.0, 0.0, 0.0, 0.0, 0.0, 0.0, 0.0, 1.6635896581055324E9, 0.0, 2022-09-19 17:14:18.105
112.0, -10012.709797943808, -18550.47268277081, -30050.869888170946, -11619.129671946726, -137114.34002093555, 187500.0, -41469.50441235357, -9279.93020772102, 0.604, -0.6940000000000001, 0.448, 192.0, 0.0, 0.0, 0.0, 0.0, 0.0, 0.0, 0.0, 0.0, 0.0, 1.663589658109522E9, 0.0, 2022-09-19 17:14:18.109
113.0, -10027.707818473318, -18558.832235197096, -30049.729949203727, -11622.325971403834, -137204.05992317916, 187500.0, -41459.40142385977, -9281.807754255266, 0.604, -0.6940000000000001, 0.448, 192.0, 0.0, 0.0, 0.0, 0.0, 0.0, 0.0, 0.0, 0.0, 0.0, 1.6635896581135187E9, 0.0, 2022-09-19 17:14:18.113
114.0, -10017.64953346843, -18558.362848563534, -30051.38397829342, -11627.01983773945, -137273.3950344795, 187500.0, -41446.83974347589, -9281.31601587725, 0.604, -0.6940000000000001, 0.448, 192.0, 0.0, 0.0, 0.0, 0.0, 0.0, 0.0, 0.0, 0.0, 0.0, 1.6635896581164951E9, 0.0, 2022-09-19 17:14:18.116
115.0, -9980.031547550148, -18543.320124545113, -30047.494774758194, -11621.096625458793, -137319.75255247983, 187500.0, -41436.15560962625, -9263.188751123995, 0.604, -0.6940000000000001, 0.448, 192.0, 0.0, 0.0, 0.0, 0.0, 0.0, 0.0, 0.0, 0.0, 0.0, 1.6635896581205592E9, 0.0, 2022-09-19 17:14:18.120
116.0, -9966.665204365874, -18551.366752549024, -30050.80283293758, -11625.186994694113, -137388.03713179077, 187500.0, -41448.002034187564, -9270.095440160685, 0.604, -0.6940000000000001, 0.448, 192.0, 0.0, 0.0, 0.0, 0.0, 0.0, 0.0, 0.0, 0.0, 0.0, 1.6635896581245546E9, 0.0, 2022-09-19 17:14:18.124
117.0, -9997.689425669842, -18577.719459261833, -30055.27318182864, -11622.482433615021, -137497.29245868832, 187500.0, -41460.45195584917, -9283.104155433673, 0.604, -0.6940000000000001, 0.448, 192.0, 0.0, 0.0, 0.0, 0.0, 0.0, 0.0, 0.0, 0.0, 0.0, 1.663589658129541E9, 0.0, 2022-09-19 17:14:18.129
118.0, -10013.290943299646, -18581.29573837468, -30057.642466740905, -11620.247259169491, -137593.80729124634, 187500.0, -41456.69686278068, -9277.672681531034, 0.604, -0.6940000000000001, 0.448, 192.0, 0.0, 0.0, 0.0, 0.0, 0.0, 0.0, 0.0, 0.0, 0.0, 1.6635896581335669E9, 0.0, 2022-09-19 17:14:18.133
119.0, -10002.27153328318, -18562.229700354303, -30057.553059763082, -11620.135500447215, -137668.46211772706, 187500.0, -41450.036042932996, -9268.955501193464, 0.602, -0.6980000000000001, 0.438, 192.0, 18.0, 208.0, 234.0, 48.0, 13.0, 176.0, 0.0, 0.0, 0.0, 1.6635896581375968E9, 0.0, 2022-09-19 17:14:18.137
120.0, -9969.459172422788, -18536.547545975154, -30051.741606204705, -11616.939200990106, -137722.50863582, 187500.0, -41447.62205453182, -9266.340347092193, 0.602, -0.6980000000000001, 0.438, 192.0, 0.0, 0.0, 0.0, 0.0, 0.0, 0.0, 0.0, 0.0, 0.0, 1.6635896581415436E9, 0.0, 2022-09-19 17:14:18.141
121.0, -9950.393134402411, -18529.618505194012, -30053.462690527762, -11618.459119613066, -137788.04395056295, 187500.0, -41454.6852057797, -9275.661024530056, 0.602, -0.6980000000000001, 0.438, 192.0, 0.0, 0.0, 0.0, 0.0, 0.0, 0.0, 0.0, 0.0, 0.0, 1.6635896581455758E9, 0.0, 2022-09-19 17:14:18.145
122.0, -9972.990748046726, -18546.96345889133, -30049.439376525806, -11608.892572986195, -137889.45381515668, 187500.0, -41455.15459241326, -9269.626053527123, 0.602, -0.6980000000000001, 0.438, 192.0, 0.0, 0.0, 0.0, 0.0, 0.0, 0.0, 0.0, 0.0, 0.0, 1.6635896581485589E9, 0.0, 2022-09-19 17:14:18.148
123.0, -9987.586437176042, -18554.406589794944, -30059.18473710832, -11606.903267729673, -137982.14649941283, 187500.0, -41459.62494130432, -9265.446277313982, 0.602, -0.6980000000000001, 0.438, 192.0, 0.0, 0.0, 0.0, 0.0, 0.0, 0.0, 0.0, 0.0, 0.0, 1.663589658152594E9, 0.0, 2022-09-19 17:14:18.152
124.0, -9975.091812025525, -18548.05869436964, -30051.9427719048, -11604.332817117313, -138050.45343046827, 187500.0, -41445.85626671985, -9264.283986602306, 0.602, -0.6980000000000001, 0.438, 192.0, 0.0, 0.0, 0.0, 0.0, 0.0, 0.0, 0.0, 0.0, 0.0, 1.6635896581566088E9, 0.0, 2022-09-19 17:14:18.156
125.0, -9945.453398877788, -18538.670961698408, -30054.28970507261, -11599.571895548332, -138103.82939622755, 187500.0, -41443.57638878541, -9245.776742193311, 0.602, -0.6980000000000001, 0.438, 192.0, 0.0, 0.0, 0.0, 0.0, 0.0, 0.0, 0.0, 0.0, 0.0, 1.663589658161589E9, 0.0, 2022-09-19 17:14:18.161
126.0, -9930.254212648179, -18533.530060473688, -30059.788234208612, -11601.225924638025, -138167.88949583645, 187500.0, -41451.89123772278, -9242.044000869275, 0.602, -0.6980000000000001, 0.438, 192.0, 0.0, 0.0, 0.0, 0.0, 0.0, 0.0, 0.0, 0.0, 0.0, 1.663589658165569E9, 0.0, 2022-09-19 17:14:18.165
127.0, -9950.527244869143, -18546.15879609094, -30063.252754599187, -11601.29297987139, -138264.80665979465, 187500.0, -41458.64146454829, -9255.365640564638, 0.602, -0.6980000000000001, 0.438, 192.0, 0.0, 0.0, 0.0, 0.0, 0.0, 0.0, 0.0, 0.0, 0.0, 1.6635896581686287E9, 0.0, 2022-09-19 17:14:18.168
128.0, -9963.31244269758, -18548.081046114094, -30063.677437743838, -11609.853697997773, -138356.49351555033, 187500.0, -41457.16624941424, -9267.413230826049, 0.602, -0.6980000000000001, 0.438, 192.0, 0.0, 0.0, 0.0, 0.0, 0.0, 0.0, 0.0, 0.0, 0.0, 1.6635896581726215E9, 0.0, 2022-09-19 17:14:18.172
129.0, -9951.957756514283, -18535.698179685853, -30064.593859266504, -11616.91684924565, -138426.02979255078, 187500.0, -41453.92524646822, -9275.303396618772, 0.6, -0.7020000000000001, 0.436, 192.0, 18.0, 192.0, 234.0, 16.0, 13.0, 160.0, 0.0, 0.0, 0.0, 1.6635896581766248E9, 0.0, 2022-09-19 17:14:18.176
130.0, -9919.570078798542, -18518.934371344374, -30056.033141140124, -11603.729320017019, -138475.2930373303, 187500.0, -41436.71440323763, -9245.776742193311, 0.6, -0.7020000000000001, 0.436, 192.0, 0.0, 0.0, 0.0, 0.0, 0.0, 0.0, 0.0, 0.0, 0.0, 1.6635896581806202E9, 0.0, 2022-09-19 17:14:18.180
131.0, -9909.176517626825, -18522.15302254594, -30050.109928859467, -11603.818726994841, -138543.21998872995, 187500.0, -41427.77370545551, -9240.881710157599, 0.6, -0.7020000000000001, 0.436, 192.0, 0.0, 0.0, 0.0, 0.0, 0.0, 0.0, 0.0, 0.0, 0.0, 1.6635896581846142E9, 0.0, 2022-09-19 17:14:18.184
132.0, -9936.78092202913, -18546.359961791037, -30046.533649746616, -11607.618523552243, -138646.46269636904, 187500.0, -41438.569598027425, -9263.255806357362, 0.6, -0.7020000000000001, 0.436, 192.0, 0.0, 0.0, 0.0, 0.0, 0.0, 0.0, 0.0, 0.0, 0.0, 1.6635896581896875E9, 0.0, 2022-09-19 17:14:18.189
133.0, -9953.030640248136, -18555.300659573157, -30051.786309693613, -11617.028607967926, -138741.9046451932, 187500.0, -41447.19737138717, -9296.045815473297, 0.6, -0.7020000000000001, 0.436, 192.0, 0.0, 0.0, 0.0, 0.0, 0.0, 0.0, 0.0, 0.0, 0.0, 1.6635896581936247E9, 0.0, 2022-09-19 17:14:18.193
134.0, -9935.819797017552, -18539.676790198897, -30056.368417306952, -11615.598096322787, -138809.29515472593, 187500.0, -41446.72798475361, -9293.005978227375, 0.6, -0.7020000000000001, 0.436, 192.0, 0.0, 0.0, 0.0, 0.0, 0.0, 0.0, 0.0, 0.0, 0.0, 1.6635896581966872E9, 0.0, 2022-09-19 17:14:18.196
135.0, -9902.359235567956, -18521.683635912377, -30057.061321385067, -11617.877974257228, -138862.80523095196, 187500.0, -41440.737717239586, -9279.103193176174, 0.6, -0.7020000000000001, 0.436, 192.0, 0.0, 0.0, 0.0, 0.0, 0.0, 0.0, 0.0, 0.0, 0.0, 1.6635896582006671E9, 0.0, 2022-09-19 17:14:18.200
136.0, -9884.991930126183, -18519.157888788926, -30056.815452196057, -11612.133575932214, -138928.51935965056, 187500.0, -41444.29164460798, -9262.115867390141, 0.6, -0.7020000000000001, 0.436, 192.0, 0.0, 0.0, 0.0, 0.0, 0.0, 0.0, 0.0, 0.0, 0.0, 1.6635896582046833E9, 0.0, 2022-09-19 17:14:18.204
137.0, -9909.332979838013, -18542.202537322348, -30050.8922399154, -11611.77594802093, -139031.78441903405, 187500.0, -41444.67162426372, -9273.381146595615, 0.6, -0.7020000000000001, 0.436, 192.0, 0.0, 0.0, 0.0, 0.0, 0.0, 0.0, 0.0, 0.0, 0.0, 1.6635896582086327E9, 0.0, 2022-09-19 17:14:18.208
138.0, -9927.460244591266, -18554.987735150782, -30054.580277750527, -11618.995561479995, -139127.56164402506, 187500.0, -41444.5822172859, -9293.341254394205, 0.6, -0.7020000000000001, 0.436, 192.0, 0.0, 0.0, 0.0, 0.0, 0.0, 0.0, 0.0, 0.0, 0.0, 1.6635896582127168E9, 0.0, 2022-09-19 17:14:18.212
139.0, -9917.066683419549, -18545.15296759045, -30052.32275156054, -11617.900326001683, -139196.91910706987, 187500.0, -41442.883484707294, -9288.6920915475, 0.602, -0.6940000000000001, 0.44, 192.0, 18.0, 208.0, 234.0, 80.0, 13.0, 192.0, 0.0, 0.0, 0.0, 1.663589658216702E9, 0.0, 2022-09-19 17:14:18.216
140.0, -9886.780069682607, -18531.697217428355, -30049.32761780353, -11609.20549740857, -139249.78098270667, 187500.0, -41441.18475212869, -9245.26265207084, 0.602, -0.6940000000000001, 0.44, 192.0, 0.0, 0.0, 0.0, 0.0, 0.0, 0.0, 0.0, 0.0, 0.0, 1.6635896582216449E9, 0.0, 2022-09-19 17:14:18.221
141.0, -9866.19411303927, -18530.08789182757, -30050.33344630402, -11613.854660255272, -139309.75071308026, 187500.0, -41441.34121433988, -9250.805884695756, 0.602, -0.6940000000000001, 0.44, 192.0, 0.0, 0.0, 0.0, 0.0, 0.0, 0.0, 0.0, 0.0, 0.0, 1.6635896582247117E9, 0.0, 2022-09-19 17:14:18.224
142.0, -9887.651787716364, -18551.545566504665, -30053.015655638657, -11622.080102214826, -139405.72910377136, 187500.0, -41450.371319099824, -9276.510390819358, 0.602, -0.6940000000000001, 0.44, 192.0, 0.0, 0.0, 0.0, 0.0, 0.0, 0.0, 0.0, 0.0, 0.0, 1.6635896582287276E9, 0.0, 2022-09-19 17:14:18.228
143.0, -9904.415596057845, -18562.05088639866, -30053.820318439048, -11625.745788305496, -139499.3829130391, 187500.0, -41450.59483654438, -9289.787327025811, 0.602, -0.6940000000000001, 0.44, 192.0, 0.0, 0.0, 0.0, 0.0, 0.0, 0.0, 0.0, 0.0, 0.0, 1.663589658232724E9, 0.0, 2022-09-19 17:14:18.232
144.0, -9901.107537878459, -18553.892499672475, -30058.827109197035, -11621.566012092355, -139575.22238197594, 187500.0, -41453.455859834656, -9277.225646641928, 0.602, -0.6940000000000001, 0.44, 192.0, 0.0, 0.0, 0.0, 0.0, 0.0, 0.0, 0.0, 0.0, 0.0, 1.6635896582367487E9, 0.0, 2022-09-19 17:14:18.236
145.0, -9873.81605789853, -18531.38429300598, -30059.60942025297, -11622.661247570664, -139632.48755127043, 187500.0, -41444.13518239679, -9278.566751309247, 0.602, -0.6940000000000001, 0.44, 192.0, 0.0, 0.0, 0.0, 0.0, 0.0, 0.0, 0.0, 0.0, 0.0, 1.6635896582407427E9, 0.0, 2022-09-19 17:14:18.240
146.0, -9851.643127398864, -18520.364882989514, -30050.601667237483, -11616.022779467437, -139693.4184066556, 187500.0, -41434.09924913636, -9274.45403032947, 0.602, -0.6940000000000001, 0.44, 192.0, 0.0, 0.0, 0.0, 0.0, 0.0, 0.0, 0.0, 0.0, 0.0, 1.6635896582447517E9, 0.0, 2022-09-19 17:14:18.244
147.0, -9874.330148021001, -18539.00623786524, -30037.771765920137, -11602.142346160692, -139793.08483518183, 187500.0, -41432.46757179112, -9259.344251077682, 0.602, -0.6940000000000001, 0.44, 192.0, 0.0, 0.0, 0.0, 0.0, 0.0, 0.0, 0.0, 0.0, 0.0, 1.6635896582497115E9, 0.0, 2022-09-19 17:14:18.249
148.0, -9896.994816898683, -18551.4785112713, -30040.85630665497, -11606.612695051754, -139892.7065602191, 187500.0, -41435.59681601487, -9259.344251077682, 0.602, -0.6940000000000001, 0.44, 192.0, 0.0, 0.0, 0.0, 0.0, 0.0, 0.0, 0.0, 0.0, 0.0, 1.6635896582527912E9, 0.0, 2022-09-19 17:14:18.252
149.0, -9891.965674396239, -18549.802130437154, -30050.55696374857, -11620.090796958304, -139965.9755785436, 187500.0, -41441.52002829553, -9266.675623259023, 0.604, -0.6940000000000001, 0.436, 192.0, 18.0, 224.0, 234.0, 80.0, 13.0, 160.0, 0.0, 0.0, 0.0, 1.663589658256785E9, 0.0, 2022-09-19 17:14:18.256
150.0, -9862.059040315038, -18538.13451983148, -30057.396597551895, -11625.522270860944, -140017.6975152132, 187500.0, -41446.57152254242, -9263.054640657263, 0.604, -0.6940000000000001, 0.436, 192.0, 0.0, 0.0, 0.0, 0.0, 0.0, 0.0, 0.0, 0.0, 0.0, 1.6635896582607496E9, 0.0, 2022-09-19 17:14:18.260
151.0, -9838.209728981225, -18531.652513939443, -30051.831013182524, -11622.616544081753, -140076.19203045274, 187500.0, -41444.5822172859, -9260.327727833715, 0.604, -0.6940000000000001, 0.436, 192.0, 0.0, 0.0, 0.0, 0.0, 0.0, 0.0, 0.0, 0.0, 0.0, 1.6635896582657988E9, 0.0, 2022-09-19 17:14:18.265
152.0, -9857.365173979422, -18553.937203161386, -30039.22462930973, -11616.268648656447, -140174.338540356, 187500.0, -41445.18571438619, -9267.54734129278, 0.604, -0.6940000000000001, 0.436, 192.0, 0.0, 0.0, 0.0, 0.0, 0.0, 0.0, 0.0, 0.0, 0.0, 1.6635896582688344E9, 0.0, 2022-09-19 17:14:18.268
153.0, -9874.128982320903, -18566.09655214507, -30034.08372808501, -11612.759424776963, -140271.36746303647, 187500.0, -41440.53655153949, -9267.904969204064, 0.604, -0.6940000000000001, 0.436, 192.0, 0.0, 0.0, 0.0, 0.0, 0.0, 0.0, 0.0, 0.0, 0.0, 1.6635896582728E9, 0.0, 2022-09-19 17:14:18.272
154.0, -9862.28255775959, -18549.377447292503, -30031.42387049483, -11605.495107828989, -140341.70840283734, 187500.0, -41432.22170260212, -9255.991489409387, 0.604, -0.6940000000000001, 0.436, 192.0, 0.0, 0.0, 0.0, 0.0, 0.0, 0.0, 0.0, 0.0, 0.0, 1.6635896582767959E9, 0.0, 2022-09-19 17:14:18.276
155.0, -9837.941508047761, -18529.95378136084, -30033.167306562344, -11604.891610728695, -140399.06297910964, 187500.0, -41433.65221424725, -9244.323878803716, 0.604, -0.6940000000000001, 0.436, 192.0, 0.0, 0.0, 0.0, 0.0, 0.0, 0.0, 0.0, 0.0, 0.0, 1.663589658280846E9, 0.0, 2022-09-19 17:14:18.280
156.0, -9818.18256594927, -18524.969342347307, -30041.057472355067, -11612.714721288052, -140461.22318043985, 187500.0, -41441.76589748453, -9249.68829747299, 0.604, -0.6940000000000001, 0.436, 192.0, 0.0, 0.0, 0.0, 0.0, 0.0, 0.0, 0.0, 0.0, 0.0, 1.6635896582847822E9, 0.0, 2022-09-19 17:14:18.284
157.0, -9843.060057528026, -18546.6281827245, -30040.431623510318, -11614.279343399923, -140565.11408866814, 187500.0, -41445.36452834184, -9262.317033090238, 0.604, -0.6940000000000001, 0.436, 192.0, 0.0, 0.0, 0.0, 0.0, 0.0, 0.0, 0.0, 0.0, 0.0, 1.66358965828986E9, 0.0, 2022-09-19 17:14:18.289
158.0, -9854.48179894469, -18552.77491244971, -30043.918495645346, -11614.078177699826, -140659.57256073627, 187500.0, -41443.28581610749, -9264.127524391119, 0.604, -0.6940000000000001, 0.436, 192.0, 0.0, 0.0, 0.0, 0.0, 0.0, 0.0, 0.0, 0.0, 0.0, 1.66358965829279E9, 0.0, 2022-09-19 17:14:18.292
159.0, -9844.46821742871, -18548.595136236567, -30051.741606204705, -11613.497032343988, -140735.65789886212, 187500.0, -41442.72702249611, -9261.668832501035, 0.61, -0.6940000000000001, 0.442, 192.0, 19.0, 16.0, 234.0, 80.0, 13.0, 208.0, 0.0, 0.0, 0.0, 1.6635896582959702E9, 0.0, 2022-09-19 17:14:18.295
160.0, -9815.857984525917, -18539.229755309792, -30054.177946350334, -11618.25795391297, -140794.84531817978, 187500.0, -41442.43644981819, -9260.417134811538, 0.61, -0.6940000000000001, 0.442, 192.0, 0.0, 0.0, 0.0, 0.0, 0.0, 0.0, 0.0, 0.0, 0.0, 1.663589658300861E9, 0.0, 2022-09-19 17:14:18.300
161.0, -9798.848306995429, -18540.593211721567, -30055.42964403983, -11624.762311549463, -140863.1075457463, 187500.0, -41445.67745276421, -9271.525951805825, 0.61, -0.6940000000000001, 0.442, 192.0, 0.0, 0.0, 0.0, 0.0, 0.0, 0.0, 0.0, 0.0, 0.0, 1.663589658304887E9, 0.0, 2022-09-19 17:14:18.304
162.0, -9829.559603877022, -18565.805979467154, -30060.86111794247, -11631.669000586153, -140973.41340463323, 187500.0, -41454.4840400796, -9289.854382259176, 0.61, -0.6940000000000001, 0.442, 192.0, 0.0, 0.0, 0.0, 0.0, 0.0, 0.0, 0.0, 0.0, 0.0, 1.6635896583088608E9, 0.0, 2022-09-19 17:14:18.308
163.0, -9845.809322096029, -18570.477494058312, -30061.442263298308, -11624.382331893723, -141069.8388302134, 187500.0, -41451.01951968903, -9270.229550627417, 0.61, -0.6940000000000001, 0.442, 192.0, 0.0, 0.0, 0.0, 0.0, 0.0, 0.0, 0.0, 0.0, 0.0, 1.6635896583128586E9, 0.0, 2022-09-19 17:14:18.312
164.0, -9832.353571933934, -18553.423113038913, -30053.105062616476, -11609.227849153025, -141139.44216244723, 187500.0, -41444.358699841345, -9247.49782651637, 0.61, -0.6940000000000001, 0.442, 192.0, 0.0, 0.0, 0.0, 0.0, 0.0, 0.0, 0.0, 0.0, 0.0, 1.6635896583178031E9, 0.0, 2022-09-19 17:14:18.317
165.0, -9803.028083208572, -18534.312371529624, -30047.60653348047, -11609.831346253319, -141195.09800614096, 187500.0, -41439.50837129455, -9246.268480571327, 0.61, -0.6940000000000001, 0.442, 192.0, 0.0, 0.0, 0.0, 0.0, 0.0, 0.0, 0.0, 0.0, 0.0, 1.6635896583208585E9, 0.0, 2022-09-19 17:14:18.320
166.0, -9792.32159761448, -18545.644705968465, -30057.106024873978, -11622.907116759672, -141267.76352736517, 187500.0, -41442.905836451755, -9255.008012653352, 0.61, -0.6940000000000001, 0.442, 192.0, 0.0, 0.0, 0.0, 0.0, 0.0, 0.0, 0.0, 0.0, 0.0, 1.6635896583258915E9, 0.0, 2022-09-19 17:14:18.325
167.0, -9812.885202513362, -18567.236491112293, -30053.8426701835, -11618.637933568709, -141366.49118262425, 187500.0, -41444.649272519266, -9269.469591315936, 0.61, -0.6940000000000001, 0.442, 192.0, 0.0, 0.0, 0.0, 0.0, 0.0, 0.0, 0.0, 0.0, 0.0, 1.6635896583288429E9, 0.0, 2022-09-19 17:14:18.328
168.0, -9830.923060288795, -18573.874959215518, -30052.479213771727, -11620.761349291963, -141464.9953204388, 187500.0, -41443.308167851945, -9297.901010263087, 0.61, -0.6940000000000001, 0.442, 192.0, 0.0, 0.0, 0.0, 0.0, 0.0, 0.0, 0.0, 0.0, 0.0, 1.6635896583328712E9, 0.0, 2022-09-19 17:14:18.332
169.0, -9824.239888696658, -18568.421133568423, -30054.513222517162, -11625.097587716293, -141544.34401325512, 187500.0, -41443.44227831868, -9305.522955122347, 0.608, -0.6960000000000001, 0.438, 192.0, 19.0, 0.0, 234.0, 64.0, 13.0, 176.0, 0.0, 0.0, 0.0, 1.663589658336913E9, 0.0, 2022-09-19 17:14:18.336
170.0, -9801.84344075244, -18558.943993919373, -30053.23917308321, -11626.30458191688, -141605.58779306267, 187500.0, -41438.39078407178, -9291.687225304511, 0.608, -0.6960000000000001, 0.438, 192.0, 0.0, 0.0, 0.0, 0.0, 0.0, 0.0, 0.0, 0.0, 0.0, 1.6635896583409028E9, 0.0, 2022-09-19 17:14:18.340
171.0, -9784.07380391047, -18561.737961976287, -30059.56471676406, -11625.96930575005, -141671.72660490594, 187500.0, -41451.10892666685, -9289.83203051472, 0.608, -0.6960000000000001, 0.438, 192.0, 0.0, 0.0, 0.0, 0.0, 0.0, 0.0, 0.0, 0.0, 0.0, 1.663589658345863E9, 0.0, 2022-09-19 17:14:18.345
172.0, -9802.89397274184, -18582.52508431972, -30053.820318439048, -11617.833270768318, -141770.63307412065, 187500.0, -41449.34313885488, -9292.98362648292, 0.608, -0.6960000000000001, 0.438, 192.0, 0.0, 0.0, 0.0, 0.0, 0.0, 0.0, 0.0, 0.0, 0.0, 1.6635896583489103E9, 0.0, 2022-09-19 17:14:18.348
173.0, -9823.32346717399, -18592.717479791343, -30053.730911461225, -11613.497032343988, -141870.72418579154, 187500.0, -41447.86792372083, -9291.329597393227, 0.608, -0.6960000000000001, 0.438, 192.0, 0.0, 0.0, 0.0, 0.0, 0.0, 0.0, 0.0, 0.0, 0.0, 1.6635896583519788E9, 0.0, 2022-09-19 17:14:18.351
174.0, -9820.730664817174, -18590.482305345813, -30059.36355106396, -11609.808994508863, -141950.87754140826, 187500.0, -41450.63954003329, -9272.621187284134, 0.608, -0.6960000000000001, 0.438, 192.0, 0.0, 0.0, 0.0, 0.0, 0.0, 0.0, 0.0, 0.0, 0.0, 1.66358965835693E9, 0.0, 2022-09-19 17:14:18.356
175.0, -9793.573295303977, -18572.824427226118, -30050.847536426492, -11604.355168861768, -142008.8132630364, 187500.0, -41437.4296590602, -9252.325803318716, 0.608, -0.6960000000000001, 0.438, 192.0, 0.0, 0.0, 0.0, 0.0, 0.0, 0.0, 0.0, 0.0, 0.0, 1.663589658360922E9, 0.0, 2022-09-19 17:14:18.360
176.0, -9770.707460726198, -18559.882767186496, -30040.31986478804, -11600.242447881992, -142069.07356608793, 187500.0, -41427.43842928868, -9249.397724795072, 0.608, -0.6960000000000001, 0.438, 192.0, 0.0, 0.0, 0.0, 0.0, 0.0, 0.0, 0.0, 0.0, 0.0, 1.6635896583649294E9, 0.0, 2022-09-19 17:14:18.364
177.0, -9783.693824254731, -18570.76806673623, -30032.161478061855, -11599.907171715162, -142159.7545933431, 187500.0, -41430.09828687886, -9262.562902279247, 0.608, -0.6960000000000001, 0.438, 192.0, 0.0, 0.0, 0.0, 0.0, 0.0, 0.0, 0.0, 0.0, 0.0, 1.6635896583689764E9, 0.0, 2022-09-19 17:14:18.368
178.0, -9804.235077409157, -18580.267558129737, -30025.70182391427, -11593.335758845302, -142259.06339395803, 187500.0, -41427.14785661076, -9255.455047542458, 0.608, -0.6960000000000001, 0.438, 192.0, 0.0, 0.0, 0.0, 0.0, 0.0, 0.0, 0.0, 0.0, 0.0, 1.6635896583729496E9, 0.0, 2022-09-19 17:14:18.372
179.0, -9801.50816458561, -18571.528026047712, -30028.94282686029, -11597.783755991908, -142340.58020598654, 187500.0, -41422.94572865316, -9262.83112321271, 0.608, -0.6960000000000001, 0.438, 192.0, 0.0, 0.0, 0.0, 0.0, 0.0, 0.0, 0.0, 0.0, 0.0, 1.6635896583759503E9, 0.0, 2022-09-19 17:14:18.375
180.0, -9778.016481163082, -18551.2773455712, -30029.65808268286, -11597.24731412498, -142404.68500908435, 187500.0, -41419.682373962685, -9254.225701597417, 0.604, -0.6960000000000001, 0.444, 192.0, 18.0, 224.0, 234.0, 64.0, 13.0, 224.0, 0.0, 0.0, 0.0, 1.6635896583799703E9, 0.0, 2022-09-19 17:14:18.379
181.0, -9758.682222209241, -18549.42215078141, -30041.32569328853, -11599.01310193695, -142472.29903606165, 187500.0, -41436.82616195991, -9242.491035758381, 0.604, -0.6960000000000001, 0.444, 192.0, 0.0, 0.0, 0.0, 0.0, 0.0, 0.0, 0.0, 0.0, 0.0, 1.6635896583850315E9, 0.0, 2022-09-19 17:14:18.385
182.0, -9778.083536396449, -18577.20536913936, -30033.368472262442, -11597.96256994755, -142574.51356345578, 187500.0, -41438.39078407178, -9257.913739432543, 0.604, -0.6960000000000001, 0.444, 192.0, 0.0, 0.0, 0.0, 0.0, 0.0, 0.0, 0.0, 0.0, 0.0, 1.6635896583889716E9, 0.0, 2022-09-19 17:14:18.388
183.0, -9799.094176184437, -18590.81758151264, -30033.793155407093, -11597.694349014086, -142677.51040190583, 187500.0, -41431.77466771301, -9265.893312203087, 0.604, -0.6960000000000001, 0.444, 192.0, 0.0, 0.0, 0.0, 0.0, 0.0, 0.0, 0.0, 0.0, 0.0, 1.6635896583929713E9, 0.0, 2022-09-19 17:14:18.392
184.0, -9792.679225525764, -18588.805924511664, -30033.793155407093, -11600.734186260008, -142755.85326622167, 187500.0, -41427.86311243333, -9266.519161047836, 0.604, -0.6960000000000001, 0.444, 192.0, 0.0, 0.0, 0.0, 0.0, 0.0, 0.0, 0.0, 0.0, 0.0, 1.6635896583970144E9, 0.0, 2022-09-19 17:14:18.397
185.0, -9765.298338568013, -18577.048906928172, -30030.954483861267, -11600.756538004463, -142814.6607058836, 187500.0, -41417.022516372504, -9254.270405086329, 0.604, -0.6960000000000001, 0.444, 192.0, 0.0, 0.0, 0.0, 0.0, 0.0, 0.0, 0.0, 0.0, 0.0, 1.663589658400035E9, 0.0, 2022-09-19 17:14:18.400
186.0, -9747.104018581393, -18580.424020340924, -30043.00207412268, -11613.139404432703, -142883.30291310584, 187500.0, -41426.70082172166, -9267.748506992879, 0.604, -0.6960000000000001, 0.444, 192.0, 0.0, 0.0, 0.0, 0.0, 0.0, 0.0, 0.0, 0.0, 0.0, 1.6635896584040008E9, 0.0, 2022-09-19 17:14:18.404
187.0, -9764.493675767622, -18603.2898549187, -30041.57156247754, -11615.329875389323, -142982.7011206986, 187500.0, -41435.59681601487, -9284.288797889805, 0.604, -0.6960000000000001, 0.444, 192.0, 0.0, 0.0, 0.0, 0.0, 0.0, 0.0, 0.0, 0.0, 0.0, 1.6635896584080868E9, 0.0, 2022-09-19 17:14:18.408
188.0, -9782.59858877642, -18620.232477215824, -30040.09634734349, -11612.848831754784, -143084.26744750352, 187500.0, -41437.49671429357, -9280.779574010323, 0.604, -0.6960000000000001, 0.444, 192.0, 0.0, 0.0, 0.0, 0.0, 0.0, 0.0, 0.0, 0.0, 0.0, 1.663589658412033E9, 0.0, 2022-09-19 17:14:18.412
189.0, -9775.244864850625, -18615.24803820229, -30038.62113220944, -11610.144270675692, -143163.68319555323, 187500.0, -41431.88642643529, -9272.755297750868, 0.604, -0.6960000000000001, 0.444, 192.0, 0.0, 0.0, 0.0, 0.0, 0.0, 0.0, 0.0, 0.0, 0.0, 1.6635896584169908E9, 0.0, 2022-09-19 17:14:18.416
190.0, -9751.797884917009, -18606.307340420168, -30034.195486807286, -11609.227849153025, -143227.38566725084, 187500.0, -41427.237263588584, -9281.78540251081, 0.6, -0.6920000000000001, 0.448, 192.0, 18.0, 192.0, 234.0, 96.0, 14.0, 0.0, 0.0, 0.0, 0.0, 1.6635896584210675E9, 0.0, 2022-09-19 17:14:18.421
191.0, -9724.059370047971, -18598.752450794276, -30023.89133261339, -11597.470831569533, -143285.65666504583, 187500.0, -41417.91658615072, -9278.477344331426, 0.6, -0.6920000000000001, 0.448, 192.0, 0.0, 0.0, 0.0, 0.0, 0.0, 0.0, 0.0, 0.0, 0.0, 1.663589658425092E9, 0.0, 2022-09-19 17:14:18.425
192.0, -9741.717248167664, -18620.321884193647, -30021.902027356868, -11594.565104790343, -143383.26673308216, 187500.0, -41427.19256009967, -9286.009882212864, 0.6, -0.6920000000000001, 0.448, 192.0, 0.0, 0.0, 0.0, 0.0, 0.0, 0.0, 0.0, 0.0, 0.0, 1.6635896584280117E9, 0.0, 2022-09-19 17:14:18.428
193.0, -9762.07968736645, -18639.16440476947, -30022.594931434982, -11595.682692013108, -143484.69894942033, 187500.0, -41434.32276658092, -9288.066242702753, 0.6, -0.6920000000000001, 0.448, 192.0, 0.0, 0.0, 0.0, 0.0, 0.0, 0.0, 0.0, 0.0, 0.0, 1.6635896584320257E9, 0.0, 2022-09-19 17:14:18.432
194.0, -9752.356678528391, -18636.705712879386, -30018.90689359986, -11589.67007275463, -143558.9290927564, 187500.0, -41423.01278388653, -9274.096402418185, 0.6, -0.6920000000000001, 0.448, 192.0, 0.0, 0.0, 0.0, 0.0, 0.0, 0.0, 0.0, 0.0, 0.0, 1.6635896584360783E9, 0.0, 2022-09-19 17:14:18.436
195.0, -9740.666716178264, -18641.265468748268, -30034.687225185306, -11604.221058395036, -143631.3487447916, 187500.0, -41426.81258044393, -9275.683376274512, 0.6, -0.6920000000000001, 0.448, 192.0, 0.0, 0.0, 0.0, 0.0, 0.0, 0.0, 0.0, 0.0, 0.0, 1.6635896584400709E9, 0.0, 2022-09-19 17:14:18.440
196.0, -9726.383951471324, -18651.256698519792, -30044.410234023362, -11614.301695144379, -143701.73438808136, 187500.0, -41433.58515901389, -9285.384033368115, 0.6, -0.6920000000000001, 0.448, 192.0, 0.0, 0.0, 0.0, 0.0, 0.0, 0.0, 0.0, 0.0, 0.0, 1.6635896584450457E9, 0.0, 2022-09-19 17:14:18.445
197.0, -9740.331440011436, -18671.060344107194, -30033.90491412937, -11605.472756084533, -143797.15398516107, 187500.0, -41429.56184501194, -9292.760109038367, 0.6, -0.6920000000000001, 0.448, 192.0, 0.0, 0.0, 0.0, 0.0, 0.0, 0.0, 0.0, 0.0, 0.0, 1.6635896584491467E9, 0.0, 2022-09-19 17:14:18.449
198.0, -9758.704573953697, -18678.056440121705, -30029.211047793753, -11594.274532112424, -143897.7591869544, 187500.0, -41420.08470536288, -9277.516219319847, 0.6, -0.6920000000000001, 0.448, 192.0, 0.0, 0.0, 0.0, 0.0, 0.0, 0.0, 0.0, 0.0, 0.0, 1.6635896584531143E9, 0.0, 2022-09-19 17:14:18.453
199.0, -9755.910605896785, -18671.462675507388, -30030.932132116814, -11593.402814078667, -143978.62779839372, 187500.0, -41415.212025071625, -9264.753373235866, 0.6, -0.6920000000000001, 0.448, 192.0, 0.0, 0.0, 0.0, 0.0, 0.0, 0.0, 0.0, 0.0, 0.0, 1.663589658456132E9, 0.0, 2022-09-19 17:14:18.456
200.0, -9732.731846896631, -18660.666782935474, -30039.291684543095, -11601.494145571489, -144039.87157820124, 187500.0, -41408.215929057114, -9257.64551849908, 0.604, -0.6900000000000001, 0.45, 192.0, 18.0, 224.0, 234.0, 112.0, 14.0, 16.0, 0.0, 0.0, 0.0, 1.6635896584601085E9, 0.0, 2022-09-19 17:14:18.460
201.0, -9707.742596595597, -18644.506471694287, -30049.50643175917, -11609.585477064309, -144098.83548007434, 187500.0, -41417.4248477727, -9264.306338346762, 0.604, -0.6900000000000001, 0.45, 192.0, 0.0, 0.0, 0.0, 0.0, 0.0, 0.0, 0.0, 0.0, 0.0, 1.663589658464138E9, 0.0, 2022-09-19 17:14:18.464
202.0, -9713.554050153978, -18554.116017117027, -30040.31986478804, -11606.567991562843, -144183.32507411542, 187500.0, -41419.548263495955, -9273.448201828982, 0.604, -0.6900000000000001, 0.45, 192.0, 0.0, 0.0, 0.0, 0.0, 0.0, 0.0, 0.0, 0.0, 0.0, 1.6635896584681523E9, 0.0, 2022-09-19 17:14:18.468
203.0, -9732.463625963168, -18422.21837308626, -30032.85438213997, -11600.980055449016, -144281.4492322742, 187500.0, -41411.61339421432, -9267.726155248423, 0.604, -0.6900000000000001, 0.45, 192.0, 0.0, 0.0, 0.0, 0.0, 0.0, 0.0, 0.0, 0.0, 0.0, 1.6635896584730852E9, 0.0, 2022-09-19 17:14:18.473
204.0, -9732.485977707622, -18318.416871835812, -30043.98555087871, -11600.354206604268, -144362.25078848016, 187500.0, -41419.548263495955, -9260.841817956189, 0.604, -0.6900000000000001, 0.45, 192.0, 0.0, 0.0, 0.0, 0.0, 0.0, 0.0, 0.0, 0.0, 0.0, 1.6635896584772036E9, 0.0, 2022-09-19 17:14:18.477
205.0, -9707.563782639954, -18243.963211055187, -30059.38590280842, -11604.556334561865, -144421.5276147756, 187500.0, -41430.61237700134, -9253.868073686132, 0.604, -0.6900000000000001, 0.45, 192.0, 0.0, 0.0, 0.0, 0.0, 0.0, 0.0, 0.0, 0.0, 0.0, 1.6635896584811285E9, 0.0, 2022-09-19 17:14:18.481
206.0, -9683.312139905947, -18196.912788976766, -30065.018542411155, -11610.390139864701, -144478.32339743656, 187500.0, -41433.451048547155, -9261.713535989946, 0.604, -0.6900000000000001, 0.45, 192.0, 0.0, 0.0, 0.0, 0.0, 0.0, 0.0, 0.0, 0.0, 0.0, 1.6635896584841063E9, 0.0, 2022-09-19 17:14:18.484
207.0, -9699.58420986941, -18186.563931293957, -30059.56471676406, -11608.691407286098, -144570.39023284797, 187500.0, -41433.8310282029, -9271.391841339093, 0.604, -0.6900000000000001, 0.45, 192.0, 0.0, 0.0, 0.0, 0.0, 0.0, 0.0, 0.0, 0.0, 0.0, 1.6635896584881651E9, 0.0, 2022-09-19 17:14:18.488
208.0, -9716.795053099997, -18170.090695630395, -30042.242114811197, -11596.688520513597, -144662.43471651492, 187500.0, -41419.81648442942, -9266.74267849239, 0.604, -0.6900000000000001, 0.45, 192.0, 0.0, 0.0, 0.0, 0.0, 0.0, 0.0, 0.0, 0.0, 0.0, 1.6635896584921448E9, 0.0, 2022-09-19 17:14:18.492
209.0, -9711.698855364188, -18139.692323171177, -30037.32473103103, -11588.53013378741, -144734.78731331674, 187500.0, -41416.19550182766, -9259.031326655308, 0.604, -0.6900000000000001, 0.45, 192.0, 0.0, 0.0, 0.0, 0.0, 0.0, 0.0, 0.0, 0.0, 0.0, 1.6635896584961483E9, 0.0, 2022-09-19 17:14:18.496
210.0, -9693.81745979994, -18111.305607712937, -30050.08757711501, -11593.268703611935, -144796.5898867357, 187500.0, -41422.6775077197, -9259.299547588773, 0.604, -0.6960000000000001, 0.442, 192.0, 18.0, 224.0, 234.0, 64.0, 13.0, 208.0, 0.0, 0.0, 0.0, 1.663589658501143E9, 0.0, 2022-09-19 17:14:18.501
211.0, -9668.403526354257, -18087.00926149002, -30048.32178930304, -11593.20164837857, -144851.66458507354, 187500.0, -41419.0788768624, -9257.109076632152, 0.604, -0.6960000000000001, 0.442, 192.0, 0.0, 0.0, 0.0, 0.0, 0.0, 0.0, 0.0, 0.0, 0.0, 1.6635896585052748E9, 0.0, 2022-09-19 17:14:18.505
212.0, -9674.706718290654, -18087.7692208015, -30039.828126410026, -11588.373671576222, -144936.13182737015, 187500.0, -41416.396667527755, -9262.540550534792, 0.604, -0.6960000000000001, 0.442, 192.0, 0.0, 0.0, 0.0, 0.0, 0.0, 0.0, 0.0, 0.0, 0.0, 1.6635896585081804E9, 0.0, 2022-09-19 17:14:18.508
213.0, -9687.693081819187, -18085.48934286706, -30045.550172990585, -11591.078232655314, -145026.83520636978, 187500.0, -41419.57061524041, -9273.537608806802, 0.604, -0.6960000000000001, 0.442, 192.0, 0.0, 0.0, 0.0, 0.0, 0.0, 0.0, 0.0, 0.0, 0.0, 1.663589658512169E9, 0.0, 2022-09-19 17:14:18.512
214.0, -9680.562875337944, -18077.621528818792, -30044.544344490096, -11593.134593145203, -145103.76991078496, 187500.0, -41418.788304184476, -9269.424887827026, 0.604, -0.6960000000000001, 0.442, 192.0, 0.0, 0.0, 0.0, 0.0, 0.0, 0.0, 0.0, 0.0, 0.0, 1.663589658516224E9, 0.0, 2022-09-19 17:14:18.516
215.0, -9655.14894189226, -18059.918947210186, -30046.08661485751, -11588.463078554045, -145165.61718769278, 187500.0, -41410.09347559136, -9254.806846953255, 0.604, -0.6960000000000001, 0.442, 192.0, 0.0, 0.0, 0.0, 0.0, 0.0, 0.0, 0.0, 0.0, 0.0, 1.6635896585203056E9, 0.0, 2022-09-19 17:14:18.520
216.0, -9624.66116245522, -18046.552604025914, -30053.015655638657, -11595.615636779743, -145222.12239767582, 187500.0, -41410.71932443611, -9253.108114374652, 0.604, -0.6960000000000001, 0.442, 192.0, 0.0, 0.0, 0.0, 0.0, 0.0, 0.0, 0.0, 0.0, 0.0, 1.6635896585241976E9, 0.0, 2022-09-19 17:14:18.524
217.0, -9634.853557926841, -18057.639069275745, -30044.1420130899, -11591.72643324452, -145316.31264881048, 187500.0, -41416.48607450558, -9271.101268661174, 0.604, -0.6960000000000001, 0.442, 192.0, 0.0, 0.0, 0.0, 0.0, 0.0, 0.0, 0.0, 0.0, 0.0, 1.6635896585281763E9, 0.0, 2022-09-19 17:14:18.528
218.0, -9645.940023176674, -18051.939374439644, -30034.37430076293, -11584.372709318723, -145413.4756819577, 187500.0, -41411.83691165887, -9264.55220753577, 0.604, -0.6960000000000001, 0.442, 192.0, 0.0, 0.0, 0.0, 0.0, 0.0, 0.0, 0.0, 0.0, 0.0, 1.6635896585333307E9, 0.0, 2022-09-19 17:14:18.533
219.0, -9634.942964904663, -18044.317429580384, -30036.698882186283, -11584.015081407439, -145490.67860730633, 187500.0, -41406.38308601178, -9254.717439975433, 0.604, -0.6960000000000001, 0.442, 192.0, 0.0, 0.0, 0.0, 0.0, 0.0, 0.0, 0.0, 0.0, 0.0, 1.663589658536266E9, 0.0, 2022-09-19 17:14:18.536
220.0, -9605.148089545739, -18032.53806025244, -30037.458841497762, -11585.602055263766, -145547.8990731119, 187500.0, -41404.52789122199, -9253.286928330293, 0.61, -0.7000000000000001, 0.446, 192.0, 19.0, 16.0, 234.0, 32.0, 13.0, 240.0, 0.0, 0.0, 0.0, 1.663589658540265E9, 0.0, 2022-09-19 17:14:18.540
221.0, -9566.591330360334, -18018.65762694569, -30033.94961761828, -11586.29495934188, -145596.38000683548, 187500.0, -41404.237318544074, -9246.983736393899, 0.61, -0.7000000000000001, 0.446, 192.0, 0.0, 0.0, 0.0, 0.0, 0.0, 0.0, 0.0, 0.0, 0.0, 1.6635896585443256E9, 0.0, 2022-09-19 17:14:18.544
222.0, -9572.447487407624, -18037.0084091435, -30033.591989706994, -11587.300787842369, -145686.52459222372, 187500.0, -41417.08957160587, -9258.964271421943, 0.61, -0.7000000000000001, 0.446, 192.0, 0.0, 0.0, 0.0, 0.0, 0.0, 0.0, 0.0, 0.0, 0.0, 1.663589658548333E9, 0.0, 2022-09-19 17:14:18.548
223.0, -9592.966388817596, -18054.733342496558, -30033.94961761828, -11589.893590199184, -145789.99081730735, 187500.0, -41419.39180128477, -9281.78540251081, 0.61, -0.7000000000000001, 0.446, 192.0, 0.0, 0.0, 0.0, 0.0, 0.0, 0.0, 0.0, 0.0, 0.0, 1.663589658552304E9, 0.0, 2022-09-19 17:14:18.552
224.0, -9588.943074815641, -18053.19107212914, -30024.628940180417, -11585.892627941685, -145871.03824270229, 187500.0, -41409.33351627988, -9268.910797704553, 0.61, -0.7000000000000001, 0.446, 192.0, 0.0, 0.0, 0.0, 0.0, 0.0, 0.0, 0.0, 0.0, 0.0, 1.6635896585562773E9, 0.0, 2022-09-19 17:14:18.556
225.0, -9564.065583236883, -18041.47875803456, -30019.13041104441, -11584.037433151894, -145934.8971766111, 187500.0, -41398.17999579668, -9247.006088138352, 0.61, -0.7000000000000001, 0.446, 192.0, 0.0, 0.0, 0.0, 0.0, 0.0, 0.0, 0.0, 0.0, 0.0, 1.663589658561371E9, 0.0, 2022-09-19 17:14:18.561
226.0, -9531.946126454608, -18033.163909097184, -30024.830105880512, -11589.088927398792, -145989.12250865967, 187500.0, -41402.4715307321, -9241.239338068885, 0.61, -0.7000000000000001, 0.446, 192.0, 0.0, 0.0, 0.0, 0.0, 0.0, 0.0, 0.0, 0.0, 0.0, 1.6635896585643444E9, 0.0, 2022-09-19 17:14:18.564
227.0, -9545.13365568324, -18056.655592519714, -30029.456916982763, -11590.29592159938, -146081.1222888377, 187500.0, -41416.91075765023, -9253.44339054148, 0.61, -0.7000000000000001, 0.446, 192.0, 0.0, 0.0, 0.0, 0.0, 0.0, 0.0, 0.0, 0.0, 0.0, 1.6635896585702765E9, 0.0, 2022-09-19 17:14:18.570
228.0, -9569.050022250418, -18077.845046263345, -30034.79898390758, -11596.085023413305, -146183.76149937647, 187500.0, -41420.64349897426, -9262.719364490435, 0.61, -0.7000000000000001, 0.446, 192.0, 0.0, 0.0, 0.0, 0.0, 0.0, 0.0, 0.0, 0.0, 0.0, 1.6635896585743384E9, 0.0, 2022-09-19 17:14:18.574
229.0, -9560.84693203532, -18070.178397915173, -30034.173135062832, -11596.129726902214, -146257.34344212335, 187500.0, -41411.97102212561, -9254.87390218662, 0.61, -0.7000000000000001, 0.446, 192.0, 0.0, 0.0, 0.0, 0.0, 0.0, 0.0, 0.0, 0.0, 0.0, 1.6635896585772817E9, 0.0, 2022-09-19 17:14:18.577
230.0, -9534.091893922317, -18055.04626691893, -30044.65610321237, -11600.890648471195, -146315.793253874, 187500.0, -41415.90492914974, -9251.49878877387, 0.602, -0.704, 0.448, 192.0, 18.0, 208.0, 234.0, 0.0, 14.0, 0.0, 0.0, 0.0, 0.0, 1.6635896585802732E9, 0.0, 2022-09-19 17:14:18.580
231.0, -9514.623524501745, -18053.325182595872, -30050.847536426492, -11606.791509007397, -146376.5005918146, 187500.0, -41420.28587106298, -9255.253881842362, 0.602, -0.704, 0.448, 192.0, 0.0, 0.0, 0.0, 0.0, 0.0, 0.0, 0.0, 0.0, 0.0, 1.6635896585842955E9, 0.0, 2022-09-19 17:14:18.584
232.0, -9524.055960661884, -18069.440790348148, -30049.260562570165, -11611.038340453904, -146463.51593297912, 187500.0, -41420.15176059625, -9266.541512792292, 0.602, -0.704, 0.448, 192.0, 0.0, 0.0, 0.0, 0.0, 0.0, 0.0, 0.0, 0.0, 0.0, 1.663589658589332E9, 0.0, 2022-09-19 17:14:18.589
233.0, -9548.709934796088, -18086.428116134182, -30038.867001398445, -11598.968398448038, -146563.7858586056, 187500.0, -41418.631841973285, -9263.635786013101, 0.602, -0.704, 0.448, 192.0, 0.0, 0.0, 0.0, 0.0, 0.0, 0.0, 0.0, 0.0, 0.0, 1.6635896585923522E9, 0.0, 2022-09-19 17:14:18.592
234.0, -9550.252205163504, -18082.360098643316, -30039.381091520918, -11597.068500169338, -146642.8663304885, 187500.0, -41417.13427509478, -9257.936091176998, 0.602, -0.704, 0.448, 192.0, 0.0, 0.0, 0.0, 0.0, 0.0, 0.0, 0.0, 0.0, 0.0, 1.6635896585953035E9, 0.0, 2022-09-19 17:14:18.595
235.0, -9535.120074167262, -18077.040383462954, -30053.61915273895, -11609.138442175203, -146709.0721975651, 187500.0, -41421.068182118914, -9255.633861498101, 0.602, -0.704, 0.448, 192.0, 0.0, 0.0, 0.0, 0.0, 0.0, 0.0, 0.0, 0.0, 0.0, 1.6635896586003096E9, 0.0, 2022-09-19 17:14:18.600
236.0, -9507.605076742779, -18064.456351334615, -30049.774652692635, -11602.030587438416, -146761.5317418017, 187500.0, -41415.9272808942, -9242.938070647488, 0.602, -0.704, 0.448, 192.0, 0.0, 0.0, 0.0, 0.0, 0.0, 0.0, 0.0, 0.0, 0.0, 1.663589658604344E9, 0.0, 2022-09-19 17:14:18.604
237.0, -9519.36209432627, -18078.78381953047, -30049.03704512561, -11599.460136826056, -146848.5694347107, 187500.0, -41427.036097888486, -9245.709686959945, 0.602, -0.704, 0.448, 192.0, 0.0, 0.0, 0.0, 0.0, 0.0, 0.0, 0.0, 0.0, 0.0, 1.6635896586083446E9, 0.0, 2022-09-19 17:14:18.608
238.0, -9548.575824329357, -18101.649654108245, -30052.546269005095, -11605.763328762452, -146950.96277606045, 187500.0, -41439.95540618365, -9263.8369517132, 0.602, -0.704, 0.448, 192.0, 0.0, 0.0, 0.0, 0.0, 0.0, 0.0, 0.0, 0.0, 0.0, 1.663589658612326E9, 0.0, 2022-09-19 17:14:18.612
239.0, -9552.263862164482, -18105.829430321388, -30054.28970507261, -11601.360035104757, -147031.0490764438, 187500.0, -41438.10021139386, -9260.841817956189, 0.602, -0.704, 0.448, 192.0, 0.0, 0.0, 0.0, 0.0, 0.0, 0.0, 0.0, 0.0, 0.0, 1.6635896586163833E9, 0.0, 2022-09-19 17:14:18.616
240.0, -9534.203652644594, -18096.084069738874, -30060.034103397622, -11602.164697905147, -147093.54455394085, 187500.0, -41434.14395262527, -9253.599852752668, 0.594, -0.7000000000000001, 0.454, 192.0, 18.0, 144.0, 234.0, 32.0, 14.0, 48.0, 0.0, 0.0, 0.0, 1.6635896586204135E9, 0.0, 2022-09-19 17:14:18.620
241.0, -9504.162908096661, -18091.077278980887, -30067.164309878866, -11610.68071254262, -147145.08767665477, 187500.0, -41432.66873749122, -9253.108114374652, 0.594, -0.7000000000000001, 0.454, 192.0, 0.0, 0.0, 0.0, 0.0, 0.0, 0.0, 0.0, 0.0, 0.0, 1.663589658623375E9, 0.0, 2022-09-19 17:14:18.623
242.0, -9511.427225044636, -18107.282293710985, -30067.164309878866, -11610.881878242717, -147229.17493929566, 187500.0, -41442.25763586255, -9264.708669746957, 0.594, -0.7000000000000001, 0.454, 192.0, 0.0, 0.0, 0.0, 0.0, 0.0, 0.0, 0.0, 0.0, 0.0, 1.6635896586284735E9, 0.0, 2022-09-19 17:14:18.628
243.0, -9535.79062650092, -18114.278389725496, -30051.18281259332, -11597.716700758541, -147328.59549863287, 187500.0, -41435.418002059225, -9279.483172831915, 0.594, -0.7000000000000001, 0.454, 192.0, 0.0, 0.0, 0.0, 0.0, 0.0, 0.0, 0.0, 0.0, 0.0, 1.6635896586323571E9, 0.0, 2022-09-19 17:14:18.632
244.0, -9535.835329989832, -18100.57677037439, -30047.695940458292, -11593.402814078667, -147409.82173798344, 187500.0, -41426.63376648829, -9289.139126436607, 0.594, -0.7000000000000001, 0.454, 192.0, 0.0, 0.0, 0.0, 0.0, 0.0, 0.0, 0.0, 0.0, 0.0, 1.663589658636428E9, 0.0, 2022-09-19 17:14:18.636
245.0, -9520.054998404385, -18082.538912598957, -30042.108004344467, -11586.250255852969, -147477.54752368302, 187500.0, -41419.81648442942, -9248.97304165042, 0.594, -0.7000000000000001, 0.454, 192.0, 0.0, 0.0, 0.0, 0.0, 0.0, 0.0, 0.0, 0.0, 0.0, 1.663589658640364E9, 0.0, 2022-09-19 17:14:18.640
246.0, -9493.255256802471, -18069.8654734928, -30047.85240266948, -11589.893590199184, -147533.33747784348, 187500.0, -41417.98364138408, -9233.192710064974, 0.594, -0.7000000000000001, 0.454, 192.0, 0.0, 0.0, 0.0, 0.0, 0.0, 0.0, 0.0, 0.0, 0.0, 1.6635896586433992E9, 0.0, 2022-09-19 17:14:18.643
247.0, -9499.849021416787, -18081.086049209363, -30050.221687581743, -11588.731299487508, -147614.76488289415, 187500.0, -41427.48313277759, -9244.21212008144, 0.594, -0.7000000000000001, 0.454, 192.0, 0.0, 0.0, 0.0, 0.0, 0.0, 0.0, 0.0, 0.0, 0.0, 1.6635896586474583E9, 0.0, 2022-09-19 17:14:18.647
248.0, -9516.858698947275, -18085.824619033887, -30036.095385085988, -11575.186142347591, -147703.63541884845, 187500.0, -41419.972946640606, -9243.16158809204, 0.594, -0.7000000000000001, 0.454, 192.0, 0.0, 0.0, 0.0, 0.0, 0.0, 0.0, 0.0, 0.0, 0.0, 1.6635896586513865E9, 0.0, 2022-09-19 17:14:18.651
249.0, -9525.844100218308, -18087.836276034865, -30043.98555087871, -11578.784773204896, -147788.4379373119, 187500.0, -41425.136199609784, -9243.094532858675, 0.594, -0.7000000000000001, 0.454, 192.0, 0.0, 0.0, 0.0, 0.0, 0.0, 0.0, 0.0, 0.0, 0.0, 1.6635896586563883E9, 0.0, 2022-09-19 17:14:18.656
250.0, -9507.180393598128, -18079.789648030957, -30042.666797955848, -11586.29495934188, -147852.1404090095, 187500.0, -41419.21298732913, -9238.892404901077, 0.6, -0.6940000000000001, 0.45, 192.0, 18.0, 192.0, 234.0, 80.0, 14.0, 16.0, 0.0, 0.0, 0.0, 1.6635896586604493E9, 0.0, 2022-09-19 17:14:18.660
251.0, -9477.609035683756, -18071.13952292675, -30039.828126410026, -11590.34062508829, -147905.24815383533, 187500.0, -41418.207158828634, -9220.273401769806, 0.6, -0.6940000000000001, 0.45, 192.0, 0.0, 0.0, 0.0, 0.0, 0.0, 0.0, 0.0, 0.0, 0.0, 1.6635896586644063E9, 0.0, 2022-09-19 17:14:18.664
252.0, -9484.672186931633, -18089.28913942446, -30049.819356181546, -11602.589381049798, -147989.08954728718, 187500.0, -41435.23918810358, -9235.517291488326, 0.6, -0.6940000000000001, 0.45, 192.0, 0.0, 0.0, 0.0, 0.0, 0.0, 0.0, 0.0, 0.0, 0.0, 1.6635896586685073E9, 0.0, 2022-09-19 17:14:18.668
253.0, -9508.186222098617, -18104.734194843077, -30038.308207787064, -11598.901343214673, -148088.5995136022, 187500.0, -41425.11384786533, -9245.575576493213, 0.6, -0.6940000000000001, 0.45, 192.0, 0.0, 0.0, 0.0, 0.0, 0.0, 0.0, 0.0, 0.0, 0.0, 1.6635896586724455E9, 0.0, 2022-09-19 17:14:18.672
254.0, -9506.576896497834, -18099.637997107267, -30032.720271673235, -11594.095718156781, -148167.00943315143, 187500.0, -41415.413190771724, -9239.317088045727, 0.6, -0.6940000000000001, 0.45, 192.0, 0.0, 0.0, 0.0, 0.0, 0.0, 0.0, 0.0, 0.0, 0.0, 1.6635896586754313E9, 0.0, 2022-09-19 17:14:18.675
255.0, -9489.50016373398, -18085.77991554498, -30034.396652507385, -11591.72643324452, -148232.32123044983, 187500.0, -41411.00989711403, -9227.515366973324, 0.6, -0.6940000000000001, 0.45, 192.0, 0.0, 0.0, 0.0, 0.0, 0.0, 0.0, 0.0, 0.0, 0.0, 1.6635896586795135E9, 0.0, 2022-09-19 17:14:18.679
0.0, -9466.120239033728, -18082.158932943217, -30046.42189102434, -11599.750709503975, -148290.994559645, 187500.0, -41420.799961185454, -9224.16260530503, 0.6, -0.6940000000000001, 0.45, 192.0, 0.0, 0.0, 0.0, 0.0, 0.0, 0.0, 0.0, 0.0, 0.0, 1.6635896586844447E9, 0.0, 2022-09-19 17:14:18.684
1.0, -9470.076497802318, -18097.11224998382, -30040.386920021407, -11601.963532205049, -148372.28785422895, 187500.0, -41421.89519666376, -9233.662096698536, 0.6, -0.6940000000000001, 0.45, 192.0, 0.0, 0.0, 0.0, 0.0, 0.0, 0.0, 0.0, 0.0, 0.0, 1.66358965868851E9, 0.0, 2022-09-19 17:14:18.688
2.0, -9495.602189970277, -18114.12192751431, -30034.70957692976, -11596.822630980329, -148473.22833218914, 187500.0, -41424.95738565414, -9244.92737590401, 0.6, -0.6940000000000001, 0.45, 192.0, 0.0, 0.0, 0.0, 0.0, 0.0, 0.0, 0.0, 0.0, 0.0, 1.6635896586924691E9, 0.0, 2022-09-19 17:14:18.692
3.0, -9502.464175518058, -18115.440680437172, -30036.028329852623, -11599.01310193695, -148557.58381576347, 187500.0, -41423.77274319801, -9243.027477625308, 0.6, -0.6940000000000001, 0.45, 192.0, 0.0, 0.0, 0.0, 0.0, 0.0, 0.0, 0.0, 0.0, 0.0, 1.6635896586965058E9, 0.0, 2022-09-19 17:14:18.696
4.0, -9485.83447764331, -18104.86830530981, -30037.928228131324, -11602.678788027619, -148619.25227871566, 187500.0, -41416.821350672406, -9237.193672322474, 0.598, -0.6920000000000001, 0.446, 192.0, 18.0, 176.0, 234.0, 96.0, 13.0, 240.0, 0.0, 0.0, 0.0, 1.663589658699468E9, 0.0, 2022-09-19 17:14:18.699
5.0, -9456.5313406624, -18091.501962125538, -30038.911704887356, -11600.86829672674, -148669.34253804, 187500.0, -41416.24020531657, -9232.633916453591, 0.598, -0.6920000000000001, 0.446, 192.0, 0.0, 0.0, 0.0, 0.0, 0.0, 0.0, 0.0, 0.0, 0.0, 1.6635896587035131E9, 0.0, 2022-09-19 17:14:18.703
6.0, -9459.258253485948, -18106.67879661069, -30040.364568276953, -11600.376558348724, -148746.4560564108, 187500.0, -41423.01278388653, -9235.852567655154, 0.598, -0.6920000000000001, 0.446, 192.0, 0.0, 0.0, 0.0, 0.0, 0.0, 0.0, 0.0, 0.0, 0.0, 1.6635896587075515E9, 0.0, 2022-09-19 17:14:18.707
7.0, -9484.336910764803, -18128.29293349897, -30034.195486807286, -11589.558314032354, -148844.2449384028, 187500.0, -41416.01668787202, -9234.712628687934, 0.598, -0.6920000000000001, 0.446, 192.0, 0.0, 0.0, 0.0, 0.0, 0.0, 0.0, 0.0, 0.0, 0.0, 1.663589658711496E9, 0.0, 2022-09-19 17:14:18.711
8.0, -9494.931637636619, -18132.07037831192, -30040.94571363279, -11592.598151278276, -148933.69661971292, 187500.0, -41420.82231292991, -9235.092608343675, 0.598, -0.6920000000000001, 0.446, 192.0, 0.0, 0.0, 0.0, 0.0, 0.0, 0.0, 0.0, 0.0, 0.0, 1.6635896587165422E9, 0.0, 2022-09-19 17:14:18.716
9.0, -9481.028852585418, -18123.777881119, -30058.55888826357, -11609.317256130846, -149000.99772226784, 187500.0, -41432.892254935774, -9248.97304165042, 0.598, -0.6920000000000001, 0.446, 192.0, 0.0, 0.0, 0.0, 0.0, 0.0, 0.0, 0.0, 0.0, 0.0, 1.6635896587205312E9, 0.0, 2022-09-19 17:14:18.720
10.0, -9446.6295178687, -18107.14818324425, -30058.827109197035, -11610.43484335361, -149047.86933039062, 187500.0, -41426.79022869948, -9247.721343960922, 0.598, -0.6920000000000001, 0.446, 192.0, 0.0, 0.0, 0.0, 0.0, 0.0, 0.0, 0.0, 0.0, 0.0, 1.6635896587245135E9, 0.0, 2022-09-19 17:14:18.724
11.0, -9445.757799834944, -18117.944075816165, -30051.339274804508, -11600.600075793276, -149122.0547702378, 187500.0, -41421.04583037446, -9245.843797426676, 0.598, -0.6920000000000001, 0.446, 192.0, 0.0, 0.0, 0.0, 0.0, 0.0, 0.0, 0.0, 0.0, 0.0, 1.663589658727667E9, 0.0, 2022-09-19 17:14:18.727
12.0, -9473.83159087081, -18142.665105183736, -30043.449109011784, -11599.214267637048, -149222.8164342423, 187500.0, -41418.229510573095, -9261.825294712222, 0.598, -0.6920000000000001, 0.446, 192.0, 0.0, 0.0, 0.0, 0.0, 0.0, 0.0, 0.0, 0.0, 0.0, 1.6635896587315564E9, 0.0, 2022-09-19 17:14:18.731
13.0, -9481.855867130264, -18150.398808765272, -30041.90683864437, -11591.81584022234, -149309.20592656208, 187500.0, -41414.34030703787, -9226.554241961747, 0.598, -0.6920000000000001, 0.446, 192.0, 0.0, 0.0, 0.0, 0.0, 0.0, 0.0, 0.0, 0.0, 0.0, 1.6635896587356267E9, 0.0, 2022-09-19 17:14:18.735
14.0, -9464.5332651774, -18141.547517960968, -30033.614341451448, -11588.418375065134, -149375.4117936387, 187500.0, -41402.89621387675, -9213.29965749975, 0.598, -0.6920000000000001, 0.446, 192.0, 0.0, 0.0, 0.0, 0.0, 0.0, 0.0, 0.0, 0.0, 0.0, 1.66358965873956E9, 0.0, 2022-09-19 17:14:18.739
15.0, -9436.39241890817, -18131.779805634, -30041.88448689991, -11596.666168769141, -149429.771236154, 187500.0, -41407.56772846791, -9219.468738969415, 0.606, -0.6900000000000001, 0.448, 192.0, 18.0, 240.0, 234.0, 112.0, 14.0, 0.0, 0.0, 0.0, 0.0, 1.6635896587445428E9, 0.0, 2022-09-19 17:14:18.744
16.0, -9437.48765438648, -18147.22486105262, -30045.125489845934, -11608.333779374812, -149507.84587953638, 187500.0, -41423.23630133108, -9246.983736393899, 0.606, -0.6900000000000001, 0.448, 192.0, 0.0, 0.0, 0.0, 0.0, 0.0, 0.0, 0.0, 0.0, 0.0, 1.6635896587485788E9, 0.0, 2022-09-19 17:14:18.748
17.0, -9456.330174962304, -18160.904128659266, -30034.419004251842, -11598.566067047843, -149603.6231045274, 187500.0, -41422.38693504178, -9246.827274182711, 0.606, -0.6900000000000001, 0.448, 192.0, 0.0, 0.0, 0.0, 0.0, 0.0, 0.0, 0.0, 0.0, 0.0, 1.6635896587526357E9, 0.0, 2022-09-19 17:14:18.752
18.0, -9460.331137219804, -18161.17234959273, -30030.328635016518, -11590.251218110468, -149685.92222761182, 187500.0, -41416.86605416132, -9228.476491984904, 0.606, -0.6900000000000001, 0.448, 192.0, 0.0, 0.0, 0.0, 0.0, 0.0, 0.0, 0.0, 0.0, 0.0, 1.663589658755571E9, 0.0, 2022-09-19 17:14:18.755
19.0, -9447.367125435725, -18158.601898980367, -30034.866039140947, -11597.403776336167, -149751.47989409923, 187500.0, -41409.758199424534, -9228.565898962725, 0.606, -0.6900000000000001, 0.448, 192.0, 0.0, 0.0, 0.0, 0.0, 0.0, 0.0, 0.0, 0.0, 0.0, 1.6635896587596135E9, 0.0, 2022-09-19 17:14:18.759
20.0, -9419.650962311145, -18154.556233233958, -30041.99624562219, -11605.830383995817, -149804.09590054702, 187500.0, -41409.825254657895, -9234.533814732291, 0.606, -0.6900000000000001, 0.448, 192.0, 0.0, 0.0, 0.0, 0.0, 0.0, 0.0, 0.0, 0.0, 0.0, 1.6635896587636323E9, 0.0, 2022-09-19 17:14:18.763
21.0, -9423.920145502108, -18168.77194270753, -30035.201315307775, -11599.035453681405, -149885.880933509, 187500.0, -41406.76306566752, -9233.997372865364, 0.606, -0.6900000000000001, 0.448, 192.0, 0.0, 0.0, 0.0, 0.0, 0.0, 0.0, 0.0, 0.0, 0.0, 1.6635896587675955E9, 0.0, 2022-09-19 17:14:18.767
22.0, -9450.608128381746, -18188.240312128106, -30029.479268727217, -11596.95674144706, -149985.43560331294, 187500.0, -41410.316993035914, -9246.40259103806, 0.606, -0.6900000000000001, 0.448, 192.0, 0.0, 0.0, 0.0, 0.0, 0.0, 0.0, 0.0, 0.0, 0.0, 1.663589658771659E9, 0.0, 2022-09-19 17:14:18.771
23.0, -9455.972547051018, -18192.26362613006, -30025.27714076962, -11592.687558256097, -150065.09722055166, 187500.0, -41414.943804138165, -9250.291794573282, 0.606, -0.6900000000000001, 0.448, 192.0, 0.0, 0.0, 0.0, 0.0, 0.0, 0.0, 0.0, 0.0, 0.0, 1.6635896587766464E9, 0.0, 2022-09-19 17:14:18.776
24.0, -9439.34284917627, -18187.25683537207, -30025.858286125458, -11595.548581546376, -150126.9892009484, 187500.0, -41411.166359325216, -9257.533759776803, 0.606, -0.6900000000000001, 0.448, 192.0, 0.0, 0.0, 0.0, 0.0, 0.0, 0.0, 0.0, 0.0, 0.0, 1.6635896587796977E9, 0.0, 2022-09-19 17:14:18.779
25.0, -9410.106767428728, -18186.49687606059, -30034.08372808501, -11603.796375250386, -150175.38072769414, 187500.0, -41408.707667435134, -9247.49782651637, 0.604, -0.684, 0.448, 192.0, 18.0, 224.0, 234.0, 160.0, 14.0, 0.0, 0.0, 0.0, 0.0, 1.6635896587836452E9, 0.0, 2022-09-19 17:14:18.783
26.0, -9412.185479663072, -18203.640664057813, -30035.98362636371, -11606.702102029574, -150249.72262975248, 187500.0, -41413.24507155956, -9245.083838115197, 0.604, -0.684, 0.448, 192.0, 0.0, 0.0, 0.0, 0.0, 0.0, 0.0, 0.0, 0.0, 0.0, 1.6635896587876513E9, 0.0, 2022-09-19 17:14:18.787
27.0, -9435.207776452038, -18216.55997235298, -30031.155649561366, -11598.856639725762, -150343.6893634426, 187500.0, -41410.00406861354, -9245.329707304205, 0.604, -0.684, 0.448, 192.0, 0.0, 0.0, 0.0, 0.0, 0.0, 0.0, 0.0, 0.0, 0.0, 1.6635896587916448E9, 0.0, 2022-09-19 17:14:18.791
28.0, -9443.209700967038, -18214.928295007743, -30037.36943451994, -11601.717663016041, -150426.77079758298, 187500.0, -41406.405437756235, -9244.033306125797, 0.604, -0.684, 0.448, 192.0, 0.0, 0.0, 0.0, 0.0, 0.0, 0.0, 0.0, 0.0, 0.0, 1.6635896587957287E9, 0.0, 2022-09-19 17:14:18.795
29.0, -9426.557651347835, -18204.13240243583, -30037.592951964492, -11608.91492473065, -150490.4285657917, 187500.0, -41402.225661543096, -9245.664983471035, 0.604, -0.684, 0.448, 192.0, 0.0, 0.0, 0.0, 0.0, 0.0, 0.0, 0.0, 0.0, 0.0, 1.663589658799644E9, 0.0, 2022-09-19 17:14:18.799
30.0, -9393.074738153784, -18188.59794003939, -30045.930152646324, -11607.126785174225, -150537.16606344774, 187500.0, -41408.707667435134, -9227.49301522887, 0.604, -0.684, 0.448, 192.0, 0.0, 0.0, 0.0, 0.0, 0.0, 0.0, 0.0, 0.0, 0.0, 1.6635896588047411E9, 0.0, 2022-09-19 17:14:18.804
31.0, -9393.477069553981, -18201.249027401092, -30044.924324145835, -11602.276456627424, -150613.4972707626, 187500.0, -41416.48607450558, -9225.995448350364, 0.604, -0.684, 0.448, 192.0, 0.0, 0.0, 0.0, 0.0, 0.0, 0.0, 0.0, 0.0, 0.0, 1.6635896588077357E9, 0.0, 2022-09-19 17:14:18.807
32.0, -9415.404130864636, -18219.488050876625, -30041.57156247754, -11600.801241493375, -150709.96739983172, 187500.0, -41422.36458329733, -9241.507559002348, 0.604, -0.684, 0.448, 192.0, 0.0, 0.0, 0.0, 0.0, 0.0, 0.0, 0.0, 0.0, 0.0, 1.6635896588117177E9, 0.0, 2022-09-19 17:14:18.811
33.0, -9412.230183151984, -18210.726167050143, -30022.61728317944, -11590.027700665916, -150784.42106061234, 187500.0, -41398.917603363705, -9238.043038611775, 0.604, -0.684, 0.448, 192.0, 0.0, 0.0, 0.0, 0.0, 0.0, 0.0, 0.0, 0.0, 0.0, 1.66358965881573E9, 0.0, 2022-09-19 17:14:18.815
34.0, -9403.244781880949, -18204.579437324934, -30028.965178604747, -11591.681729755608, -150854.96316611327, 187500.0, -41399.47639697509, -9219.356980247137, 0.604, -0.684, 0.448, 192.0, 0.0, 0.0, 0.0, 0.0, 0.0, 0.0, 0.0, 0.0, 0.0, 1.6635896588196795E9, 0.0, 2022-09-19 17:14:18.819
35.0, -9376.556799001313, -18198.58916981091, -30042.063300855556, -11600.085985670805, -150908.29442838364, 187500.0, -41408.998240113055, -9219.714608158423, 0.6, -0.6920000000000001, 0.448, 192.0, 18.0, 192.0, 234.0, 96.0, 14.0, 0.0, 0.0, 0.0, 0.0, 1.6635896588237011E9, 0.0, 2022-09-19 17:14:18.823
36.0, -9371.460601265502, -18201.785469268023, -30038.107042086966, -11601.874125227228, -150978.0989263176, 187500.0, -41412.485112248076, -9234.891442643577, 0.6, -0.6920000000000001, 0.448, 192.0, 0.0, 0.0, 0.0, 0.0, 0.0, 0.0, 0.0, 0.0, 0.0, 1.6635896588277602E9, 0.0, 2022-09-19 17:14:18.827
37.0, -9394.371139332192, -18212.760175795578, -30039.090518843, -11601.538849060398, -151074.09966875313, 187500.0, -41417.938937895175, -9244.994431137375, 0.6, -0.6920000000000001, 0.448, 192.0, 0.0, 0.0, 0.0, 0.0, 0.0, 0.0, 0.0, 0.0, 0.0, 1.6635896588326983E9, 0.0, 2022-09-19 17:14:18.832
38.0, -9402.641284780657, -18217.766966553565, -30042.197411322286, -11598.677825770119, -151156.6223092821, 187500.0, -41420.08470536288, -9243.273346814316, 0.6, -0.6920000000000001, 0.448, 192.0, 0.0, 0.0, 0.0, 0.0, 0.0, 0.0, 0.0, 0.0, 0.0, 1.6635896588357792E9, 0.0, 2022-09-19 17:14:18.835
39.0, -9390.750156730433, -18215.688254319222, -30045.259600312664, -11598.677825770119, -151223.25285950338, 187500.0, -41412.79803667045, -9232.857433898143, 0.6, -0.6920000000000001, 0.448, 192.0, 0.0, 0.0, 0.0, 0.0, 0.0, 0.0, 0.0, 0.0, 0.0, 1.6635896588397765E9, 0.0, 2022-09-19 17:14:18.839
40.0, -9365.157409329106, -18212.916638006765, -30051.56279224906, -11613.742901532996, -151276.40530781812, 187500.0, -41414.49676924905, -9236.545471733269, 0.6, -0.6920000000000001, 0.448, 192.0, 0.0, 0.0, 0.0, 0.0, 0.0, 0.0, 0.0, 0.0, 0.0, 1.663589658843794E9, 0.0, 2022-09-19 17:14:18.843
41.0, -9359.725935426466, -18221.119728221864, -30045.974856135235, -11613.809956766363, -151342.99115455046, 187500.0, -41413.06625760392, -9241.909890402543, 0.6, -0.6920000000000001, 0.448, 192.0, 0.0, 0.0, 0.0, 0.0, 0.0, 0.0, 0.0, 0.0, 0.0, 1.66358965884778E9, 0.0, 2022-09-19 17:14:18.847
42.0, -9382.390604304148, -18240.297524964517, -30038.822297909537, -11604.623389795232, -151435.72854229552, 187500.0, -41410.6746209472, -9249.330669561705, 0.6, -0.6920000000000001, 0.448, 192.0, 0.0, 0.0, 0.0, 0.0, 0.0, 0.0, 0.0, 0.0, 0.0, 1.6635896588518536E9, 0.0, 2022-09-19 17:14:18.851
43.0, -9389.990197418952, -18243.247955232615, -30036.453012997274, -11604.57868630632, -151518.3629415468, 187500.0, -41404.01380109952, -9257.399649310071, 0.6, -0.6920000000000001, 0.448, 192.0, 0.0, 0.0, 0.0, 0.0, 0.0, 0.0, 0.0, 0.0, 0.0, 1.6635896588557763E9, 0.0, 2022-09-19 17:14:18.855
44.0, -9378.121421113185, -18232.94380103872, -30039.336388032007, -11606.903267729673, -151581.9760062666, 187500.0, -41406.71836217861, -9252.437562040992, 0.6, -0.6920000000000001, 0.448, 192.0, 0.0, 0.0, 0.0, 0.0, 0.0, 0.0, 0.0, 0.0, 0.0, 1.6635896588608716E9, 0.0, 2022-09-19 17:14:18.860
45.0, -9347.365420742683, -18219.152774709793, -30043.38205377842, -11609.339607875301, -151627.61826844435, 187500.0, -41408.998240113055, -9243.318050303227, 0.606, -0.6880000000000001, 0.448, 192.0, 18.0, 240.0, 234.0, 128.0, 14.0, 0.0, 0.0, 0.0, 0.0, 1.6635896588638077E9, 0.0, 2022-09-19 17:14:18.863
46.0, -9338.46942644947, -18226.260629446584, -30036.587123464004, -11603.885782228206, -151692.28186515355, 187500.0, -41408.55120522394, -9241.753428191356, 0.606, -0.6880000000000001, 0.448, 192.0, 0.0, 0.0, 0.0, 0.0, 0.0, 0.0, 0.0, 0.0, 0.0, 1.6635896588677704E9, 0.0, 2022-09-19 17:14:18.867
47.0, -9364.062173850796, -18248.76883611308, -30037.101213586477, -11605.450404340078, -151790.74129947918, 187500.0, -41414.00503087104, -9257.712573732446, 0.606, -0.6880000000000001, 0.448, 192.0, 0.0, 0.0, 0.0, 0.0, 0.0, 0.0, 0.0, 0.0, 0.0, 1.663589658871827E9, 0.0, 2022-09-19 17:14:18.871
48.0, -9375.059232122807, -18253.127426281862, -30038.66583569835, -11606.657398540665, -151874.76150688666, 187500.0, -41417.4248477727, -9256.72909697641, 0.606, -0.6880000000000001, 0.448, 192.0, 0.0, 0.0, 0.0, 0.0, 0.0, 0.0, 0.0, 0.0, 0.0, 1.663589658875844E9, 0.0, 2022-09-19 17:14:18.875
49.0, -9361.447019749525, -18243.98556279964, -30032.161478061855, -11600.935351960106, -151937.92753671738, 187500.0, -41400.92926036468, -9242.580442736202, 0.606, -0.6880000000000001, 0.448, 192.0, 0.0, 0.0, 0.0, 0.0, 0.0, 0.0, 0.0, 0.0, 0.0, 1.6635896588798556E9, 0.0, 2022-09-19 17:14:18.879
50.0, -9332.836786846732, -18231.110957993384, -30028.451088482274, -11603.841078739295, -151989.33654896458, 187500.0, -41384.299562489934, -9233.349172276161, 0.606, -0.6880000000000001, 0.448, 192.0, 0.0, 0.0, 0.0, 0.0, 0.0, 0.0, 0.0, 0.0, 0.0, 1.6635896588838215E9, 0.0, 2022-09-19 17:14:18.883
51.0, -9325.79598734331, -18240.90102206481, -30024.695995413782, -11606.523288073933, -152058.9398811984, 187500.0, -41389.73103639258, -9235.584346721691, 0.606, -0.6880000000000001, 0.448, 192.0, 0.0, 0.0, 0.0, 0.0, 0.0, 0.0, 0.0, 0.0, 0.0, 1.663589658888833E9, 0.0, 2022-09-19 17:14:18.888
52.0, -9352.23810103394, -18265.443237476735, -30027.71348091525, -11606.43388109611, -152156.50524574582, 187500.0, -41400.05754233093, -9250.738829462389, 0.606, -0.6880000000000001, 0.448, 192.0, 0.0, 0.0, 0.0, 0.0, 0.0, 0.0, 0.0, 0.0, 0.0, 1.663589658891965E9, 0.0, 2022-09-19 17:14:18.891
53.0, -9361.08939183824, -18270.405324745814, -30029.926303616325, -11608.557296819365, -152240.50310140886, 187500.0, -41398.31410626342, -9256.483227787403, 0.606, -0.6880000000000001, 0.448, 192.0, 0.0, 0.0, 0.0, 0.0, 0.0, 0.0, 0.0, 0.0, 0.0, 1.6635896588948896E9, 0.0, 2022-09-19 17:14:18.894
54.0, -9342.246871262416, -18258.737714140145, -30023.623111679928, -11611.932410232117, -152301.00927364937, 187500.0, -41388.70285614763, -9262.384088323604, 0.606, -0.6880000000000001, 0.448, 192.0, 0.0, 0.0, 0.0, 0.0, 0.0, 0.0, 0.0, 0.0, 0.0, 1.663589658899926E9, 0.0, 2022-09-19 17:14:18.899
55.0, -9312.65316160359, -18244.47730117766, -30030.41804199434, -11610.993636964993, -152350.49603587342, 187500.0, -41393.77670213899, -9246.737867204889, 0.598, -0.6920000000000001, 0.446, 192.0, 18.0, 176.0, 234.0, 96.0, 13.0, 240.0, 0.0, 0.0, 0.0, 1.663589658903927E9, 0.0, 2022-09-19 17:14:18.903
56.0, -9308.808661557277, -18253.216833259685, -30036.207143808264, -11612.424148610133, -152420.45699601853, 187500.0, -41407.321859278905, -9240.457027012948, 0.598, -0.6920000000000001, 0.446, 192.0, 0.0, 0.0, 0.0, 0.0, 0.0, 0.0, 0.0, 0.0, 0.0, 1.6635896589079423E9, 0.0, 2022-09-19 17:14:18.907
57.0, -9332.389751957626, -18269.779475901065, -30024.919512858334, -11606.746805518485, -152516.05540705388, 187500.0, -41400.99631559805, -9253.26457658584, 0.598, -0.6920000000000001, 0.446, 192.0, 0.0, 0.0, 0.0, 0.0, 0.0, 0.0, 0.0, 0.0, 0.0, 1.663589658911878E9, 0.0, 2022-09-19 17:14:18.911
58.0, -9338.111798538184, -18266.717286910687, -30022.103193056966, -11602.835250238806, -152596.58874232636, 187500.0, -41394.51430970601, -9258.137256877097, 0.598, -0.6920000000000001, 0.446, 192.0, 0.0, 0.0, 0.0, 0.0, 0.0, 0.0, 0.0, 0.0, 0.0, 1.663589658915938E9, 0.0, 2022-09-19 17:14:18.915
59.0, -9321.772673341355, -18256.636650161345, -30025.165382047344, -11598.521363558933, -152656.9831558446, 187500.0, -41394.00021958354, -9245.374410793116, 0.598, -0.6920000000000001, 0.446, 192.0, 0.0, 0.0, 0.0, 0.0, 0.0, 0.0, 0.0, 0.0, 0.0, 1.6635896589189749E9, 0.0, 2022-09-19 17:14:18.918
60.0, -9287.97683572493, -18235.626010373355, -30030.909780372356, -11596.57676179132, -152701.28431335502, 187500.0, -41396.704780662636, -9234.82438741021, 0.598, -0.6920000000000001, 0.446, 192.0, 0.0, 0.0, 0.0, 0.0, 0.0, 0.0, 0.0, 0.0, 0.0, 1.6635896589229865E9, 0.0, 2022-09-19 17:14:18.922
61.0, -9286.523972335335, -18241.638629631834, -30033.569637962537, -11593.000482678472, -152771.28997698904, 187500.0, -41403.43265574368, -9240.367620035127, 0.598, -0.6920000000000001, 0.446, 192.0, 0.0, 0.0, 0.0, 0.0, 0.0, 0.0, 0.0, 0.0, 0.0, 1.6635896589279647E9, 0.0, 2022-09-19 17:14:18.927
62.0, -9316.765882583366, -18265.823217132478, -30033.390824006896, -11587.881933198207, -152868.78828630308, 187500.0, -41405.15374006674, -9246.313184060238, 0.598, -0.6920000000000001, 0.446, 192.0, 0.0, 0.0, 0.0, 0.0, 0.0, 0.0, 0.0, 0.0, 0.0, 1.6635896589319715E9, 0.0, 2022-09-19 17:14:18.931
63.0, -9332.345048468715, -18275.814446903998, -30033.167306562344, -11586.920808186629, -152956.854159457, 187500.0, -41399.00701034153, -9243.49686425887, 0.598, -0.6920000000000001, 0.446, 192.0, 0.0, 0.0, 0.0, 0.0, 0.0, 0.0, 0.0, 0.0, 0.0, 1.6635896589359841E9, 0.0, 2022-09-19 17:14:18.935
64.0, -9317.883469806131, -18260.816426374487, -30034.731928674213, -11586.786697719896, -153018.23204973128, 187500.0, -41397.35298125184, -9234.243242054372, 0.598, -0.6920000000000001, 0.446, 192.0, 0.0, 0.0, 0.0, 0.0, 0.0, 0.0, 0.0, 0.0, 0.0, 1.66358965893999E9, 0.0, 2022-09-19 17:14:18.939
65.0, -9288.51327759186, -18242.84562383242, -30042.108004344467, -11586.563180275343, -153065.30482355415, 187500.0, -41404.304373777435, -9224.274364027306, 0.596, -0.6940000000000001, 0.442, 192.0, 18.0, 160.0, 234.0, 80.0, 13.0, 208.0, 0.0, 0.0, 0.0, 1.6635896589429924E9, 0.0, 2022-09-19 17:14:18.942
66.0, -9281.69599553299, -18247.986525057142, -30030.552152461074, -11582.942197673583, -153128.58261210713, 187500.0, -41397.64355392975, -9218.038227324276, 0.596, -0.6940000000000001, 0.442, 192.0, 0.0, 0.0, 0.0, 0.0, 0.0, 0.0, 0.0, 0.0, 0.0, 1.6635896589469612E9, 0.0, 2022-09-19 17:14:18.946
67.0, -9311.22264995845, -18271.589967201944, -30024.628940180417, -11578.024813893417, -153224.38218884257, 187500.0, -41393.687295161166, -9226.710704172934, 0.596, -0.6940000000000001, 0.442, 192.0, 0.0, 0.0, 0.0, 0.0, 0.0, 0.0, 0.0, 0.0, 0.0, 1.6635896589509852E9, 0.0, 2022-09-19 17:14:18.950
68.0, -9323.8513855757, -18278.09432483844, -30028.585198949004, -11574.470886525021, -153309.11765207263, 187500.0, -41395.788359139966, -9226.174262306007, 0.596, -0.6940000000000001, 0.442, 192.0, 0.0, 0.0, 0.0, 0.0, 0.0, 0.0, 0.0, 0.0, 0.0, 1.6635896589559677E9, 0.0, 2022-09-19 17:14:18.955
69.0, -9308.853365046187, -18265.19736828773, -30028.473440226728, -11570.872255667718, -153372.77542028134, 187500.0, -41391.54152769346, -9218.909945358033, 0.596, -0.6940000000000001, 0.442, 192.0, 0.0, 0.0, 0.0, 0.0, 0.0, 0.0, 0.0, 0.0, 0.0, 1.663589658960006E9, 0.0, 2022-09-19 17:14:18.960
70.0, -9279.505524576369, -18253.08272279295, -30029.278103027118, -11573.845037680274, -153423.8044528728, 187500.0, -41384.79130086795, -9219.848718625155, 0.596, -0.6940000000000001, 0.442, 192.0, 0.0, 0.0, 0.0, 0.0, 0.0, 0.0, 0.0, 0.0, 0.0, 1.6635896589640975E9, 0.0, 2022-09-19 17:14:18.964
71.0, -9273.761126251356, -18259.743542640634, -30025.143030302886, -11576.661357481642, -153493.94422697357, 187500.0, -41387.09353054685, -9229.39291350757, 0.596, -0.6940000000000001, 0.442, 192.0, 0.0, 0.0, 0.0, 0.0, 0.0, 0.0, 0.0, 0.0, 0.0, 1.6635896589680288E9, 0.0, 2022-09-19 17:14:18.968
72.0, -9297.163402696062, -18271.008821846106, -30019.197466277776, -11568.234749821991, -153588.38034729724, 187500.0, -41390.267478259506, -9226.531890217291, 0.596, -0.6940000000000001, 0.442, 192.0, 0.0, 0.0, 0.0, 0.0, 0.0, 0.0, 0.0, 0.0, 0.0, 1.6635896589709606E9, 0.0, 2022-09-19 17:14:18.970
73.0, -9310.686208091523, -18275.65798469281, -30018.75043138867, -11566.401906776657, -153677.02736580698, 187500.0, -41389.32870499238, -9227.180090806496, 0.596, -0.6940000000000001, 0.442, 192.0, 0.0, 0.0, 0.0, 0.0, 0.0, 0.0, 0.0, 0.0, 0.0, 1.6635896589750383E9, 0.0, 2022-09-19 17:14:18.975
74.0, -9302.12548996514, -18271.634670690855, -30024.919512858334, -11578.740069715986, -153746.56364280745, 187500.0, -41393.30731550542, -9231.583384464191, 0.596, -0.6940000000000001, 0.442, 192.0, 0.0, 0.0, 0.0, 0.0, 0.0, 0.0, 0.0, 0.0, 0.0, 1.6635896589790156E9, 0.0, 2022-09-19 17:14:18.979
75.0, -9271.302434361272, -18254.312068737992, -30025.120678558433, -11583.612750007243, -153794.17285849724, 187500.0, -41392.81557712741, -9233.416227509526, 0.6, -0.6940000000000001, 0.456, 192.0, 18.0, 192.0, 234.0, 80.0, 14.0, 64.0, 0.0, 0.0, 0.0, 1.6635896589830635E9, 0.0, 2022-09-19 17:14:18.983
76.0, -9258.49488478838, -18254.93791758274, -30030.17217280533, -11590.094755899281, -153858.1211993839, 187500.0, -41402.851510387845, -9246.313184060238, 0.6, -0.6940000000000001, 0.456, 192.0, 0.0, 0.0, 0.0, 0.0, 0.0, 0.0, 0.0, 0.0, 0.0, 1.663589658987958E9, 0.0, 2022-09-19 17:14:18.987
77.0, -9287.686263047011, -18278.47430449418, -30030.41804199434, -11598.186087392103, -153958.70404943277, 187500.0, -41409.37821976879, -9274.386975096104, 0.6, -0.6940000000000001, 0.456, 192.0, 0.0, 0.0, 0.0, 0.0, 0.0, 0.0, 0.0, 0.0, 0.0, 1.6635896589919968E9, 0.0, 2022-09-19 17:14:18.991
78.0, -9295.039986972808, -18275.345060270436, -30018.392803477385, -11587.09962214227, -154042.0537045066, 187500.0, -41397.50944346302, -9277.963254208953, 0.6, -0.6940000000000001, 0.456, 192.0, 0.0, 0.0, 0.0, 0.0, 0.0, 0.0, 0.0, 0.0, 0.0, 1.6635896589960508E9, 0.0, 2022-09-19 17:14:18.996
79.0, -9282.724175777934, -18263.8115601315, -30019.666852911338, -11585.57970351931, -154108.5277925167, 187500.0, -41391.07214105989, -9271.704765761468, 0.6, -0.6940000000000001, 0.456, 192.0, 0.0, 0.0, 0.0, 0.0, 0.0, 0.0, 0.0, 0.0, 0.0, 1.66358965899905E9, 0.0, 2022-09-19 17:14:18.999
80.0, -9256.93026267651, -18251.56280416999, -30032.720271673235, -11594.028662923416, -154162.52960712073, 187500.0, -41391.787396882464, -9263.92635869102, 0.6, -0.6940000000000001, 0.456, 192.0, 0.0, 0.0, 0.0, 0.0, 0.0, 0.0, 0.0, 0.0, 0.0, 1.6635896590031047E9, 0.0, 2022-09-19 17:14:19.003
81.0, -9248.056620127752, -18253.66386814879, -30025.120678558433, -11597.694349014086, -154229.54013699773, 187500.0, -41388.658152658725, -9264.462800557947, 0.6, -0.6940000000000001, 0.456, 192.0, 0.0, 0.0, 0.0, 0.0, 0.0, 0.0, 0.0, 0.0, 0.0, 1.6635896590071166E9, 0.0, 2022-09-19 17:14:19.007
82.0, -9275.571617552236, -18272.081705579963, -30023.17607679082, -11599.750709503975, -154325.85380385566, 187500.0, -41391.56387943791, -9278.678510031523, 0.6, -0.6940000000000001, 0.456, 192.0, 0.0, 0.0, 0.0, 0.0, 0.0, 0.0, 0.0, 0.0, 0.0, 1.663589659011053E9, 0.0, 2022-09-19 17:14:19.011
83.0, -9291.039024715308, -18276.216778304195, -30026.26061752565, -11597.806107736364, -154411.17041244154, 187500.0, -41391.452120715636, -9274.431678585015, 0.6, -0.6940000000000001, 0.456, 192.0, 0.0, 0.0, 0.0, 0.0, 0.0, 0.0, 0.0, 0.0, 0.0, 1.6635896590160415E9, 0.0, 2022-09-19 17:14:19.016
84.0, -9286.83689675771, -18270.919414868287, -30031.66973968384, -11602.030587438416, -154480.43846850854, 187500.0, -41390.80392012643, -9276.666853030545, 0.6, -0.6940000000000001, 0.456, 192.0, 0.0, 0.0, 0.0, 0.0, 0.0, 0.0, 0.0, 0.0, 0.0, 1.6635896590200703E9, 0.0, 2022-09-19 17:14:19.020
85.0, -9257.77962896581, -18254.982621071653, -30033.055547840067, -11600.443613582089, -154525.85721324175, 187500.0, -41386.4676817021, -9258.316070832738, 0.604, -0.6920000000000001, 0.45, 192.0, 18.0, 224.0, 234.0, 96.0, 14.0, 16.0, 0.0, 0.0, 0.0, 1.66358965902408E9, 0.0, 2022-09-19 17:14:19.024
86.0, -9249.665945728535, -18257.843644361932, -30031.84855363948, -11597.068500169338, -154592.0854320628, 187500.0, -41391.653286415734, -9239.78647467929, 0.604, -0.6920000000000001, 0.45, 192.0, 0.0, 0.0, 0.0, 0.0, 0.0, 0.0, 0.0, 0.0, 0.0, 1.6635896590271833E9, 0.0, 2022-09-19 17:14:19.027
87.0, -9275.236341385405, -18276.730868426665, -30033.346120517985, -11593.20164837857, -154689.18140997665, 187500.0, -41399.543452208454, -9247.788399194289, 0.604, -0.6920000000000001, 0.45, 192.0, 0.0, 0.0, 0.0, 0.0, 0.0, 0.0, 0.0, 0.0, 0.0, 1.66358965903108E9, 0.0, 2022-09-19 17:14:19.031
88.0, -9291.642521815602, -18284.799848175033, -30042.75620493367, -11594.542753045887, -154776.86730347484, 187500.0, -41408.26063254603, -9249.196559094973, 0.604, -0.6920000000000001, 0.45, 192.0, 0.0, 0.0, 0.0, 0.0, 0.0, 0.0, 0.0, 0.0, 0.0, 1.6635896590351174E9, 0.0, 2022-09-19 17:14:19.035
89.0, -9278.656158287067, -18271.545263713037, -30043.627922967426, -11596.129726902214, -154835.67474313674, 187500.0, -41404.237318544074, -9248.526006761314, 0.604, -0.6920000000000001, 0.45, 192.0, 0.0, 0.0, 0.0, 0.0, 0.0, 0.0, 0.0, 0.0, 0.0, 1.6635896590391357E9, 0.0, 2022-09-19 17:14:19.039
90.0, -9244.055657870253, -18245.639591889332, -30041.437452010807, -11597.470831569533, -154877.2042843347, 187500.0, -41400.593984197854, -9243.385105536594, 0.604, -0.6920000000000001, 0.45, 192.0, 0.0, 0.0, 0.0, 0.0, 0.0, 0.0, 0.0, 0.0, 0.0, 1.6635896590441463E9, 0.0, 2022-09-19 17:14:19.044
91.0, -9237.908928145043, -18248.210042501694, -30049.52878350363, -11605.96449446255, -154941.68906708827, 187500.0, -41405.779588911486, -9257.98079466591, 0.604, -0.6920000000000001, 0.45, 192.0, 0.0, 0.0, 0.0, 0.0, 0.0, 0.0, 0.0, 0.0, 0.0, 1.6635896590481455E9, 0.0, 2022-09-19 17:14:19.048
92.0, -9265.178056380517, -18265.66675492129, -30037.03415835311, -11601.874125227228, -155035.5440420561, 187500.0, -41396.280097517985, -9267.681451759512, 0.604, -0.6920000000000001, 0.45, 192.0, 0.0, 0.0, 0.0, 0.0, 0.0, 0.0, 0.0, 0.0, 0.0, 1.663589659051144E9, 0.0, 2022-09-19 17:14:19.051
93.0, -9283.506486833869, -18272.171112557782, -30040.27516129913, -11599.169564148136, -155123.49815648774, 187500.0, -41398.31410626342, -9263.747544735377, 0.604, -0.6920000000000001, 0.45, 192.0, 0.0, 0.0, 0.0, 0.0, 0.0, 0.0, 0.0, 0.0, 0.0, 1.6635896590551538E9, 0.0, 2022-09-19 17:14:19.055
94.0, -9268.866094215644, -18261.9116618528, -30035.51423973015, -11594.81097397935, -155183.82551477262, 187500.0, -41386.78060612448, -9258.137256877097, 0.604, -0.6920000000000001, 0.45, 192.0, 0.0, 0.0, 0.0, 0.0, 0.0, 0.0, 0.0, 0.0, 0.0, 1.6635896590591047E9, 0.0, 2022-09-19 17:14:19.059
95.0, -9240.479378757404, -18253.574461170967, -30042.912667144858, -11594.319235601335, -155231.3453234846, 187500.0, -41390.78156838198, -9257.064373143241, 0.598, -0.6900000000000001, 0.45, 192.0, 18.0, 176.0, 234.0, 112.0, 14.0, 16.0, 0.0, 0.0, 0.0, 1.6635896590631735E9, 0.0, 2022-09-19 17:14:19.063
96.0, -9234.936146132488, -18268.48307472266, -30051.831013182524, -11597.739052502997, -155295.67364402697, 187500.0, -41402.71739992111, -9250.425905040014, 0.598, -0.6900000000000001, 0.45, 192.0, 0.0, 0.0, 0.0, 0.0, 0.0, 0.0, 0.0, 0.0, 0.0, 1.663589659067148E9, 0.0, 2022-09-19 17:14:19.067
97.0, -9259.16543712204, -18286.14095284235, -30032.720271673235, -11580.215284850035, -155386.5781887267, 187500.0, -41393.64259167226, -9240.97111713542, 0.598, -0.6900000000000001, 0.45, 192.0, 0.0, 0.0, 0.0, 0.0, 0.0, 0.0, 0.0, 0.0, 0.0, 1.6635896590721776E9, 0.0, 2022-09-19 17:14:19.072
98.0, -9272.17415239503, -18280.843589406442, -30030.149821060877, -11570.358165545245, -155471.96185254597, 187500.0, -41390.33453349287, -9237.21602406693, 0.598, -0.6900000000000001, 0.45, 192.0, 0.0, 0.0, 0.0, 0.0, 0.0, 0.0, 0.0, 0.0, 0.0, 1.663589659076171E9, 0.0, 2022-09-19 17:14:19.076
99.0, -9264.775724980322, -18269.220682289684, -30037.436489753305, -11571.363994045734, -155538.0112574114, 187500.0, -41386.266516002004, -9240.747599690867, 0.598, -0.6900000000000001, 0.45, 192.0, 0.0, 0.0, 0.0, 0.0, 0.0, 0.0, 0.0, 0.0, 0.0, 1.6635896590791788E9, 0.0, 2022-09-19 17:14:19.079
100.0, -9243.228643325407, -18257.687182150745, -30042.55503923357, -11575.879046425707, -155591.25311270394, 187500.0, -41384.27721074548, -9236.701933944456, 0.598, -0.6900000000000001, 0.45, 192.0, 0.0, 0.0, 0.0, 0.0, 0.0, 0.0, 0.0, 0.0, 0.0, 1.6635896590832317E9, 0.0, 2022-09-19 17:14:19.083
101.0, -9233.416227509526, -18264.258595020605, -30045.86309741296, -11589.133630887703, -155655.15675010165, 187500.0, -41392.077969560385, -9249.531835261803, 0.598, -0.6900000000000001, 0.45, 192.0, 0.0, 0.0, 0.0, 0.0, 0.0, 0.0, 0.0, 0.0, 0.0, 1.6635896590872192E9, 0.0, 2022-09-19 17:14:19.087
102.0, -9259.344251077682, -18292.53355175657, -30042.443280511296, -11594.430994323611, -155750.01755356998, 187500.0, -41390.71451314861, -9268.307300604261, 0.598, -0.6900000000000001, 0.45, 192.0, 0.0, 0.0, 0.0, 0.0, 0.0, 0.0, 0.0, 0.0, 0.0, 1.6635896590912695E9, 0.0, 2022-09-19 17:14:19.091
103.0, -9269.134315149107, -18295.483982024667, -30038.263504298153, -11589.625369265721, -155831.1767376872, 187500.0, -41386.95942008012, -9265.558036036258, 0.598, -0.6900000000000001, 0.45, 192.0, 0.0, 0.0, 0.0, 0.0, 0.0, 0.0, 0.0, 0.0, 0.0, 1.6635896590953355E9, 0.0, 2022-09-19 17:14:19.095
104.0, -9261.221797611928, -18285.872731908887, -30032.317940273042, -11584.283302340902, -155897.87434314186, 187500.0, -41385.05952180142, -9253.666907986035, 0.598, -0.6900000000000001, 0.45, 192.0, 0.0, 0.0, 0.0, 0.0, 0.0, 0.0, 0.0, 0.0, 0.0, 1.6635896590992787E9, 0.0, 2022-09-19 17:14:19.099
105.0, -9233.080951342698, -18272.81931314699, -30031.289760028096, -11582.919845929127, -155948.43398909975, 187500.0, -41378.8680885873, -9246.290832315783, 0.598, -0.6900000000000001, 0.448, 192.0, 18.0, 176.0, 234.0, 112.0, 14.0, 0.0, 0.0, 0.0, 0.0, 1.6635896591042914E9, 0.0, 2022-09-19 17:14:19.104
106.0, -9231.516329230826, -18285.604510975423, -30028.920475115836, -11586.63023550871, -156014.55044919855, 187500.0, -41380.879745588274, -9250.984698651399, 0.598, -0.6900000000000001, 0.448, 192.0, 0.0, 0.0, 0.0, 0.0, 0.0, 0.0, 0.0, 0.0, 0.0, 1.663589659107246E9, 0.0, 2022-09-19 17:14:19.107
107.0, -9263.88165520211, -18315.064110167517, -30026.70765241476, -11595.123898401725, -156112.71931084627, 187500.0, -41386.51238519101, -9289.072071203242, 0.598, -0.6900000000000001, 0.448, 192.0, 0.0, 0.0, 0.0, 0.0, 0.0, 0.0, 0.0, 0.0, 0.0, 1.663589659111232E9, 0.0, 2022-09-19 17:14:19.111
108.0, -9284.825239756732, -18327.603438806946, -30020.046832567077, -11596.509706557956, -156202.1262886675, 187500.0, -41377.23641124206, -9317.36937968366, 0.598, -0.6900000000000001, 0.448, 192.0, 0.0, 0.0, 0.0, 0.0, 0.0, 0.0, 0.0, 0.0, 0.0, 1.6635896591152391E9, 0.0, 2022-09-19 17:14:19.115
109.0, -9282.83593450021, -18323.557773060533, -30023.690166913293, -11594.00631117896, -156271.1931790344, 187500.0, -41376.58821065286, -9296.582257340224, 0.598, -0.6900000000000001, 0.448, 192.0, 0.0, 0.0, 0.0, 0.0, 0.0, 0.0, 0.0, 0.0, 0.0, 1.6635896591192503E9, 0.0, 2022-09-19 17:14:19.119
110.0, -9254.538626019792, -18305.22934260718, -30029.166344304842, -11592.620503022732, -156319.137670891, 187500.0, -41373.79424259594, -9273.001166939875, 0.598, -0.6900000000000001, 0.448, 192.0, 0.0, 0.0, 0.0, 0.0, 0.0, 0.0, 0.0, 0.0, 0.0, 1.6635896591232436E9, 0.0, 2022-09-19 17:14:19.123
111.0, -9246.491998015881, -18307.77744147509, -30036.162440319353, -11600.980055449016, -156385.2541309898, 187500.0, -41382.13144327777, -9274.230512884917, 0.598, -0.6900000000000001, 0.448, 192.0, 0.0, 0.0, 0.0, 0.0, 0.0, 0.0, 0.0, 0.0, 0.0, 1.663589659127273E9, 0.0, 2022-09-19 17:14:19.127
112.0, -9283.484135089415, -18337.7287790452, -30029.009882093655, -11601.427090338122, -156489.86029504065, 187500.0, -41383.897231089744, -9287.395690369092, 0.598, -0.6900000000000001, 0.448, 192.0, 0.0, 0.0, 0.0, 0.0, 0.0, 0.0, 0.0, 0.0, 0.0, 1.6635896591323264E9, 0.0, 2022-09-19 17:14:19.132
113.0, -9308.696902835001, -18346.133034960396, -30022.058489568055, -11596.107375157759, -156582.88825546365, 187500.0, -41377.37052170879, -9287.08276594672, 0.598, -0.6900000000000001, 0.448, 192.0, 0.0, 0.0, 0.0, 0.0, 0.0, 0.0, 0.0, 0.0, 0.0, 1.6635896591352687E9, 0.0, 2022-09-19 17:14:19.135
114.0, -9312.384940670127, -18341.975610491707, -30023.757222146658, -11593.536924545399, -156660.04647732337, 187500.0, -41374.241277485045, -9277.918550720042, 0.598, -0.6900000000000001, 0.448, 192.0, 0.0, 0.0, 0.0, 0.0, 0.0, 0.0, 0.0, 0.0, 0.0, 1.663589659139248E9, 0.0, 2022-09-19 17:14:19.139
115.0, -9297.342216651705, -18327.156403917837, -30027.020576837134, -11585.780869219407, -156719.8373937413, 187500.0, -41372.34137920635, -9263.680489502012, 0.598, -0.6900000000000001, 0.448, 192.0, 0.0, 0.0, 0.0, 0.0, 0.0, 0.0, 0.0, 0.0, 0.0, 1.6635896591432717E9, 0.0, 2022-09-19 17:14:19.143
116.0, -9296.783423040322, -18326.888182984374, -30029.23339953821, -11582.137534873193, -156791.2959207649, 187500.0, -41382.511422933516, -9258.7854574663, 0.608, -0.6880000000000001, 0.45, 192.0, 19.0, 0.0, 234.0, 128.0, 14.0, 16.0, 0.0, 0.0, 0.0, 1.663589659147296E9, 0.0, 2022-09-19 17:14:19.147
117.0, -9330.378094956648, -18343.093197714472, -30021.454992467763, -11579.745898216475, -156896.32676796042, 187500.0, -41381.438539199655, -9266.250940114372, 0.608, -0.6880000000000001, 0.45, 192.0, 0.0, 0.0, 0.0, 0.0, 0.0, 0.0, 0.0, 0.0, 0.0, 1.663589659153307E9, 0.0, 2022-09-19 17:14:19.153
118.0, -9359.61417670419, -18350.782197807097, -30019.9350738448, -11582.495162784477, -157002.0058157451, 187500.0, -41378.91279207621, -9280.60076005468, 0.608, -0.6880000000000001, 0.45, 192.0, 0.0, 0.0, 0.0, 0.0, 0.0, 0.0, 0.0, 0.0, 0.0, 1.6635896591563358E9, 0.0, 2022-09-19 17:14:19.156
119.0, -9360.03885984884, -18343.406122136847, -30016.80582962106, -11581.891665684185, -157083.41086905132, 187500.0, -41375.80589959692, -9276.398632097082, 0.608, -0.6880000000000001, 0.45, 192.0, 0.0, 0.0, 0.0, 0.0, 0.0, 0.0, 0.0, 0.0, 0.0, 1.6635896591603367E9, 0.0, 2022-09-19 17:14:19.160
120.0, -9352.23810103394, -18342.73556980319, -30024.89716111388, -11588.619540765232, -157161.53021592263, 187500.0, -41380.83504209937, -9270.140143649596, 0.608, -0.6880000000000001, 0.45, 192.0, 0.0, 0.0, 0.0, 0.0, 0.0, 0.0, 0.0, 0.0, 0.0, 1.66358965916332E9, 0.0, 2022-09-19 17:14:19.163
121.0, -9362.56460697229, -18353.173834463818, -30031.066242583543, -11599.326026359324, -157252.34535364454, 187500.0, -41380.20919325462, -9280.26548388785, 0.608, -0.6880000000000001, 0.45, 192.0, 0.0, 0.0, 0.0, 0.0, 0.0, 0.0, 0.0, 0.0, 0.0, 1.6635896591663356E9, 0.0, 2022-09-19 17:14:19.166
122.0, -9405.05527318183, -18372.23987248419, -30021.723213401227, -11600.86829672674, -157372.46362834735, 187500.0, -41381.90792583322, -9292.737757293911, 0.608, -0.6880000000000001, 0.45, 192.0, 0.0, 0.0, 0.0, 0.0, 0.0, 0.0, 0.0, 0.0, 0.0, 1.6635896591713796E9, 0.0, 2022-09-19 17:14:19.171
123.0, -9451.479846415503, -18388.02020406964, -30019.9350738448, -11598.81193623685, -157493.8336007397, 187500.0, -41383.964286323106, -9300.65027483109, 0.608, -0.6880000000000001, 0.45, 192.0, 0.0, 0.0, 0.0, 0.0, 0.0, 0.0, 0.0, 0.0, 0.0, 1.6635896591753144E9, 0.0, 2022-09-19 17:14:19.175
124.0, -9471.149381536172, -18384.890959845896, -30025.47830646972, -11595.302712357368, -157597.50099152338, 187500.0, -41385.4171497127, -9289.206181669973, 0.608, -0.6880000000000001, 0.45, 192.0, 0.0, 0.0, 0.0, 0.0, 0.0, 0.0, 0.0, 0.0, 0.0, 1.663589659179332E9, 0.0, 2022-09-19 17:14:19.179
125.0, -9469.87533210222, -18370.988174794697, -30025.679472169817, -11590.541790788388, -157683.2199315095, 187500.0, -41380.38800721026, -9272.934111706509, 0.608, -0.6880000000000001, 0.45, 192.0, 0.0, 0.0, 0.0, 0.0, 0.0, 0.0, 0.0, 0.0, 0.0, 1.663589659183322E9, 0.0, 2022-09-19 17:14:19.183
126.0, -9474.815067626843, -18367.054267770563, -30014.57065517553, -11585.400889563667, -157775.73380181, 187500.0, -41369.03332102696, -9273.269387873339, 0.606, -0.6920000000000001, 0.456, 192.0, 18.0, 240.0, 234.0, 96.0, 14.0, 64.0, 0.0, 0.0, 0.0, 1.6635896591873465E9, 0.0, 2022-09-19 17:14:19.187
127.0, -9518.132748381227, -18384.555683679067, -30009.161533017344, -11583.143363373681, -157901.08238471538, 187500.0, -41372.90017281773, -9290.524934592835, 0.606, -0.6920000000000001, 0.456, 192.0, 0.0, 0.0, 0.0, 0.0, 0.0, 0.0, 0.0, 0.0, 0.0, 1.6635896591914277E9, 0.0, 2022-09-19 17:14:19.191
128.0, -9559.058792478894, -18391.998814582686, -30013.967158075233, -11583.277473840413, -158026.52037459856, 187500.0, -41377.392873453246, -9313.234306959428, 0.606, -0.6920000000000001, 0.456, 192.0, 0.0, 0.0, 0.0, 0.0, 0.0, 0.0, 0.0, 0.0, 0.0, 1.6635896591953726E9, 0.0, 2022-09-19 17:14:19.195
129.0, -9574.61560661979, -18388.511942447658, -30017.431678465808, -11579.231808094002, -158133.85345147294, 187500.0, -41376.409396697214, -9314.530708137836, 0.606, -0.6920000000000001, 0.456, 192.0, 0.0, 0.0, 0.0, 0.0, 0.0, 0.0, 0.0, 0.0, 0.0, 1.6635896591993887E9, 0.0, 2022-09-19 17:14:19.199
130.0, -9573.877999052764, -18375.838503341496, -30018.728079644214, -11565.61959572072, -158226.36732177346, 187500.0, -41375.38121645227, -9279.080841431718, 0.606, -0.6920000000000001, 0.456, 192.0, 0.0, 0.0, 0.0, 0.0, 0.0, 0.0, 0.0, 0.0, 0.0, 1.663589659203398E9, 0.0, 2022-09-19 17:14:19.203
131.0, -9580.315301455892, -18373.089238773497, -30015.55413193156, -11561.23865380748, -158321.9657328088, 187500.0, -41380.23154499907, -9280.153725165574, 0.606, -0.6920000000000001, 0.456, 192.0, 0.0, 0.0, 0.0, 0.0, 0.0, 0.0, 0.0, 0.0, 0.0, 1.663589659207434E9, 0.0, 2022-09-19 17:14:19.207
132.0, -9632.171348592205, -18398.436116985813, -30003.372431203417, -11556.544787471867, -158457.08202804113, 187500.0, -41380.544469421446, -9296.358739895672, 0.606, -0.6920000000000001, 0.456, 192.0, 0.0, 0.0, 0.0, 0.0, 0.0, 0.0, 0.0, 0.0, 0.0, 1.6635896592114253E9, 0.0, 2022-09-19 17:14:19.211
133.0, -9682.351014894368, -18410.394300269403, -29998.857378823446, -11557.885892139184, -158593.31591049623, 187500.0, -41377.594039153344, -9309.725083079944, 0.606, -0.6920000000000001, 0.456, 192.0, 0.0, 0.0, 0.0, 0.0, 0.0, 0.0, 0.0, 0.0, 0.0, 1.663589659214395E9, 0.0, 2022-09-19 17:14:19.214
134.0, -9711.29652396399, -18405.231047300225, -29994.051753765554, -11550.688630424576, -158716.2505050004, 187500.0, -41366.52992564797, -9303.064263232263, 0.606, -0.6920000000000001, 0.456, 192.0, 0.0, 0.0, 0.0, 0.0, 0.0, 0.0, 0.0, 0.0, 0.0, 1.6635896592184074E9, 0.0, 2022-09-19 17:14:19.218
135.0, -9724.796977614997, -18391.887055860407, -29993.336497942986, -11549.772208901908, -158828.81389007735, 187500.0, -41359.13149823326, -9306.46172838947, 0.606, -0.6920000000000001, 0.456, 192.0, 0.0, 0.0, 0.0, 0.0, 0.0, 0.0, 0.0, 0.0, 0.0, 1.6635896592224047E9, 0.0, 2022-09-19 17:14:19.222
136.0, -9751.283794794535, -18391.73059364922, -29997.784495089592, -11565.485485253988, -158953.11194099332, 187500.0, -41364.585323880354, -9335.250775247905, 0.598, -0.6880000000000001, 0.448, 192.0, 18.0, 176.0, 234.0, 128.0, 14.0, 0.0, 0.0, 0.0, 0.0, 1.663589659227441E9, 0.0, 2022-09-19 17:14:19.227
137.0, -9821.960010762217, -18417.144527094904, -29998.097419511967, -11570.626386478709, -159116.41378598378, 187500.0, -41375.47062343009, -9352.349859756216, 0.598, -0.6880000000000001, 0.448, 192.0, 0.0, 0.0, 0.0, 0.0, 0.0, 0.0, 0.0, 0.0, 0.0, 1.6635896592314713E9, 0.0, 2022-09-19 17:14:19.231
138.0, -9885.036633615093, -18430.488518534723, -29993.492960154173, -11560.255177051447, -159275.75937220568, 187500.0, -41368.07219601538, -9344.683211408044, 0.598, -0.6880000000000001, 0.448, 192.0, 0.0, 0.0, 0.0, 0.0, 0.0, 0.0, 0.0, 0.0, 0.0, 1.6635896592354743E9, 0.0, 2022-09-19 17:14:19.235
139.0, -9917.714884008752, -18422.508945764177, -29997.13629450039, -11559.249348550959, -159408.34992031456, 187500.0, -41367.267533214996, -9340.168159028073, 0.598, -0.6880000000000001, 0.448, 192.0, 0.0, 0.0, 0.0, 0.0, 0.0, 0.0, 0.0, 0.0, 0.0, 1.663589659239452E9, 0.0, 2022-09-19 17:14:19.239
140.0, -9936.49034935121, -18414.194096826806, -30008.155704516856, -11565.507836998444, -159527.77529093926, 187500.0, -41371.313198961405, -9343.99030732993, 0.598, -0.6880000000000001, 0.448, 192.0, 0.0, 0.0, 0.0, 0.0, 0.0, 0.0, 0.0, 0.0, 0.0, 1.66358965924254E9, 0.0, 2022-09-19 17:14:19.242
141.0, -9957.009250761183, -18408.092070590505, -30013.78834411959, -11563.272662552914, -159651.60395522165, 187500.0, -41371.0673297724, -9357.580167958757, 0.598, -0.6880000000000001, 0.448, 192.0, 0.0, 0.0, 0.0, 0.0, 0.0, 0.0, 0.0, 0.0, 0.0, 1.663589659246568E9, 0.0, 2022-09-19 17:14:19.246
142.0, -10013.961495633304, -18423.335960309025, -30007.909835327846, -11560.858674151741, -159808.04381466436, 187500.0, -41375.13534726326, -9374.254569322417, 0.598, -0.6880000000000001, 0.448, 192.0, 0.0, 0.0, 0.0, 0.0, 0.0, 0.0, 0.0, 0.0, 0.0, 1.6635896592504764E9, 0.0, 2022-09-19 17:14:19.250
143.0, -10070.958443994337, -18430.332056323536, -30003.394782947875, -11555.717772927019, -159963.54490083992, 187500.0, -41376.18587925266, -9374.366328044693, 0.598, -0.6880000000000001, 0.448, 192.0, 0.0, 0.0, 0.0, 0.0, 0.0, 0.0, 0.0, 0.0, 0.0, 1.6635896592555003E9, 0.0, 2022-09-19 17:14:19.255
