%OpenBCI Raw EEG Data
%Number of channels = 8
%Sample Rate = 250 Hz
%Board = OpenBCI_GUI$BoardCytonSerial
Sample Index, EXG Channel 0, EXG Channel 1, EXG Channel 2, EXG Channel 3, EXG Channel 4, EXG Channel 5, EXG Channel 6, EXG Channel 7, Accel Channel 0, Accel Channel 1, Accel Channel 2, Other, Other, Other, Other, Other, Other, Other, Analog Channel 0, Analog Channel 1, Analog Channel 2, Timestamp, Other, Timestamp (Formatted)
68.0, 30492.60741384118, 7530.280355248494, 4124.366238637715, -1337.6624986723066, -185257.49418228798, 187500.0, 12700.730586139034, 6781.787488673626, 0.0, 0.0, 0.0, 192.0, 0.0, 0.0, 0.0, 0.0, 0.0, 0.0, 0.0, 0.0, 0.0, 1.6635873680171509E9, 0.0, 2022-09-19 16:36:08.017
69.0, 30464.73478850541, 7509.2250119715945, 4112.676276287589, -1341.1717225517896, -185183.9122395411, 187500.0, 12691.365205212262, 6772.869142635959, 0.0, 0.0, 0.0, 192.0, 0.0, 0.0, 0.0, 0.0, 0.0, 0.0, 0.0, 0.0, 0.0, 1.6635873680171866E9, 0.0, 2022-09-19 16:36:08.017
0.0, 0.0, 0.0, 0.0, 0.0, 0.0, 0.0, 0.0, 0.0, 0.632, -0.706, 0.374, 192.0, 19.0, 192.0, 233.0, 240.0, 11.0, 176.0, 0.0, 0.0, 0.0, 1.6635873681121073E9, 0.0, 2022-09-19 16:36:08.112
1.0, 30166.093130838053, 7656.99239456563, 3171.0196341299575, -1570.2994549631424, -185474.6413796713, 187500.0, 19571.656831700424, 6686.345539849465, 0.632, -0.706, 0.374, 192.0, 0.0, 0.0, 0.0, 0.0, 0.0, 0.0, 0.0, 0.0, 0.0, 1.6635873681291475E9, 0.0, 2022-09-19 16:36:08.129
2.0, 30158.784110401168, 7649.437504939736, 3161.9001223921923, -1571.439393930363, -185350.2986252664, 187500.0, 19568.05820084312, 6680.467031057719, 0.632, -0.706, 0.374, 192.0, 0.0, 0.0, 0.0, 0.0, 0.0, 0.0, 0.0, 0.0, 0.0, 1.6635873681322277E9, 0.0, 2022-09-19 16:36:08.132
3.0, 30138.600485158026, 7630.974964019652, 3148.2208547855444, -1569.5171439072067, -185325.6893546211, 187500.0, 19563.67725892988, 6671.459278042231, 0.632, -0.706, 0.374, 192.0, 0.0, 0.0, 0.0, 0.0, 0.0, 0.0, 0.0, 0.0, 0.0, 1.663587368136171E9, 0.0, 2022-09-19 16:36:08.136
4.0, 30135.314778723096, 7626.884594784331, 3151.90889262067, -1565.4267746718854, -185367.755337686, 187500.0, 19569.868692144002, 6675.974330422203, 0.632, -0.706, 0.374, 192.0, 0.0, 0.0, 0.0, 0.0, 0.0, 0.0, 0.0, 0.0, 0.0, 1.6635873681400967E9, 0.0, 2022-09-19 16:36:08.140
5.0, 30144.188421271854, 7631.019667508563, 3161.5201427364523, -1564.7562223382263, -185466.39358596728, 187500.0, 19575.836607913567, 6681.9869496806805, 0.632, -0.706, 0.374, 192.0, 0.0, 0.0, 0.0, 0.0, 0.0, 0.0, 0.0, 0.0, 0.0, 1.6635873681431572E9, 0.0, 2022-09-19 16:36:08.143
6.0, 30167.098959338542, 7644.140141503828, 3176.8310876883374, -1562.3645856815083, -185452.28963521597, 187500.0, 19584.1738085954, 6690.458260829242, 0.632, -0.706, 0.374, 192.0, 0.0, 0.0, 0.0, 0.0, 0.0, 0.0, 0.0, 0.0, 0.0, 1.6635873681472168E9, 0.0, 2022-09-19 16:36:08.147
7.0, 30163.097997081044, 7638.351039689904, 3170.371433540754, -1564.5997601270392, -185345.94003509762, 187500.0, 19578.65292771494, 6686.166725893823, 0.632, -0.706, 0.374, 192.0, 0.0, 0.0, 0.0, 0.0, 0.0, 0.0, 0.0, 0.0, 0.0, 1.663587368151147E9, 0.0, 2022-09-19 16:36:08.151
8.0, 30140.522735181185, 7621.475472626147, 3158.43560200162, -1563.3704141819971, -185337.4463722046, 187500.0, 19572.953232878834, 6677.337786833977, 0.632, -0.704, 0.368, 192.0, 19.0, 192.0, 234.0, 0.0, 11.0, 128.0, 0.0, 0.0, 0.0, 1.6635873681552193E9, 0.0, 2022-09-19 16:36:08.155
9.0, 30130.86678157649, 7613.607658577879, 3158.2791397904325, -1559.9729490247905, -185362.18975331663, 187500.0, 19582.139799849963, 6678.656539756839, 0.632, -0.704, 0.368, 192.0, 0.0, 0.0, 0.0, 0.0, 0.0, 0.0, 0.0, 0.0, 0.0, 1.6635873681602E9, 0.0, 2022-09-19 16:36:08.160
10.0, 30136.946456068334, 7614.7699492895545, 3161.72130843655, -1560.8446670585474, -185413.88933824174, 187500.0, 19588.420640041906, 6683.573923537007, 0.632, -0.704, 0.368, 192.0, 0.0, 0.0, 0.0, 0.0, 0.0, 0.0, 0.0, 0.0, 0.0, 1.6635873681641817E9, 0.0, 2022-09-19 16:36:08.164
11.0, 30154.58198244357, 7626.705780828689, 3175.937017910125, -1561.112887992011, -185479.96109485163, 187500.0, 19594.12033487801, 6691.151164907356, 0.632, -0.704, 0.368, 192.0, 0.0, 0.0, 0.0, 0.0, 0.0, 0.0, 0.0, 0.0, 0.0, 1.6635873681681988E9, 0.0, 2022-09-19 16:36:08.168
12.0, 30150.15633704142, 7623.196556949206, 3173.143049853212, -1561.314053692109, -185365.85543940729, 187500.0, 19587.30305281914, 6684.1550688928455, 0.632, -0.704, 0.368, 192.0, 0.0, 0.0, 0.0, 0.0, 0.0, 0.0, 0.0, 0.0, 0.0, 1.6635873681712344E9, 0.0, 2022-09-19 16:36:08.171
13.0, 30125.703528607315, 7600.107204926873, 3159.776706668938, -1556.0390420006565, -185316.2792702054, 187500.0, 19585.090230118065, 6677.985987423181, 0.632, -0.704, 0.368, 192.0, 0.0, 0.0, 0.0, 0.0, 0.0, 0.0, 0.0, 0.0, 0.0, 1.6635873681752267E9, 0.0, 2022-09-19 16:36:08.175
14.0, 30117.29927269212, 7588.797222232488, 3156.8262764008377, -1555.7037658338268, -185350.03040433294, 187500.0, 19590.409945298426, 6677.896580445359, 0.632, -0.704, 0.368, 192.0, 0.0, 0.0, 0.0, 0.0, 0.0, 0.0, 0.0, 0.0, 0.0, 1.6635873681792057E9, 0.0, 2022-09-19 16:36:08.179
15.0, 30123.848333817525, 7590.607713533368, 3160.2907967914102, -1559.056527502123, -185441.44903915515, 187500.0, 19593.539189522173, 6679.327092090499, 0.632, -0.704, 0.368, 192.0, 0.0, 0.0, 0.0, 0.0, 0.0, 0.0, 0.0, 0.0, 0.0, 1.6635873681832335E9, 0.0, 2022-09-19 16:36:08.183
16.0, 30144.05431080512, 7603.83994625091, 3172.740718453016, -1558.9224170353912, -185469.85810635783, 187500.0, 19601.339948337074, 6686.300836360555, 0.632, -0.704, 0.368, 192.0, 0.0, 0.0, 0.0, 0.0, 0.0, 0.0, 0.0, 0.0, 0.0, 1.6635873681883647E9, 0.0, 2022-09-19 16:36:08.188
17.0, 30144.747214883235, 7601.001274705086, 3169.72323295155, -1558.6541961019275, -185376.8972011682, 187500.0, 19598.41186981343, 6680.914065946826, 0.632, -0.704, 0.368, 192.0, 0.0, 0.0, 0.0, 0.0, 0.0, 0.0, 0.0, 0.0, 0.0, 1.6635873681922E9, 0.0, 2022-09-19 16:36:08.192
18.0, 30120.04853726012, 7576.526114526524, 3151.90889262067, -1556.3296146785754, -185324.3929534427, 187500.0, 19591.885160432477, 6675.79551646656, 0.634, -0.704, 0.376, 192.0, 19.0, 208.0, 234.0, 0.0, 11.0, 192.0, 0.0, 0.0, 0.0, 1.6635873681962843E9, 0.0, 2022-09-19 16:36:08.196
19.0, 30117.366327925483, 7569.887646423298, 3149.4725524750415, -1553.02155649919, -185343.36958448525, 187500.0, 19599.127125635998, 6677.56130427853, 0.634, -0.704, 0.376, 192.0, 0.0, 0.0, 0.0, 0.0, 0.0, 0.0, 0.0, 0.0, 0.0, 1.6635873681992931E9, 0.0, 2022-09-19 16:36:08.199
20.0, 30123.78127858416, 7569.753535956566, 3154.4122879996644, -1553.5579983661173, -185405.08275092635, 187500.0, 19610.034776930188, 6682.679853758795, 0.634, -0.704, 0.376, 192.0, 0.0, 0.0, 0.0, 0.0, 0.0, 0.0, 0.0, 0.0, 0.0, 1.6635873682033095E9, 0.0, 2022-09-19 16:36:08.203
21.0, 30145.082491050067, 7582.806954718466, 3166.9292648946366, -1556.1731524673883, -185478.2400105286, 187500.0, 19619.55662006815, 6686.725519505206, 0.634, -0.704, 0.376, 192.0, 0.0, 0.0, 0.0, 0.0, 0.0, 0.0, 0.0, 0.0, 0.0, 1.6635873682072923E9, 0.0, 2022-09-19 16:36:08.207
22.0, 30150.290447508152, 7585.802088475477, 3169.3879567847202, -1554.5861786110615, -185348.95752059907, 187500.0, 19614.706291521346, 6682.9257229478035, 0.634, -0.704, 0.376, 192.0, 0.0, 0.0, 0.0, 0.0, 0.0, 0.0, 0.0, 0.0, 0.0, 1.6635873682113123E9, 0.0, 2022-09-19 16:36:08.211
23.0, 30129.659787375902, 7568.323024311427, 3159.3520235242872, -1551.9486727653352, -185319.56497664037, 187500.0, 19604.91622744992, 6673.94032167677, 0.634, -0.704, 0.376, 192.0, 0.0, 0.0, 0.0, 0.0, 0.0, 0.0, 0.0, 0.0, 0.0, 1.6635873682162771E9, 0.0, 2022-09-19 16:36:08.216
24.0, 30120.24970296022, 7557.8847596507985, 3153.2499972879887, -1553.2674256881985, -185360.46866899356, 187500.0, 19604.603303027547, 6671.839257697971, 0.634, -0.704, 0.376, 192.0, 0.0, 0.0, 0.0, 0.0, 0.0, 0.0, 0.0, 0.0, 0.0, 1.6635873682203672E9, 0.0, 2022-09-19 16:36:08.220
25.0, 30125.2117902293, 7556.767172428033, 3156.468648489553, -1555.055565244623, -185398.69015201213, 187500.0, 19614.080442676597, 6675.41553681082, 0.634, -0.704, 0.376, 192.0, 0.0, 0.0, 0.0, 0.0, 0.0, 0.0, 0.0, 0.0, 0.0, 1.6635873682243352E9, 0.0, 2022-09-19 16:36:08.224
26.0, 30145.641284661448, 7566.02079463253, 3169.3432532958095, -1555.435544900363, -185474.26140001553, 187500.0, 19625.792756771178, 6680.332920590988, 0.634, -0.704, 0.376, 192.0, 0.0, 0.0, 0.0, 0.0, 0.0, 0.0, 0.0, 0.0, 0.0, 1.6635873682283692E9, 0.0, 2022-09-19 16:36:08.228
27.0, 30155.25253477723, 7570.044108634485, 3172.070166119357, -1557.6483676014386, -185381.501660526, 187500.0, 19625.144556181975, 6681.204638624745, 0.634, -0.704, 0.376, 192.0, 0.0, 0.0, 0.0, 0.0, 0.0, 0.0, 0.0, 0.0, 0.0, 1.6635873682323406E9, 0.0, 2022-09-19 16:36:08.232
28.0, 30138.242857246743, 7556.141323583284, 3159.083802590824, -1561.9399025368575, -185328.3492122113, 187500.0, 19616.248561888762, 6672.487458287175, 0.644, -0.708, 0.372, 192.0, 20.0, 32.0, 233.0, 224.0, 11.0, 160.0, 0.0, 0.0, 0.0, 1.6635873682363672E9, 0.0, 2022-09-19 16:36:08.236
29.0, 30127.62577863047, 7545.457189733647, 3152.9594246100696, -1566.857286317025, -185349.69512816612, 187500.0, 19617.768480511724, 6667.279501829088, 0.644, -0.708, 0.372, 192.0, 0.0, 0.0, 0.0, 0.0, 0.0, 0.0, 0.0, 0.0, 0.0, 1.6635873682413557E9, 0.0, 2022-09-19 16:36:08.241
30.0, 30134.64422638944, 7548.228806046106, 3157.8544566457817, -1567.8631148175139, -185417.39856212123, 187500.0, 19625.815108515635, 6672.50981003163, 0.644, -0.708, 0.372, 192.0, 0.0, 0.0, 0.0, 0.0, 0.0, 0.0, 0.0, 0.0, 0.0, 1.6635873682443714E9, 0.0, 2022-09-19 16:36:08.244
31.0, 30151.743310897746, 7559.963471885142, 3167.041023616913, -1572.3334637085754, -185473.9261238487, 187500.0, 19630.933657995898, 6679.438850812776, 0.644, -0.708, 0.372, 192.0, 0.0, 0.0, 0.0, 0.0, 0.0, 0.0, 0.0, 0.0, 0.0, 1.6635873682494476E9, 0.0, 2022-09-19 16:36:08.249
32.0, 30156.101901066533, 7562.466867264136, 3164.649386960195, -1578.860173089525, -185394.3539135878, 187500.0, 19622.46234684734, 6675.951978677747, 0.644, -0.708, 0.372, 192.0, 0.0, 0.0, 0.0, 0.0, 0.0, 0.0, 0.0, 0.0, 0.0, 1.6635873682523518E9, 0.0, 2022-09-19 16:36:08.252
33.0, 30133.236066488753, 7543.512587966036, 3148.1090960632678, -1578.9495800673462, -185326.27049997693, 187500.0, 19610.951198452854, 6667.659481484829, 0.644, -0.708, 0.372, 192.0, 0.0, 0.0, 0.0, 0.0, 0.0, 0.0, 0.0, 0.0, 0.0, 1.6635873682563868E9, 0.0, 2022-09-19 16:36:08.256
34.0, 30125.97174954078, 7538.438741974681, 3141.7388488935053, -1581.0282923016898, -185347.3481949983, 187500.0, 19608.15723039594, 6663.345594804954, 0.644, -0.708, 0.372, 192.0, 0.0, 0.0, 0.0, 0.0, 0.0, 0.0, 0.0, 0.0, 0.0, 1.6635873682594123E9, 0.0, 2022-09-19 16:36:08.259
35.0, 30122.015490772188, 7532.359067482837, 3139.213101770056, -1587.7785191271926, -185392.5657740314, 187500.0, 19608.64896877396, 6661.803324437538, 0.644, -0.708, 0.372, 192.0, 0.0, 0.0, 0.0, 0.0, 0.0, 0.0, 0.0, 0.0, 0.0, 1.6635873682635212E9, 0.0, 2022-09-19 16:36:08.263
36.0, 30143.987255571756, 7546.485369978592, 3154.144067066201, -1586.0797865485893, -185493.97563862512, 187500.0, 19618.12610842301, 6671.906312931337, 0.644, -0.708, 0.372, 192.0, 0.0, 0.0, 0.0, 0.0, 0.0, 0.0, 0.0, 0.0, 0.0, 1.663587368267449E9, 0.0, 2022-09-19 16:36:08.267
37.0, 30161.91335462491, 7560.499913752069, 3163.4200410151534, -1583.4199289584076, -185427.65801282623, 187500.0, 19618.64019854548, 6673.94032167677, 0.644, -0.708, 0.372, 192.0, 0.0, 0.0, 0.0, 0.0, 0.0, 0.0, 0.0, 0.0, 0.0, 1.663587368272451E9, 0.0, 2022-09-19 16:36:08.272
38.0, 30145.618932916994, 7548.385268257292, 3149.9642908530586, -1582.3693969690082, -185351.77384040045, 187500.0, 19608.581913540595, 6666.161914606323, 0.634, -0.706, 0.376, 192.0, 19.0, 208.0, 233.0, 240.0, 11.0, 192.0, 0.0, 0.0, 0.0, 1.663587368276639E9, 0.0, 2022-09-19 16:36:08.276
39.0, 30129.190400742344, 7533.007268072041, 3138.5425494363967, -1581.5423824241618, -185339.56978792785, 187500.0, 19603.619826271515, 6662.518580260108, 0.634, -0.706, 0.376, 192.0, 0.0, 0.0, 0.0, 0.0, 0.0, 0.0, 0.0, 0.0, 0.0, 1.6635873682794461E9, 0.0, 2022-09-19 16:36:08.279
40.0, 30136.521772923683, 7537.745837896567, 3146.9244536071365, -1578.4578416893294, -185426.56277734792, 187500.0, 19608.537210051683, 6668.84412394096, 0.634, -0.706, 0.376, 192.0, 0.0, 0.0, 0.0, 0.0, 0.0, 0.0, 0.0, 0.0, 0.0, 1.6635873682834368E9, 0.0, 2022-09-19 16:36:08.283
41.0, 30154.045540576644, 7548.742896168577, 3158.659119446173, -1580.6483126459495, -185463.3761004658, 187500.0, 19611.73350950879, 6672.621568753907, 0.634, -0.706, 0.376, 192.0, 0.0, 0.0, 0.0, 0.0, 0.0, 0.0, 0.0, 0.0, 0.0, 1.663587368287432E9, 0.0, 2022-09-19 16:36:08.287
42.0, 30160.438139490863, 7551.670974692223, 3159.9331688801253, -1581.989417313268, -185389.19066061862, 187500.0, 19610.481811819292, 6671.459278042231, 0.634, -0.706, 0.376, 192.0, 0.0, 0.0, 0.0, 0.0, 0.0, 0.0, 0.0, 0.0, 0.0, 1.663587368291508E9, 0.0, 2022-09-19 16:36:08.291
43.0, 30140.835659603556, 7536.628250673802, 3143.1917122831005, -1582.0117690577233, -185321.75544759698, 187500.0, 19602.25636985974, 6664.574940749996, 0.634, -0.706, 0.376, 192.0, 0.0, 0.0, 0.0, 0.0, 0.0, 0.0, 0.0, 0.0, 0.0, 1.663587368295454E9, 0.0, 2022-09-19 16:36:08.295
44.0, 30128.49749666423, 7524.223032501106, 3136.7097063910614, -1576.6473503884497, -185345.51535195296, 187500.0, 19602.770459982214, 6665.111382616924, 0.634, -0.706, 0.376, 192.0, 0.0, 0.0, 0.0, 0.0, 0.0, 0.0, 0.0, 0.0, 0.0, 1.6635873682994757E9, 0.0, 2022-09-19 16:36:08.299
45.0, 30130.68796762085, 7520.400884199248, 3140.531854692919, -1576.736757366271, -185411.0730184404, 187500.0, 19609.185410640886, 6669.4252692967975, 0.634, -0.706, 0.376, 192.0, 0.0, 0.0, 0.0, 0.0, 0.0, 0.0, 0.0, 0.0, 0.0, 1.663587368304487E9, 0.0, 2022-09-19 16:36:08.304
46.0, 30150.737482397257, 7535.2871460064825, 3153.9205496216478, -1584.5151644367177, -185498.49069100508, 187500.0, 19615.712120021835, 6675.8849234443815, 0.634, -0.706, 0.376, 192.0, 0.0, 0.0, 0.0, 0.0, 0.0, 0.0, 0.0, 0.0, 0.0, 1.6635873683084571E9, 0.0, 2022-09-19 16:36:08.308
47.0, 30160.72871216878, 7543.758457155044, 3158.368546768254, -1591.1983360288546, -185408.72608527256, 187500.0, 19615.510954321737, 6670.1852286082785, 0.634, -0.706, 0.376, 192.0, 0.0, 0.0, 0.0, 0.0, 0.0, 0.0, 0.0, 0.0, 0.0, 1.663587368311421E9, 0.0, 2022-09-19 16:36:08.311
48.0, 30146.98238932877, 7531.733218638089, 3145.5833489398183, -1588.829051116592, -185325.21996798753, 187500.0, 19608.64896877396, 6666.31837681751, 0.636, -0.71, 0.378, 192.0, 19.0, 224.0, 233.0, 208.0, 11.0, 208.0, 0.0, 0.0, 0.0, 1.6635873683154895E9, 0.0, 2022-09-19 16:36:08.315
49.0, 30135.851220590022, 7521.026733043997, 3132.887558089204, -1588.5831819275836, -185347.28113976493, 187500.0, 19605.58677978358, 6664.820809939005, 0.636, -0.71, 0.378, 192.0, 0.0, 0.0, 0.0, 0.0, 0.0, 0.0, 0.0, 0.0, 0.0, 1.6635873683195088E9, 0.0, 2022-09-19 16:36:08.319
50.0, 30135.91827582339, 7519.149186509751, 3133.558110422863, -1588.5161266942177, -185408.3237538724, 187500.0, 19609.721852507813, 6669.849952441448, 0.636, -0.71, 0.378, 192.0, 0.0, 0.0, 0.0, 0.0, 0.0, 0.0, 0.0, 0.0, 0.0, 1.6635873683254704E9, 0.0, 2022-09-19 16:36:08.325
51.0, 30151.318627753095, 7532.671991905212, 3144.5104652059636, -1591.243039517765, -185469.65694065773, 187500.0, 19615.466250832826, 6677.270731600611, 0.636, -0.71, 0.378, 192.0, 0.0, 0.0, 0.0, 0.0, 0.0, 0.0, 0.0, 0.0, 0.0, 1.663587368329596E9, 0.0, 2022-09-19 16:36:08.329
52.0, 30159.49936622374, 7542.104428065351, 3148.7125931635615, -1594.014655830223, -185403.22755613658, 187500.0, 19613.655759531946, 6677.315435089521, 0.636, -0.71, 0.378, 192.0, 0.0, 0.0, 0.0, 0.0, 0.0, 0.0, 0.0, 0.0, 0.0, 1.6635873683325636E9, 0.0, 2022-09-19 16:36:08.332
53.0, 30143.473165449283, 7534.504834950547, 3134.3180697343437, -1593.1652895409215, -185344.26365426346, 187500.0, 19601.004672170242, 6669.291158830066, 0.636, -0.71, 0.378, 192.0, 0.0, 0.0, 0.0, 0.0, 0.0, 0.0, 0.0, 0.0, 0.0, 1.663587368335546E9, 0.0, 2022-09-19 16:36:08.335
54.0, 30125.882342562956, 7522.948983067154, 3124.751523107472, -1592.830013374092, -185345.6047589308, 187500.0, 19595.617901756515, 6663.233836082678, 0.636, -0.71, 0.378, 192.0, 0.0, 0.0, 0.0, 0.0, 0.0, 0.0, 0.0, 0.0, 0.0, 1.6635873683395543E9, 0.0, 2022-09-19 16:36:08.339
55.0, 30122.797801828125, 7521.227898744095, 3130.0935900322906, -1591.8688883625136, -185401.3723613468, 187500.0, 19604.379785582994, 6664.239664583167, 0.636, -0.71, 0.378, 192.0, 0.0, 0.0, 0.0, 0.0, 0.0, 0.0, 0.0, 0.0, 0.0, 1.663587368343586E9, 0.0, 2022-09-19 16:36:08.343
56.0, 30136.34295896804, 7532.962564583131, 3144.175189039134, -1590.4607284618294, -185470.66276915823, 187500.0, 19615.466250832826, 6669.60408325244, 0.636, -0.71, 0.378, 192.0, 0.0, 0.0, 0.0, 0.0, 0.0, 0.0, 0.0, 0.0, 0.0, 1.6635873683475769E9, 0.0, 2022-09-19 16:36:08.347
57.0, 30153.10676730952, 7546.7312391676005, 3154.591101955307, -1589.3878447279747, -185427.18862619266, 187500.0, 19623.46817534783, 6676.220199611212, 0.636, -0.71, 0.378, 192.0, 0.0, 0.0, 0.0, 0.0, 0.0, 0.0, 0.0, 0.0, 0.0, 1.6635873683516073E9, 0.0, 2022-09-19 16:36:08.351
58.0, 30136.92410432388, 7532.9402128386755, 3139.4813227035193, -1584.6492749034496, -185324.97409879853, 187500.0, 19615.466250832826, 6672.912141431826, 0.63, -0.704, 0.378, 192.0, 19.0, 176.0, 234.0, 0.0, 11.0, 208.0, 0.0, 0.0, 0.0, 1.6635873683555536E9, 0.0, 2022-09-19 16:36:08.355
59.0, 30120.652034360413, 7517.7410266090665, 3129.490092931997, -1583.4199289584076, -185353.04788983442, 187500.0, 19611.465288575328, 6670.051118141547, 0.63, -0.704, 0.378, 192.0, 0.0, 0.0, 0.0, 0.0, 0.0, 0.0, 0.0, 0.0, 0.0, 1.6635873683595865E9, 0.0, 2022-09-19 16:36:08.359
60.0, 30120.62968261596, 7515.461148674625, 3131.345287721788, -1585.543344681662, -185380.4511285366, 187500.0, 19615.01921594372, 6671.101650130946, 0.63, -0.704, 0.378, 192.0, 0.0, 0.0, 0.0, 0.0, 0.0, 0.0, 0.0, 0.0, 0.0, 1.6635873683635974E9, 0.0, 2022-09-19 16:36:08.363
61.0, 30127.402261185918, 7516.019942286008, 3138.274328502933, -1588.2702575052092, -185444.73474559007, 187500.0, 19621.523573580216, 6671.548685020052, 0.63, -0.704, 0.378, 192.0, 0.0, 0.0, 0.0, 0.0, 0.0, 0.0, 0.0, 0.0, 0.0, 1.6635873683665972E9, 0.0, 2022-09-19 16:36:08.366
62.0, 30144.411938716406, 7526.637020902279, 3149.271386774944, -1589.8572313615362, -185440.77848682148, 187500.0, 19625.859812004546, 6673.493286787664, 0.63, -0.704, 0.378, 192.0, 0.0, 0.0, 0.0, 0.0, 0.0, 0.0, 0.0, 0.0, 0.0, 1.6635873683716319E9, 0.0, 2022-09-19 16:36:08.371
63.0, 30133.414880444394, 7515.416445185715, 3136.754409879972, -1592.0253505737007, -185336.28408149292, 187500.0, 19618.75195726776, 6664.150257605345, 0.63, -0.704, 0.378, 192.0, 0.0, 0.0, 0.0, 0.0, 0.0, 0.0, 0.0, 0.0, 0.0, 1.663587368375666E9, 0.0, 2022-09-19 16:36:08.375
64.0, 30116.874589547468, 7501.804232812433, 3129.6018516542736, -1586.213897015321, -185346.74469789802, 187500.0, 19620.31657937963, 6665.2007895947445, 0.63, -0.704, 0.378, 192.0, 0.0, 0.0, 0.0, 0.0, 0.0, 0.0, 0.0, 0.0, 0.0, 1.663587368379672E9, 0.0, 2022-09-19 16:36:08.379
65.0, 30118.550970381617, 7500.843107800854, 3135.52506393493, -1585.543344681662, -185396.2538118665, 187500.0, 19628.340855639086, 6674.968501921714, 0.63, -0.704, 0.378, 192.0, 0.0, 0.0, 0.0, 0.0, 0.0, 0.0, 0.0, 0.0, 0.0, 1.663587368383615E9, 0.0, 2022-09-19 16:36:08.383
66.0, 30129.10099376452, 7505.894602047754, 3143.4822849610196, -1589.1419755389663, -185444.5112281455, 187500.0, 19634.621695831025, 6679.4612025572305, 0.63, -0.704, 0.378, 192.0, 0.0, 0.0, 0.0, 0.0, 0.0, 0.0, 0.0, 0.0, 0.0, 1.663587368387708E9, 0.0, 2022-09-19 16:36:08.387
67.0, 30146.691816650848, 7519.395055698759, 3155.395764755698, -1585.3198272371087, -185467.80174586794, 187500.0, 19642.645972090482, 6688.670121272818, 0.63, -0.704, 0.378, 192.0, 0.0, 0.0, 0.0, 0.0, 0.0, 0.0, 0.0, 0.0, 0.0, 1.6635873683916094E9, 0.0, 2022-09-19 16:36:08.391
68.0, 30134.353653711518, 7511.1025585058405, 3145.426886728631, -1583.2187632583098, -185353.6513869347, 187500.0, 19633.012370230244, 6681.182286880289, 0.634, -0.708, 0.378, 192.0, 19.0, 208.0, 233.0, 224.0, 11.0, 208.0, 0.0, 0.0, 0.0, 1.6635873683946316E9, 0.0, 2022-09-19 16:36:08.394
69.0, 30109.90084527741, 7491.544782107447, 3130.9206045771366, -1584.2245917587986, -185314.75935158247, 187500.0, 19620.651855546457, 6674.588522265974, 0.634, -0.708, 0.378, 192.0, 0.0, 0.0, 0.0, 0.0, 0.0, 0.0, 0.0, 0.0, 0.0, 1.6635873683996224E9, 0.0, 2022-09-19 16:36:08.399
70.0, 30103.217673685274, 7485.532162848969, 3129.2665754874442, -1582.0341208021787, -185375.01965463397, 187500.0, 19620.428338101905, 6676.264903100122, 0.634, -0.708, 0.378, 192.0, 0.0, 0.0, 0.0, 0.0, 0.0, 0.0, 0.0, 0.0, 0.0, 1.6635873684046385E9, 0.0, 2022-09-19 16:36:08.404
71.0, 30119.44504015983, 7497.467994388104, 3141.783552382416, -1578.4578416893294, -185478.06119657293, 187500.0, 19628.02793121671, 6682.478688058697, 0.634, -0.708, 0.378, 192.0, 0.0, 0.0, 0.0, 0.0, 0.0, 0.0, 0.0, 0.0, 0.0, 1.663587368407657E9, 0.0, 2022-09-19 16:36:08.407
72.0, 30139.628665402972, 7512.0413317729635, 3151.841837387304, -1580.3577399680305, -185447.52871364699, 187500.0, 19631.112471951543, 6688.670121272818, 0.634, -0.708, 0.378, 192.0, 0.0, 0.0, 0.0, 0.0, 0.0, 0.0, 0.0, 0.0, 0.0, 1.6635873684136808E9, 0.0, 2022-09-19 16:36:08.413
73.0, 30133.414880444394, 7509.515584649514, 3143.035250071913, -1585.2304202592875, -185364.33552078434, 187500.0, 19622.305884636153, 6681.182286880289, 0.634, -0.708, 0.378, 192.0, 0.0, 0.0, 0.0, 0.0, 0.0, 0.0, 0.0, 0.0, 0.0, 1.6635873684167676E9, 0.0, 2022-09-19 16:36:08.416
74.0, 30109.856141788503, 7490.248380929039, 3127.880767331215, -1588.4043679719412, -185335.0994390368, 187500.0, 19612.135840908988, 6668.285330329577, 0.634, -0.708, 0.378, 192.0, 0.0, 0.0, 0.0, 0.0, 0.0, 0.0, 0.0, 0.0, 0.0, 1.6635873684196627E9, 0.0, 2022-09-19 16:36:08.419
75.0, 30108.53738886564, 7487.5661715944025, 3127.2549184864665, -1587.7114638938265, -185385.7484919725, 187500.0, 19616.20385839985, 6669.268807085611, 0.634, -0.708, 0.378, 192.0, 0.0, 0.0, 0.0, 0.0, 0.0, 0.0, 0.0, 0.0, 0.0, 1.6635873684226947E9, 0.0, 2022-09-19 16:36:08.422
76.0, 30112.225426700763, 7489.644883828746, 3134.4074767121647, -1590.9748185843014, -185461.85618184283, 187500.0, 19622.730567780804, 6668.9558826632365, 0.634, -0.708, 0.378, 192.0, 0.0, 0.0, 0.0, 0.0, 0.0, 0.0, 0.0, 0.0, 0.0, 1.663587368427752E9, 0.0, 2022-09-19 16:36:08.427
77.0, 30134.107784522508, 7505.91695379221, 3149.0925728193015, -1594.9757808418015, -185491.40518801275, 187500.0, 19629.056111461654, 6672.532161776086, 0.634, -0.708, 0.378, 192.0, 0.0, 0.0, 0.0, 0.0, 0.0, 0.0, 0.0, 0.0, 0.0, 1.663587368431708E9, 0.0, 2022-09-19 16:36:08.431
78.0, 30128.72101410878, 7501.24543920105, 3139.7271918925276, -1591.3324464955863, -185362.72619518355, 187500.0, 19622.752919525257, 6668.374737307398, 0.634, -0.708, 0.378, 192.0, 0.0, 0.0, 0.0, 0.0, 0.0, 0.0, 0.0, 0.0, 0.0, 1.6635873684357936E9, 0.0, 2022-09-19 16:36:08.435
79.0, 30108.425630143363, 7484.548686092936, 3122.650459128673, -1586.1021382930444, -185341.8049623734, 187500.0, 19615.466250832826, 6663.2561878271335, 0.636, -0.706, 0.376, 192.0, 19.0, 224.0, 233.0, 240.0, 11.0, 192.0, 0.0, 0.0, 0.0, 1.6635873684397137E9, 0.0, 2022-09-19 16:36:08.439
80.0, 30098.769676538668, 7477.798459267433, 3119.3200492048322, -1588.6725889054048, -185403.4063700922, 187500.0, 19612.515820564728, 6659.769315692105, 0.636, -0.706, 0.376, 192.0, 0.0, 0.0, 0.0, 0.0, 0.0, 0.0, 0.0, 0.0, 0.0, 1.6635873684428277E9, 0.0, 2022-09-19 16:36:08.442
81.0, 30114.795877313125, 7490.360139651316, 3133.1781307671226, -1590.572487184106, -185478.2847140175, 187500.0, 19617.74612876727, 6668.441792540764, 0.636, -0.706, 0.376, 192.0, 0.0, 0.0, 0.0, 0.0, 0.0, 0.0, 0.0, 0.0, 0.0, 1.6635873684467592E9, 0.0, 2022-09-19 16:36:08.446
82.0, 30134.86774383399, 7500.999570012042, 3144.5998721837846, -1589.7007691503488, -185454.1224782613, 187500.0, 19625.010445715245, 6673.090955387468, 0.636, -0.706, 0.376, 192.0, 0.0, 0.0, 0.0, 0.0, 0.0, 0.0, 0.0, 0.0, 0.0, 1.6635873684507809E9, 0.0, 2022-09-19 16:36:08.450
83.0, 30130.509153665207, 7493.712901319612, 3137.939052336103, -1593.6570279189382, -185374.77378544497, 187500.0, 19614.058090932143, 6664.977272150192, 0.636, -0.706, 0.376, 192.0, 0.0, 0.0, 0.0, 0.0, 0.0, 0.0, 0.0, 0.0, 0.0, 1.6635873684548905E9, 0.0, 2022-09-19 16:36:08.454
84.0, 30108.693851076827, 7474.602159810324, 3124.3938951961873, -1591.6900744068712, -185342.72138389605, 187500.0, 19603.55277103815, 6659.791667436561, 0.636, -0.706, 0.376, 192.0, 0.0, 0.0, 0.0, 0.0, 0.0, 0.0, 0.0, 0.0, 0.0, 1.6635873684598317E9, 0.0, 2022-09-19 16:36:08.459
85.0, 30101.183664939843, 7467.807229495911, 3126.76318010845, -1586.6832836488825, -185385.14499487221, 187500.0, 19605.07268966111, 6666.228969839689, 0.636, -0.706, 0.376, 192.0, 0.0, 0.0, 0.0, 0.0, 0.0, 0.0, 0.0, 0.0, 0.0, 1.663587368463836E9, 0.0, 2022-09-19 16:36:08.463
86.0, 30107.53156036515, 7473.752793521023, 3139.7718953814383, -1581.2294580017876, -185469.34401623538, 187500.0, 19612.56052405364, 6677.650711256351, 0.636, -0.706, 0.376, 192.0, 0.0, 0.0, 0.0, 0.0, 0.0, 0.0, 0.0, 0.0, 0.0, 1.663587368467795E9, 0.0, 2022-09-19 16:36:08.467
87.0, 30122.171952983375, 7486.470936116092, 3152.221817043044, -1578.9048765784355, -185455.0165480395, 187500.0, 19618.88606773449, 6682.70220550325, 0.636, -0.706, 0.376, 192.0, 0.0, 0.0, 0.0, 0.0, 0.0, 0.0, 0.0, 0.0, 0.0, 1.6635873684708421E9, 0.0, 2022-09-19 16:36:08.470
88.0, 30117.16516222539, 7481.084165702363, 3146.4774187180305, -1578.9495800673462, -185366.14601208523, 187500.0, 19614.192201398873, 6678.500077545653, 0.636, -0.706, 0.376, 192.0, 0.0, 0.0, 0.0, 0.0, 0.0, 0.0, 0.0, 0.0, 0.0, 1.6635873684747791E9, 0.0, 2022-09-19 16:36:08.474
89.0, 30096.646260815414, 7460.498209059026, 3133.692220889595, -1580.4024434569412, -185318.51444465097, 187500.0, 19599.507105291737, 6669.8946559303595, 0.634, -0.706, 0.37, 192.0, 19.0, 208.0, 233.0, 240.0, 11.0, 144.0, 0.0, 0.0, 0.0, 1.6635873684787817E9, 0.0, 2022-09-19 16:36:08.478
90.0, 30086.96795546627, 7447.847121697322, 3133.1557790226675, -1582.928190580391, -185364.91666614017, 187500.0, 19588.35358480854, 6669.268807085611, 0.634, -0.706, 0.37, 192.0, 0.0, 0.0, 0.0, 0.0, 0.0, 0.0, 0.0, 0.0, 0.0, 1.6635873684827597E9, 0.0, 2022-09-19 16:36:08.482
91.0, 30090.901862490402, 7448.85295019781, 3142.163532038156, -1583.7105016363266, -185443.63951011177, 187500.0, 19586.274872574195, 6675.214371110723, 0.634, -0.706, 0.37, 192.0, 0.0, 0.0, 0.0, 0.0, 0.0, 0.0, 0.0, 0.0, 0.0, 1.6635873684878657E9, 0.0, 2022-09-19 16:36:08.487
92.0, 30113.365365667985, 7465.214427139095, 3155.6416339447064, -1582.0788242910892, -185476.1836500387, 187500.0, 19588.01830864171, 6684.624455526407, 0.634, -0.706, 0.37, 192.0, 0.0, 0.0, 0.0, 0.0, 0.0, 0.0, 0.0, 0.0, 0.0, 1.6635873684928503E9, 0.0, 2022-09-19 16:36:08.492
93.0, 30116.271092447176, 7466.510828317503, 3155.127543822234, -1578.1896207558657, -185392.14109088673, 187500.0, 19578.49646550375, 6680.355272335443, 0.634, -0.706, 0.37, 192.0, 0.0, 0.0, 0.0, 0.0, 0.0, 0.0, 0.0, 0.0, 0.0, 1.6635873684967618E9, 0.0, 2022-09-19 16:36:08.496
94.0, 30091.460656101783, 7444.561415262391, 3139.883654103715, -1575.9767980547904, -185320.21317722957, 187500.0, 19564.101942074532, 6671.0122431531245, 0.634, -0.706, 0.37, 192.0, 0.0, 0.0, 0.0, 0.0, 0.0, 0.0, 0.0, 0.0, 0.0, 1.6635873685009086E9, 0.0, 2022-09-19 16:36:08.500
95.0, 30086.833844999535, 7438.7276099595565, 3137.492017446997, -1576.1332602659775, -185366.90597139669, 187500.0, 19566.560633964615, 6673.381528065387, 0.634, -0.706, 0.37, 192.0, 0.0, 0.0, 0.0, 0.0, 0.0, 0.0, 0.0, 0.0, 0.0, 1.6635873685038273E9, 0.0, 2022-09-19 16:36:08.503
96.0, 30097.920310249367, 7445.388429807238, 3146.633880929218, -1577.6308271444832, -185457.98933005208, 187500.0, 19571.63447995597, 6678.120097889912, 0.634, -0.706, 0.37, 192.0, 0.0, 0.0, 0.0, 0.0, 0.0, 0.0, 0.0, 0.0, 0.0, 1.663587368506868E9, 0.0, 2022-09-19 16:36:08.506
97.0, 30110.01260399969, 7452.518636288481, 3155.4181165001532, -1578.5472486671506, -185445.025318268, 187500.0, 19576.663622458414, 6679.014167668124, 0.634, -0.706, 0.37, 192.0, 0.0, 0.0, 0.0, 0.0, 0.0, 0.0, 0.0, 0.0, 0.0, 1.6635873685108485E9, 0.0, 2022-09-19 16:36:08.510
98.0, 30105.586958597538, 7448.115342630786, 3150.7689536534494, -1577.8543445890361, -185355.61834044676, 187500.0, 19574.562558479614, 6678.410670567831, 0.634, -0.706, 0.37, 192.0, 0.0, 0.0, 0.0, 0.0, 0.0, 0.0, 0.0, 0.0, 0.0, 1.6635873685159023E9, 0.0, 2022-09-19 16:36:08.515
99.0, 30082.117626919466, 7430.368057533272, 3136.977927324525, -1576.9379230663685, -185357.51823872546, 187500.0, 19568.01349735421, 6672.621568753907, 0.636, -0.708, 0.37, 192.0, 19.0, 224.0, 233.0, 224.0, 11.0, 144.0, 0.0, 0.0, 0.0, 1.6635873685198596E9, 0.0, 2022-09-19 16:36:08.519
100.0, 30074.674496015847, 7424.221327808062, 3139.883654103715, -1574.5909898985612, -185367.37535803026, 187500.0, 19573.82495091259, 6673.537990276574, 0.636, -0.708, 0.37, 192.0, 0.0, 0.0, 0.0, 0.0, 0.0, 0.0, 0.0, 0.0, 0.0, 1.6635873685238824E9, 0.0, 2022-09-19 16:36:08.523
101.0, 30079.502472818196, 7427.70819994309, 3147.684412918617, -1575.1274317654886, -185424.08173371336, 187500.0, 19585.559616751627, 6679.438850812776, 0.636, -0.708, 0.37, 192.0, 0.0, 0.0, 0.0, 0.0, 0.0, 0.0, 0.0, 0.0, 0.0, 1.6635873685270212E9, 0.0, 2022-09-19 16:36:08.527
102.0, 30097.80855152709, 7440.42634253816, 3161.229570058533, -1578.0331585446786, -185468.4275947127, 187500.0, 19603.843343716067, 6685.2279526267, 0.636, -0.708, 0.37, 192.0, 0.0, 0.0, 0.0, 0.0, 0.0, 0.0, 0.0, 0.0, 0.0, 1.6635873685308783E9, 0.0, 2022-09-19 16:36:08.530
103.0, 30099.887263761433, 7443.1309036172515, 3161.00605261398, -1578.569600411606, -185389.19066061862, 187500.0, 19608.02311992921, 6683.775089237105, 0.636, -0.708, 0.37, 192.0, 0.0, 0.0, 0.0, 0.0, 0.0, 0.0, 0.0, 0.0, 0.0, 1.6635873685348651E9, 0.0, 2022-09-19 16:36:08.534
104.0, 30077.24494662821, 7426.344743531316, 3148.846703630293, -1573.0040160422345, -185330.8526075903, 187500.0, 19607.151401895455, 6678.388318823376, 0.636, -0.708, 0.37, 192.0, 0.0, 0.0, 0.0, 0.0, 0.0, 0.0, 0.0, 0.0, 0.0, 1.6635873685388544E9, 0.0, 2022-09-19 16:36:08.538
105.0, 30067.61134476797, 7415.034760836931, 3145.7621628954607, -1571.1711729968993, -185376.6960354681, 187500.0, 19613.74516650977, 6677.024862411602, 0.636, -0.708, 0.37, 192.0, 0.0, 0.0, 0.0, 0.0, 0.0, 0.0, 0.0, 0.0, 0.0, 1.6635873685429635E9, 0.0, 2022-09-19 16:36:08.542
106.0, 30077.535519306126, 7421.18149056214, 3153.5405699659077, -1568.0642805176117, -185428.37326864878, 187500.0, 19626.105681193552, 6684.266827615122, 0.636, -0.708, 0.37, 192.0, 0.0, 0.0, 0.0, 0.0, 0.0, 0.0, 0.0, 0.0, 0.0, 1.6635873685478506E9, 0.0, 2022-09-19 16:36:08.547
107.0, 30093.181740424843, 7429.496339499515, 3159.5755409688404, -1572.9816642977792, -185466.0806615449, 187500.0, 19634.12995745301, 6683.37275783691, 0.636, -0.708, 0.37, 192.0, 0.0, 0.0, 0.0, 0.0, 0.0, 0.0, 0.0, 0.0, 0.0, 1.6635873685519226E9, 0.0, 2022-09-19 16:36:08.551
108.0, 30101.988327740233, 7436.000697136009, 3161.34132878081, -1572.3334637085754, -185423.50058835754, 187500.0, 19636.141614453987, 6681.741080491672, 0.636, -0.708, 0.37, 192.0, 0.0, 0.0, 0.0, 0.0, 0.0, 0.0, 0.0, 0.0, 0.0, 1.663587368554952E9, 0.0, 2022-09-19 16:36:08.554
109.0, 30085.42568509885, 7423.483720241037, 3148.690241419106, -1571.4170421859078, -185330.91966282364, 187500.0, 19630.866602762533, 6674.633225754885, 0.634, -0.714, 0.368, 192.0, 19.0, 208.0, 233.0, 176.0, 11.0, 128.0, 0.0, 0.0, 0.0, 1.663587368559929E9, 0.0, 2022-09-19 16:36:08.559
110.0, 30074.42862682684, 7412.75488290249, 3144.465761717053, -1569.4500886738408, -185353.58433170134, 187500.0, 19628.922000994924, 6669.648786741351, 0.634, -0.714, 0.368, 192.0, 0.0, 0.0, 0.0, 0.0, 0.0, 0.0, 0.0, 0.0, 0.0, 1.6635873685639603E9, 0.0, 2022-09-19 16:36:08.563
111.0, 30075.747379749704, 7410.564411945869, 3152.557093209874, -1565.8514578165364, -185418.87377725527, 187500.0, 19639.539079611193, 6677.740118234172, 0.634, -0.714, 0.368, 192.0, 0.0, 0.0, 0.0, 0.0, 0.0, 0.0, 0.0, 0.0, 0.0, 1.6635873685679672E9, 0.0, 2022-09-19 16:36:08.567
112.0, 30097.0038887267, 7427.149406331708, 3173.075994619846, -1563.7503938377374, -185478.15060355075, 187500.0, 19655.74409434129, 6685.876153215904, 0.634, -0.714, 0.368, 192.0, 0.0, 0.0, 0.0, 0.0, 0.0, 0.0, 0.0, 0.0, 0.0, 1.6635873685719538E9, 0.0, 2022-09-19 16:36:08.571
113.0, 30105.139923708433, 7436.268918069472, 3178.6639307336727, -1564.0633182601116, -185407.25087013852, 187500.0, 19656.32523969713, 6686.144374149368, 0.634, -0.714, 0.368, 192.0, 0.0, 0.0, 0.0, 0.0, 0.0, 0.0, 0.0, 0.0, 0.0, 1.6635873685760016E9, 0.0, 2022-09-19 16:36:08.576
114.0, 30080.28478387413, 7417.56050796038, 3158.145029323701, -1564.0409665156565, -185316.21221497207, 187500.0, 19645.283477936206, 6674.7673362216165, 0.634, -0.714, 0.368, 192.0, 0.0, 0.0, 0.0, 0.0, 0.0, 0.0, 0.0, 0.0, 0.0, 1.6635873685790312E9, 0.0, 2022-09-19 16:36:08.579
115.0, 30067.678400001336, 7406.317580499361, 3149.226683286033, -1563.571579882095, -185353.62903519024, 187500.0, 19642.847137790577, 6670.296987330555, 0.634, -0.714, 0.368, 192.0, 0.0, 0.0, 0.0, 0.0, 0.0, 0.0, 0.0, 0.0, 0.0, 1.6635873685829637E9, 0.0, 2022-09-19 16:36:08.582
116.0, 30069.24302211321, 7403.925943842643, 3149.8972356196923, -1564.1080217490223, -185415.29749814243, 187500.0, 19645.059960491653, 6674.476763543697, 0.634, -0.714, 0.368, 192.0, 0.0, 0.0, 0.0, 0.0, 0.0, 0.0, 0.0, 0.0, 0.0, 1.6635873685869539E9, 0.0, 2022-09-19 16:36:08.586
117.0, 30083.883414731434, 7415.928830615143, 3160.938997380614, -1566.5667136391062, -185471.1768592807, 187500.0, 19652.190166972898, 6684.020958426114, 0.634, -0.714, 0.368, 192.0, 0.0, 0.0, 0.0, 0.0, 0.0, 0.0, 0.0, 0.0, 0.0, 1.663587368591005E9, 0.0, 2022-09-19 16:36:08.591
118.0, 30094.14286543642, 7424.7577696749895, 3164.3141107933657, -1569.472440418296, -185421.95831799012, 187500.0, 19653.777140829225, 6682.009301425136, 0.634, -0.714, 0.368, 192.0, 0.0, 0.0, 0.0, 0.0, 0.0, 0.0, 0.0, 0.0, 0.0, 1.6635873685950131E9, 0.0, 2022-09-19 16:36:08.595
119.0, 30076.41793208336, 7409.938563101121, 3149.6066629417737, -1570.344158452053, -185335.23354950352, 187500.0, 19645.238774447298, 6669.738193719172, 0.638, -0.712, 0.372, 192.0, 19.0, 240.0, 233.0, 192.0, 11.0, 160.0, 0.0, 0.0, 0.0, 1.663587368599007E9, 0.0, 2022-09-19 16:36:08.599
120.0, 30060.548193520095, 7393.46532743756, 3140.4200959706423, -1569.8300683295809, -185342.31905249585, 187500.0, 19644.009428502253, 6666.161914606323, 0.638, -0.712, 0.372, 192.0, 0.0, 0.0, 0.0, 0.0, 0.0, 0.0, 0.0, 0.0, 0.0, 1.6635873686040294E9, 0.0, 2022-09-19 16:36:08.604
121.0, 30068.080731401533, 7398.472118195548, 3147.7961716408936, -1563.6609868599162, -185424.88639651376, 187500.0, 19652.36898092854, 6671.7722024646055, 0.638, -0.712, 0.372, 192.0, 0.0, 0.0, 0.0, 0.0, 0.0, 0.0, 0.0, 0.0, 0.0, 1.663587368607041E9, 0.0, 2022-09-19 16:36:08.607
122.0, 30084.017525198167, 7408.396292733704, 3159.463782246564, -1559.570617624595, -185476.27305701651, 187500.0, 19665.42239969044, 6679.37179557941, 0.638, -0.712, 0.372, 192.0, 0.0, 0.0, 0.0, 0.0, 0.0, 0.0, 0.0, 0.0, 0.0, 1.663587368611051E9, 0.0, 2022-09-19 16:36:08.611
123.0, 30096.601557326503, 7418.387522505227, 3167.3092445503767, -1559.637672857961, -185426.24985292554, 187500.0, 19669.60217590358, 6681.674025258306, 0.638, -0.712, 0.372, 192.0, 0.0, 0.0, 0.0, 0.0, 0.0, 0.0, 0.0, 0.0, 0.0, 1.6635873686150477E9, 0.0, 2022-09-19 16:36:08.615
124.0, 30077.24494662821, 7405.602324676791, 3154.6805089331283, -1559.4365071578632, -185347.12467755374, 187500.0, 19663.611908389557, 6669.782897208082, 0.638, -0.712, 0.372, 192.0, 0.0, 0.0, 0.0, 0.0, 0.0, 0.0, 0.0, 0.0, 0.0, 1.663587368619074E9, 0.0, 2022-09-19 16:36:08.619
125.0, 30056.793100451603, 7389.307902968872, 3143.392877983198, -1560.8670188030028, -185343.39193622972, 187500.0, 19662.293155466694, 6662.093897115457, 0.638, -0.712, 0.372, 192.0, 0.0, 0.0, 0.0, 0.0, 0.0, 0.0, 0.0, 0.0, 0.0, 1.6635873686230693E9, 0.0, 2022-09-19 16:36:08.623
126.0, 30058.55888826357, 7390.0678622803525, 3151.2830437759217, -1551.7475070652374, -185414.55989057542, 187500.0, 19678.721687641348, 6672.733327476183, 0.638, -0.712, 0.372, 192.0, 0.0, 0.0, 0.0, 0.0, 0.0, 0.0, 0.0, 0.0, 0.0, 1.6635873686270216E9, 0.0, 2022-09-19 16:36:08.627
127.0, 30074.026295426644, 7401.623714163747, 3165.6775672051394, -1551.188713453855, -185461.2303329981, 187500.0, 19694.971405860353, 6678.455374056742, 0.638, -0.712, 0.372, 192.0, 0.0, 0.0, 0.0, 0.0, 0.0, 0.0, 0.0, 0.0, 0.0, 1.6635873686320603E9, 0.0, 2022-09-19 16:36:08.632
128.0, 30086.878548488447, 7411.70435091309, 3173.7018434645947, -1557.4024984124303, -185441.89607404426, 187500.0, 19700.112307085074, 6676.778993222594, 0.638, -0.712, 0.372, 192.0, 0.0, 0.0, 0.0, 0.0, 0.0, 0.0, 0.0, 0.0, 0.0, 1.663587368635058E9, 0.0, 2022-09-19 16:36:08.635
129.0, 30076.28382161663, 7404.864717109766, 3168.0021486284913, -1552.8203907990924, -185337.71459313805, 187500.0, 19696.938359372423, 6676.443717055764, 0.644, -0.706, 0.374, 192.0, 20.0, 32.0, 233.0, 240.0, 11.0, 176.0, 0.0, 0.0, 0.0, 1.6635873686390605E9, 0.0, 2022-09-19 16:36:08.639
130.0, 30063.968010421755, 7392.660664637168, 3162.0565846033796, -1550.7193268202934, -185340.66502340615, 187500.0, 19702.12396408605, 6676.354310077943, 0.644, -0.706, 0.374, 192.0, 0.0, 0.0, 0.0, 0.0, 0.0, 0.0, 0.0, 0.0, 0.0, 1.663587368643087E9, 0.0, 2022-09-19 16:36:08.643
131.0, 30066.42670231184, 7389.8890483247105, 3166.3257677943434, -1551.635748342961, -185410.53657657345, 187500.0, 19712.070490368664, 6679.796478724061, 0.644, -0.706, 0.374, 192.0, 0.0, 0.0, 0.0, 0.0, 0.0, 0.0, 0.0, 0.0, 0.0, 1.6635873686471057E9, 0.0, 2022-09-19 16:36:08.647
132.0, 30081.290612374618, 7400.953161830087, 3178.6415789892176, -1556.4860768897627, -185484.76671990953, 187500.0, 19712.942208402423, 6684.0433101705685, 0.644, -0.706, 0.374, 192.0, 0.0, 0.0, 0.0, 0.0, 0.0, 0.0, 0.0, 0.0, 0.0, 1.6635873686510816E9, 0.0, 2022-09-19 16:36:08.651
133.0, 30094.008754969687, 7412.598420691303, 3185.8611924482816, -1558.8106583131146, -185442.79014382247, 187500.0, 19707.242513566318, 6683.238647370177, 0.644, -0.706, 0.374, 192.0, 0.0, 0.0, 0.0, 0.0, 0.0, 0.0, 0.0, 0.0, 0.0, 1.663587368655099E9, 0.0, 2022-09-19 16:36:08.655
134.0, 30077.267298372662, 7402.56248743087, 3169.4103085291754, -1558.028347257179, -185343.3025292519, 187500.0, 19694.56907446016, 6675.639054255374, 0.644, -0.706, 0.374, 192.0, 0.0, 0.0, 0.0, 0.0, 0.0, 0.0, 0.0, 0.0, 0.0, 1.6635873686611116E9, 0.0, 2022-09-19 16:36:08.661
135.0, 30062.358684820974, 7390.850173336288, 3157.072145589846, -1556.866056545503, -185352.53379971193, 187500.0, 19685.8965976115, 6669.514676274619, 0.644, -0.706, 0.374, 192.0, 0.0, 0.0, 0.0, 0.0, 0.0, 0.0, 0.0, 0.0, 0.0, 1.6635873686641295E9, 0.0, 2022-09-19 16:36:08.664
136.0, 30067.253716856685, 7394.426452449138, 3161.229570058533, -1558.9671205243017, -185405.4180270932, 187500.0, 19679.32518474164, 6669.000586152147, 0.644, -0.706, 0.374, 192.0, 0.0, 0.0, 0.0, 0.0, 0.0, 0.0, 0.0, 0.0, 0.0, 1.6635873686671715E9, 0.0, 2022-09-19 16:36:08.667
137.0, 30080.217728640764, 7403.8588886092775, 3171.4443172746087, -1560.6211496139945, -185468.3828912238, 187500.0, 19672.887882338513, 6675.192019366267, 0.644, -0.706, 0.374, 192.0, 0.0, 0.0, 0.0, 0.0, 0.0, 0.0, 0.0, 0.0, 0.0, 1.66358736867112E9, 0.0, 2022-09-19 16:36:08.671
138.0, 30091.125379934954, 7412.933696858132, 3176.875791177248, -1563.437469415363, -185450.90382705975, 187500.0, 19664.46127467886, 6678.120097889912, 0.644, -0.706, 0.374, 192.0, 0.0, 0.0, 0.0, 0.0, 0.0, 0.0, 0.0, 0.0, 0.0, 1.6635873686752E9, 0.0, 2022-09-19 16:36:08.675
139.0, 30078.09431291751, 7403.009522319976, 3164.1129450932676, -1561.0681845031006, -185338.4074972162, 187500.0, 19650.245565205285, 6674.834391454982, 0.642, -0.708, 0.372, 192.0, 20.0, 16.0, 233.0, 224.0, 11.0, 160.0, 0.0, 0.0, 0.0, 1.6635873686790717E9, 0.0, 2022-09-19 16:36:08.679
140.0, 30058.648295241393, 7386.402176189683, 3153.518218221452, -1558.4530304018297, -185343.7048606521, 187500.0, 19640.8354807896, 6671.392222808865, 0.642, -0.708, 0.372, 192.0, 0.0, 0.0, 0.0, 0.0, 0.0, 0.0, 0.0, 0.0, 0.0, 1.6635873686831331E9, 0.0, 2022-09-19 16:36:08.683
141.0, 30060.257620842174, 7387.8326878348225, 3159.1508578241896, -1555.7261175782821, -185424.61817558028, 187500.0, 19643.40593140196, 6678.880057201392, 0.642, -0.708, 0.372, 192.0, 0.0, 0.0, 0.0, 0.0, 0.0, 0.0, 0.0, 0.0, 0.0, 1.663587368687188E9, 0.0, 2022-09-19 16:36:08.687
142.0, 30069.980629680234, 7395.097004782797, 3166.81750617236, -1556.2625594452095, -185463.1302312768, 187500.0, 19644.925850024923, 6686.65846427184, 0.642, -0.708, 0.372, 192.0, 0.0, 0.0, 0.0, 0.0, 0.0, 0.0, 0.0, 0.0, 0.0, 1.6635873686911502E9, 0.0, 2022-09-19 16:36:08.691
143.0, 30088.1525979224, 7410.98909509052, 3176.1605353546784, -1557.4919053902515, -185463.30904523242, 187500.0, 19647.049265748177, 6688.804231739549, 0.642, -0.708, 0.372, 192.0, 0.0, 0.0, 0.0, 0.0, 0.0, 0.0, 0.0, 0.0, 0.0, 1.6635873686941965E9, 0.0, 2022-09-19 16:36:08.694
144.0, 30075.948545449803, 7406.474042710548, 3165.6775672051394, -1561.090536247556, -185365.98954987404, 187500.0, 19638.332085410606, 6677.471897300708, 0.642, -0.708, 0.372, 192.0, 0.0, 0.0, 0.0, 0.0, 0.0, 0.0, 0.0, 0.0, 0.0, 1.6635873686991756E9, 0.0, 2022-09-19 16:36:08.699
145.0, 30053.596800994495, 7388.056205279376, 3149.785476897416, -1562.275178703687, -185345.38124148623, 187500.0, 19630.41956787343, 6669.492324530163, 0.642, -0.708, 0.372, 192.0, 0.0, 0.0, 0.0, 0.0, 0.0, 0.0, 0.0, 0.0, 0.0, 1.663587368703296E9, 0.0, 2022-09-19 16:36:08.703
146.0, 30055.161423106365, 7388.302074468384, 3150.0313460864245, -1561.9846060257682, -185416.88447199875, 187500.0, 19635.024027231222, 6676.778993222594, 0.642, -0.708, 0.372, 192.0, 0.0, 0.0, 0.0, 0.0, 0.0, 0.0, 0.0, 0.0, 0.0, 1.663587368707188E9, 0.0, 2022-09-19 16:36:08.707
147.0, 30076.19441463881, 7404.574144431847, 3163.0177096149578, -1562.1410682369553, -185482.3303797639, 187500.0, 19645.59640235858, 6684.3338828484875, 0.642, -0.708, 0.372, 192.0, 0.0, 0.0, 0.0, 0.0, 0.0, 0.0, 0.0, 0.0, 0.0, 1.6635873687111263E9, 0.0, 2022-09-19 16:36:08.711
148.0, 30092.265318902177, 7417.0687695823635, 3173.34421555331, -1562.0740130035895, -185464.53839117748, 187500.0, 19655.02883851872, 6687.731348005695, 0.642, -0.708, 0.372, 192.0, 0.0, 0.0, 0.0, 0.0, 0.0, 0.0, 0.0, 0.0, 0.0, 1.6635873687152271E9, 0.0, 2022-09-19 16:36:08.715
149.0, 30079.48012107374, 7410.676170668146, 3162.3471572812987, -1561.537571136662, -185364.15670682868, 187500.0, 19645.998733758777, 6680.779955480094, 0.64, -0.704, 0.368, 192.0, 20.0, 0.0, 234.0, 0.0, 11.0, 128.0, 0.0, 0.0, 0.0, 1.6635873687202437E9, 0.0, 2022-09-19 16:36:08.720
150.0, 30057.418949296352, 7395.097004782797, 3150.165456553156, -1557.5589606236174, -185350.65625317767, 187500.0, 19640.45550113386, 6674.923798432804, 0.64, -0.704, 0.368, 192.0, 0.0, 0.0, 0.0, 0.0, 0.0, 0.0, 0.0, 0.0, 0.0, 1.6635873687232063E9, 0.0, 2022-09-19 16:36:08.723
151.0, 30050.199335837286, 7388.391481446205, 3151.238340287011, -1557.6260158569833, -185392.94575368712, 187500.0, 19647.69746633738, 6673.627397254396, 0.64, -0.704, 0.368, 192.0, 0.0, 0.0, 0.0, 0.0, 0.0, 0.0, 0.0, 0.0, 0.0, 1.6635873687283368E9, 0.0, 2022-09-19 16:36:08.728
152.0, 30057.977742907733, 7395.052301293887, 3161.8330671588265, -1558.1177542350001, -185457.54229516297, 187500.0, 19658.448655420383, 6676.577827522497, 0.64, -0.704, 0.368, 192.0, 0.0, 0.0, 0.0, 0.0, 0.0, 0.0, 0.0, 0.0, 0.0, 1.663587368731311E9, 0.0, 2022-09-19 16:36:08.731
153.0, 30072.61813552596, 7405.043531065408, 3172.696014964106, -1561.0234810141899, -185470.2827895025, 187500.0, 19667.23289099132, 6678.388318823376, 0.64, -0.704, 0.368, 192.0, 0.0, 0.0, 0.0, 0.0, 0.0, 0.0, 0.0, 0.0, 0.0, 1.6635873687352047E9, 0.0, 2022-09-19 16:36:08.735
154.0, 30070.00298142469, 7402.540135686414, 3167.868038161759, -1561.0681845031006, -185374.9973028895, 187500.0, 19666.025896790732, 6673.917969932315, 0.64, -0.704, 0.368, 192.0, 0.0, 0.0, 0.0, 0.0, 0.0, 0.0, 0.0, 0.0, 0.0, 1.6635873687391903E9, 0.0, 2022-09-19 16:36:08.739
155.0, 30041.88448689991, 7381.238923220507, 3149.9642908530586, -1561.761088581215, -185327.3433837108, 187500.0, 19665.265937479253, 6663.099725615946, 0.64, -0.704, 0.368, 192.0, 0.0, 0.0, 0.0, 0.0, 0.0, 0.0, 0.0, 0.0, 0.0, 1.6635873687423396E9, 0.0, 2022-09-19 16:36:08.742
156.0, 30034.106079829467, 7375.4498214065825, 3147.080915818324, -1560.3976321694413, -185394.13039614327, 187500.0, 19672.776123616233, 6662.9656151492145, 0.64, -0.704, 0.368, 192.0, 0.0, 0.0, 0.0, 0.0, 0.0, 0.0, 0.0, 0.0, 0.0, 1.6635873687462327E9, 0.0, 2022-09-19 16:36:08.746
157.0, 30043.046777611587, 7380.054280764375, 3154.1217153217453, -1559.1906379688548, -185452.5802078939, 187500.0, 19683.23674002132, 6671.9510164202475, 0.64, -0.704, 0.368, 192.0, 0.0, 0.0, 0.0, 0.0, 0.0, 0.0, 0.0, 0.0, 0.0, 1.6635873687502615E9, 0.0, 2022-09-19 16:36:08.750
158.0, 30063.56567902156, 7396.706330383579, 3169.6114742292734, -1557.1789809678771, -185479.40230124025, 187500.0, 19698.05594659519, 6682.433984569787, 0.64, -0.704, 0.368, 192.0, 0.0, 0.0, 0.0, 0.0, 0.0, 0.0, 0.0, 0.0, 0.0, 1.663587368754338E9, 0.0, 2022-09-19 16:36:08.754
159.0, 30060.123510375444, 7399.656760651679, 3167.264541061466, -1555.7708210671929, -185392.43166356467, 187500.0, 19697.22893205034, 6678.455374056742, 0.646, -0.708, 0.368, 192.0, 20.0, 48.0, 233.0, 224.0, 11.0, 128.0, 0.0, 0.0, 0.0, 1.6635873687592816E9, 0.0, 2022-09-19 16:36:08.759
160.0, 30035.33542577451, 7382.98235928802, 3150.612491442262, -1546.5395506071509, -185337.11109603776, 187500.0, 19695.977234360842, 6672.398051309354, 0.646, -0.708, 0.368, 192.0, 0.0, 0.0, 0.0, 0.0, 0.0, 0.0, 0.0, 0.0, 0.0, 1.6635873687632673E9, 0.0, 2022-09-19 16:36:08.763
161.0, 30026.148858803375, 7375.941559784599, 3145.2480727729885, -1547.0089372407124, -185360.24515154902, 187500.0, 19700.69345244091, 6668.151219862845, 0.646, -0.708, 0.368, 192.0, 0.0, 0.0, 0.0, 0.0, 0.0, 0.0, 0.0, 0.0, 0.0, 1.6635873687673187E9, 0.0, 2022-09-19 16:36:08.767
162.0, 30032.764975162147, 7382.200048232085, 3151.7077269205724, -1547.3218616630868, -185434.09531522935, 187500.0, 19712.629283980048, 6665.290196572566, 0.646, -0.708, 0.368, 192.0, 0.0, 0.0, 0.0, 0.0, 0.0, 0.0, 0.0, 0.0, 0.0, 1.663587368770313E9, 0.0, 2022-09-19 16:36:08.770
163.0, 30052.43451028282, 7399.477946696037, 3162.905950892681, -1547.5900825965505, -185475.3789872383, 187500.0, 19725.43683355294, 6671.07929838649, 0.646, -0.708, 0.368, 192.0, 0.0, 0.0, 0.0, 0.0, 0.0, 0.0, 0.0, 0.0, 0.0, 1.663587368774312E9, 0.0, 2022-09-19 16:36:08.774
164.0, 30048.813527681057, 7400.997865318998, 3156.043965344902, -1553.088611732556, -185361.31803528286, 187500.0, 19721.122946873063, 6664.753754705639, 0.646, -0.708, 0.368, 192.0, 0.0, 0.0, 0.0, 0.0, 0.0, 0.0, 0.0, 0.0, 0.0, 1.6635873687783175E9, 0.0, 2022-09-19 16:36:08.778
165.0, 30028.18286754881, 7386.335120956317, 3144.2869477614104, -1556.6872425898605, -185348.84576187682, 187500.0, 19719.6030282501, 6653.60023422244, 0.646, -0.708, 0.368, 192.0, 0.0, 0.0, 0.0, 0.0, 0.0, 0.0, 0.0, 0.0, 0.0, 1.6635873687823305E9, 0.0, 2022-09-19 16:36:08.782
166.0, 30018.392803477385, 7376.880333051722, 3141.4482762155862, -1561.4034606699302, -185384.47444253857, 187500.0, 19722.307589329193, 6652.1697225773005, 0.646, -0.708, 0.368, 192.0, 0.0, 0.0, 0.0, 0.0, 0.0, 0.0, 0.0, 0.0, 0.0, 1.6635873687873669E9, 0.0, 2022-09-19 16:36:08.787
167.0, 30027.37820474842, 7385.977493045032, 3149.1819797971225, -1564.8009258271368, -185449.83094332588, 187500.0, 19730.08599639964, 6657.1541615908345, 0.646, -0.708, 0.368, 192.0, 0.0, 0.0, 0.0, 0.0, 0.0, 0.0, 0.0, 0.0, 0.0, 1.663587368791282E9, 0.0, 2022-09-19 16:36:08.791
168.0, 30048.545306747594, 7402.6295426642355, 3162.682433448128, -1564.4656496603072, -185471.4227284697, 187500.0, 19739.049045926222, 6661.445696526253, 0.646, -0.708, 0.368, 192.0, 0.0, 0.0, 0.0, 0.0, 0.0, 0.0, 0.0, 0.0, 0.0, 1.6635873687955685E9, 0.0, 2022-09-19 16:36:08.795
169.0, 30046.80187068008, 7401.958990330576, 3158.6144159572623, -1564.9797397827792, -185370.97398888756, 187500.0, 19739.674894770968, 6660.730440703684, 0.64, -0.71, 0.368, 192.0, 20.0, 0.0, 233.0, 208.0, 11.0, 128.0, 0.0, 0.0, 0.0, 1.663587368798401E9, 0.0, 2022-09-19 16:36:08.798
170.0, 30018.638672666395, 7380.948350542588, 3138.564901180852, -1565.7173473498044, -185324.1023807648, 187500.0, 19732.8576127121, 6655.880112156882, 0.64, -0.71, 0.368, 192.0, 0.0, 0.0, 0.0, 0.0, 0.0, 0.0, 0.0, 0.0, 0.0, 1.6635873688023903E9, 0.0, 2022-09-19 16:36:08.802
171.0, 30006.859303338446, 7373.12523998323, 3134.653345901173, -1566.9466932948462, -185357.16061081417, 187500.0, 19731.96354293389, 6652.728516188684, 0.64, -0.71, 0.368, 192.0, 0.0, 0.0, 0.0, 0.0, 0.0, 0.0, 0.0, 0.0, 0.0, 1.6635873688063688E9, 0.0, 2022-09-19 16:36:08.806
172.0, 30012.08961154099, 7379.003748774976, 3142.9681948385473, -1567.5948938840502, -185443.4159926672, 187500.0, 19734.601048779616, 6656.2153883237115, 0.64, -0.71, 0.368, 192.0, 0.0, 0.0, 0.0, 0.0, 0.0, 0.0, 0.0, 0.0, 0.0, 1.6635873688103776E9, 0.0, 2022-09-19 16:36:08.810
173.0, 30031.960312361756, 7396.236943750017, 3156.423945000642, -1563.3927659264525, -185473.81436512643, 187500.0, 19741.038351182742, 6663.680870971784, 0.64, -0.71, 0.368, 192.0, 0.0, 0.0, 0.0, 0.0, 0.0, 0.0, 0.0, 0.0, 0.0, 1.6635873688164265E9, 0.0, 2022-09-19 16:36:08.816
174.0, 30029.1886960493, 7395.141708271708, 3152.0877065763125, -1565.4267746718854, -185385.2120501056, 187500.0, 19738.892583715035, 6659.232873825178, 0.64, -0.71, 0.368, 192.0, 0.0, 0.0, 0.0, 0.0, 0.0, 0.0, 0.0, 0.0, 0.0, 1.6635873688193817E9, 0.0, 2022-09-19 16:36:08.819
175.0, 30010.480285940208, 7380.7918883314005, 3136.2179680130444, -1565.7173473498044, -185340.41915421715, 187500.0, 19732.164708633987, 6653.153199333335, 0.64, -0.71, 0.368, 192.0, 0.0, 0.0, 0.0, 0.0, 0.0, 0.0, 0.0, 0.0, 0.0, 1.6635873688234096E9, 0.0, 2022-09-19 16:36:08.823
176.0, 30002.925396314313, 7373.8404958058, 3129.378334209721, -1569.2712747181984, -185348.24226477652, 187500.0, 19731.605915022603, 6649.353402775932, 0.64, -0.71, 0.368, 192.0, 0.0, 0.0, 0.0, 0.0, 0.0, 0.0, 0.0, 0.0, 0.0, 1.6635873688264098E9, 0.0, 2022-09-19 16:36:08.826
177.0, 30005.004108548655, 7374.93573128411, 3133.3792964672207, -1576.1556120104328, -185434.40823965173, 187500.0, 19738.020865681276, 6651.923853388293, 0.64, -0.71, 0.368, 192.0, 0.0, 0.0, 0.0, 0.0, 0.0, 0.0, 0.0, 0.0, 0.0, 1.6635873688304267E9, 0.0, 2022-09-19 16:36:08.830
178.0, 30019.84566686698, 7386.6033418897805, 3143.1246570497347, -1579.508373678729, -185451.39556543776, 187500.0, 19747.162729163498, 6659.657556969829, 0.64, -0.71, 0.368, 192.0, 0.0, 0.0, 0.0, 0.0, 0.0, 0.0, 0.0, 0.0, 0.0, 1.663587368834416E9, 0.0, 2022-09-19 16:36:08.834
179.0, 30021.454992467763, 7388.056205279376, 3142.9234913496366, -1578.860173089525, -185412.88350974125, 187500.0, 19751.76718852129, 6658.159990091323, 0.64, -0.71, 0.368, 192.0, 0.0, 0.0, 0.0, 0.0, 0.0, 0.0, 0.0, 0.0, 0.0, 1.663587368838414E9, 0.0, 2022-09-19 16:36:08.838
180.0, 30004.93705331529, 7378.780231330423, 3136.106209290768, -1575.3733009544972, -185340.1956367726, 187500.0, 19746.402769852015, 6651.432115010276, 0.64, -0.708, 0.364, 192.0, 20.0, 0.0, 233.0, 224.0, 11.0, 96.0, 0.0, 0.0, 0.0, 1.6635873688434243E9, 0.0, 2022-09-19 16:36:08.843
181.0, 29995.79518983307, 7373.147591727686, 3135.90504359067, -1571.21587648581, -185368.0459103639, 187500.0, 19745.732217518358, 6657.9811761356805, 0.64, -0.708, 0.364, 192.0, 0.0, 0.0, 0.0, 0.0, 0.0, 0.0, 0.0, 0.0, 0.0, 1.6635873688474643E9, 0.0, 2022-09-19 16:36:08.847
182.0, 30002.65717538085, 7379.830763319822, 3145.695107662095, -1572.020539286201, -185448.3110247029, 187500.0, 19749.599069309126, 6664.329071560988, 0.64, -0.708, 0.364, 192.0, 0.0, 0.0, 0.0, 0.0, 0.0, 0.0, 0.0, 0.0, 0.0, 1.6635873688514612E9, 0.0, 2022-09-19 16:36:08.851
183.0, 30020.538570945093, 7394.582914660325, 3161.8107154143713, -1570.9029520634356, -185489.0359031005, 187500.0, 19759.165615935995, 6669.827600696994, 0.64, -0.708, 0.364, 192.0, 0.0, 0.0, 0.0, 0.0, 0.0, 0.0, 0.0, 0.0, 0.0, 1.663587368854463E9, 0.0, 2022-09-19 16:36:08.854
184.0, 30026.595893692484, 7402.763653130967, 3164.6046834712847, -1574.7251003652932, -185406.58031780485, 187500.0, 19751.588374565647, 6664.262016327622, 0.64, -0.708, 0.364, 192.0, 0.0, 0.0, 0.0, 0.0, 0.0, 0.0, 0.0, 0.0, 0.0, 1.663587368858458E9, 0.0, 2022-09-19 16:36:08.858
185.0, 30008.066297539033, 7390.291379724906, 3154.367584510754, -1570.858248574525, -185357.87586663675, 187500.0, 19742.491214572336, 6658.674080213796, 0.64, -0.708, 0.364, 192.0, 0.0, 0.0, 0.0, 0.0, 0.0, 0.0, 0.0, 0.0, 0.0, 1.6635873688624418E9, 0.0, 2022-09-19 16:36:08.862
186.0, 29995.79518983307, 7381.12716449823, 3148.8690553747483, -1569.1818677403771, -185336.4405437041, 187500.0, 19740.52426106027, 6658.025879624592, 0.64, -0.708, 0.364, 192.0, 0.0, 0.0, 0.0, 0.0, 0.0, 0.0, 0.0, 0.0, 0.0, 1.663587368866469E9, 0.0, 2022-09-19 16:36:08.866
187.0, 29998.07506776751, 7379.294321452895, 3152.110058320768, -1571.506449163729, -185421.04189646745, 187500.0, 19742.155938405507, 6661.468048270709, 0.64, -0.708, 0.364, 192.0, 0.0, 0.0, 0.0, 0.0, 0.0, 0.0, 0.0, 0.0, 0.0, 1.6635873688704922E9, 0.0, 2022-09-19 16:36:08.870
188.0, 30014.593006919982, 7396.013426305464, 3165.6999189495946, -1570.9923590412568, -185473.16616453722, 187500.0, 19749.710828031402, 6668.665309985317, 0.64, -0.708, 0.364, 192.0, 0.0, 0.0, 0.0, 0.0, 0.0, 0.0, 0.0, 0.0, 0.0, 1.6635873688754864E9, 0.0, 2022-09-19 16:36:08.875
189.0, 30019.532742444604, 7406.183470032629, 3164.850552660293, -1571.0147107857122, -185400.43358807964, 187500.0, 19747.408598352504, 6666.810115195527, 0.64, -0.708, 0.364, 192.0, 0.0, 0.0, 0.0, 0.0, 0.0, 0.0, 0.0, 0.0, 0.0, 1.6635873688784637E9, 0.0, 2022-09-19 16:36:08.878
190.0, 29996.666907866827, 7389.50906866897, 3145.2033692840782, -1569.472440418296, -185335.61352915925, 187500.0, 19738.602011037114, 6658.048231369046, 0.636, -0.704, 0.368, 192.0, 19.0, 224.0, 234.0, 0.0, 11.0, 128.0, 0.0, 0.0, 0.0, 1.663587368882518E9, 0.0, 2022-09-19 16:36:08.882
191.0, 29981.713590826228, 7376.053318506875, 3133.7592761229607, -1569.919475307402, -185336.8428751043, 187500.0, 19739.071397670676, 6657.109458101923, 0.636, -0.704, 0.368, 192.0, 0.0, 0.0, 0.0, 0.0, 0.0, 0.0, 0.0, 0.0, 0.0, 1.6635873688875184E9, 0.0, 2022-09-19 16:36:08.887
192.0, 29985.111055983434, 7376.768574329445, 3140.241282015, -1570.3218067075977, -185436.57635886388, 187500.0, 19746.58158380766, 6661.490400015164, 0.636, -0.704, 0.368, 192.0, 0.0, 0.0, 0.0, 0.0, 0.0, 0.0, 0.0, 0.0, 0.0, 1.6635873688914924E9, 0.0, 2022-09-19 16:36:08.891
193.0, 30004.624128892916, 7393.264161737462, 3154.8593228887707, -1572.5569811531284, -185471.288618003, 187500.0, 19753.220051910885, 6669.045289641058, 0.636, -0.704, 0.368, 192.0, 0.0, 0.0, 0.0, 0.0, 0.0, 0.0, 0.0, 0.0, 0.0, 1.6635873688965933E9, 0.0, 2022-09-19 16:36:08.896
194.0, 30011.955501074255, 7400.148499029697, 3156.1557240671787, -1575.6191701435055, -185388.74362572952, 187500.0, 19750.47078734288, 6661.289234315066, 0.636, -0.704, 0.368, 192.0, 0.0, 0.0, 0.0, 0.0, 0.0, 0.0, 0.0, 0.0, 0.0, 1.6635873688995397E9, 0.0, 2022-09-19 16:36:08.899
195.0, 29991.347192686462, 7384.703443611079, 3141.71649714905, -1572.378167197486, -185326.1363895102, 187500.0, 19743.76526400629, 6648.772257420094, 0.636, -0.704, 0.368, 192.0, 0.0, 0.0, 0.0, 0.0, 0.0, 0.0, 0.0, 0.0, 0.0, 1.6635873689035375E9, 0.0, 2022-09-19 16:36:08.903
196.0, 29975.32099191201, 7372.678205094124, 3134.921566834637, -1567.3713764394972, -185354.12077356825, 187500.0, 19745.307534373707, 6652.102667343935, 0.636, -0.704, 0.368, 192.0, 0.0, 0.0, 0.0, 0.0, 0.0, 0.0, 0.0, 0.0, 0.0, 1.6635873689065745E9, 0.0, 2022-09-19 16:36:08.906
197.0, 29974.672791322806, 7371.31474868235, 3139.749543636983, -1565.7173473498044, -185413.77757951946, 187500.0, 19756.99749672383, 6659.165818591812, 0.636, -0.704, 0.368, 192.0, 0.0, 0.0, 0.0, 0.0, 0.0, 0.0, 0.0, 0.0, 0.0, 1.6635873689106095E9, 0.0, 2022-09-19 16:36:08.910
198.0, 29985.55809087254, 7378.266141207951, 3149.5172559639523, -1569.0030537847347, -185439.8173618099, 187500.0, 19766.25111892833, 6662.429173282287, 0.636, -0.704, 0.368, 192.0, 0.0, 0.0, 0.0, 0.0, 0.0, 0.0, 0.0, 0.0, 0.0, 1.663587368914575E9, 0.0, 2022-09-19 16:36:08.914
199.0, 29989.402590918853, 7378.668472608147, 3150.612491442262, -1570.344158452053, -185399.74068400153, 187500.0, 19768.82156954069, 6658.629376724884, 0.636, -0.704, 0.368, 192.0, 0.0, 0.0, 0.0, 0.0, 0.0, 0.0, 0.0, 0.0, 0.0, 1.6635873689185846E9, 0.0, 2022-09-19 16:36:08.918
200.0, 29970.627125576393, 7361.994071244487, 3136.5755959243293, -1571.9087805639244, -185321.62133713023, 187500.0, 19763.077171215675, 6649.822789409493, 0.642, -0.704, 0.378, 192.0, 20.0, 16.0, 234.0, 0.0, 11.0, 208.0, 0.0, 0.0, 0.0, 1.6635873689225843E9, 0.0, 2022-09-19 16:36:08.922
201.0, 29954.93620096877, 7349.164169927141, 3135.7932848683936, -1568.4666119178073, -185346.6552909202, 187500.0, 19766.876967773078, 6650.64980395434, 0.642, -0.704, 0.378, 192.0, 0.0, 0.0, 0.0, 0.0, 0.0, 0.0, 0.0, 0.0, 0.0, 1.6635873689266076E9, 0.0, 2022-09-19 16:36:08.926
202.0, 29958.177203914787, 7351.4440478615825, 3143.52698844993, -1568.3995566844412, -185410.93890797364, 187500.0, 19778.72339233439, 6651.633280710374, 0.642, -0.704, 0.378, 192.0, 0.0, 0.0, 0.0, 0.0, 0.0, 0.0, 0.0, 0.0, 0.0, 1.6635873689315822E9, 0.0, 2022-09-19 16:36:08.931
203.0, 29972.63878257737, 7363.916321267644, 3155.6416339447064, -1566.3208444500976, -185465.49951618904, 187500.0, 19791.218017484905, 6654.69546970075, 0.642, -0.704, 0.378, 192.0, 0.0, 0.0, 0.0, 0.0, 0.0, 0.0, 0.0, 0.0, 0.0, 1.6635873689345481E9, 0.0, 2022-09-19 16:36:08.934
204.0, 29985.289869939075, 7377.305016196373, 3165.0517183603906, -1564.8232775715921, -185409.8213207509, 187500.0, 19795.353090209137, 6659.657556969829, 0.642, -0.704, 0.378, 192.0, 0.0, 0.0, 0.0, 0.0, 0.0, 0.0, 0.0, 0.0, 0.0, 1.6635873689376855E9, 0.0, 2022-09-19 16:36:08.937
205.0, 29966.782625530082, 7365.100963723775, 3151.685375176117, -1565.315015949609, -185343.32488099634, 187500.0, 19789.74280235086, 6657.757658691127, 0.642, -0.704, 0.378, 192.0, 0.0, 0.0, 0.0, 0.0, 0.0, 0.0, 0.0, 0.0, 0.0, 1.663587368942582E9, 0.0, 2022-09-19 16:36:08.942
206.0, 29947.224849131686, 7348.247748404473, 3143.6163954277513, -1566.2984927056425, -185330.5396831679, 187500.0, 19791.866218074112, 6655.947167390248, 0.642, -0.704, 0.378, 192.0, 0.0, 0.0, 0.0, 0.0, 0.0, 0.0, 0.0, 0.0, 0.0, 1.6635873689465775E9, 0.0, 2022-09-19 16:36:08.946
207.0, 29942.419224073798, 7344.157379169153, 3151.2830437759217, -1566.3208444500976, -185396.23146012207, 187500.0, 19801.20924725643, 6658.2717488135995, 0.642, -0.704, 0.378, 192.0, 0.0, 0.0, 0.0, 0.0, 0.0, 0.0, 0.0, 0.0, 0.0, 1.6635873689506466E9, 0.0, 2022-09-19 16:36:08.950
208.0, 29956.009084702622, 7354.17096068513, 3167.7115759505723, -1564.085670004567, -185476.16129829423, 187500.0, 19814.128555551597, 6669.671138485806, 0.642, -0.704, 0.378, 192.0, 0.0, 0.0, 0.0, 0.0, 0.0, 0.0, 0.0, 0.0, 0.0, 1.6635873689546897E9, 0.0, 2022-09-19 16:36:08.954
209.0, 29973.286983166574, 7365.816219546345, 3173.34421555331, -1561.8504955590363, -185434.85527454084, 187500.0, 19818.978884098397, 6679.617664768418, 0.642, -0.704, 0.378, 192.0, 0.0, 0.0, 0.0, 0.0, 0.0, 0.0, 0.0, 0.0, 0.0, 1.6635873689596407E9, 0.0, 2022-09-19 16:36:08.959
210.0, 29954.55622131303, 7353.7909810293895, 3154.3899362552092, -1562.5210478926956, -185339.7486018835, 187500.0, 19809.658206660533, 6668.419440796309, 0.638, -0.704, 0.376, 192.0, 19.0, 240.0, 234.0, 0.0, 11.0, 192.0, 0.0, 0.0, 0.0, 1.6635873689626167E9, 0.0, 2022-09-19 16:36:08.962
211.0, 29936.898343193334, 7341.341059367784, 3143.9069681056703, -1555.3908414114526, -185335.23354950352, 187500.0, 19812.452174717448, 6667.3689088069095, 0.638, -0.704, 0.376, 192.0, 0.0, 0.0, 0.0, 0.0, 0.0, 0.0, 0.0, 0.0, 0.0, 1.663587368966656E9, 0.0, 2022-09-19 16:36:08.966
212.0, 29934.238485603153, 7337.630669788203, 3141.783552382416, -1559.9058937914247, -185394.73389324354, 187500.0, 19813.21213402893, 6669.827600696994, 0.638, -0.704, 0.376, 192.0, 0.0, 0.0, 0.0, 0.0, 0.0, 0.0, 0.0, 0.0, 0.0, 1.6635873689726706E9, 0.0, 2022-09-19 16:36:08.972
213.0, 29947.627180531883, 7349.052411204864, 3149.4725524750415, -1563.9962630267457, -185467.1758970232, 187500.0, 19817.86129687563, 6673.739155976672, 0.638, -0.704, 0.376, 192.0, 0.0, 0.0, 0.0, 0.0, 0.0, 0.0, 0.0, 0.0, 0.0, 1.66358736897567E9, 0.0, 2022-09-19 16:36:08.975
214.0, 29961.619372560905, 7363.201065445074, 3158.9273403796365, -1568.444260173352, -185448.020452025, 187500.0, 19822.44340448897, 6671.369871064409, 0.638, -0.704, 0.376, 192.0, 0.0, 0.0, 0.0, 0.0, 0.0, 0.0, 0.0, 0.0, 0.0, 1.6635873689796429E9, 0.0, 2022-09-19 16:36:08.979
215.0, 29949.84000323296, 7357.613129331247, 3147.1479710516896, -1567.8407630730585, -185349.2033897881, 187500.0, 19816.699006163955, 6661.691565715261, 0.638, -0.704, 0.376, 192.0, 0.0, 0.0, 0.0, 0.0, 0.0, 0.0, 0.0, 0.0, 0.0, 1.6635873689826555E9, 0.0, 2022-09-19 16:36:08.982
216.0, 29926.77300295508, 7338.949422711065, 3135.010973812458, -1563.057489759623, -185341.71555539555, 187500.0, 19816.58724744168, 6660.909254659326, 0.638, -0.704, 0.376, 192.0, 0.0, 0.0, 0.0, 0.0, 0.0, 0.0, 0.0, 0.0, 0.0, 1.6635873689867015E9, 0.0, 2022-09-19 16:36:08.986
217.0, 29926.951816910725, 7332.579175541303, 3134.6086424122623, -1561.537571136662, -185411.58710856285, 187500.0, 19827.606657458145, 6664.619644238907, 0.638, -0.704, 0.376, 192.0, 0.0, 0.0, 0.0, 0.0, 0.0, 0.0, 0.0, 0.0, 0.0, 1.663587368990692E9, 0.0, 2022-09-19 16:36:08.990
218.0, 29944.74380549715, 7346.638422803691, 3146.4103634846647, -1564.3985944269414, -185493.46154850264, 187500.0, 19837.955515140955, 6668.710013474228, 0.638, -0.704, 0.376, 192.0, 0.0, 0.0, 0.0, 0.0, 0.0, 0.0, 0.0, 0.0, 0.0, 1.663587368994661E9, 0.0, 2022-09-19 16:36:08.994
219.0, 29963.02753246159, 7364.318652667839, 3157.429773501131, -1563.6609868599162, -185449.6744811147, 187500.0, 19844.057541377253, 6674.141487376868, 0.638, -0.704, 0.376, 192.0, 0.0, 0.0, 0.0, 0.0, 0.0, 0.0, 0.0, 0.0, 0.0, 1.6635873689987388E9, 0.0, 2022-09-19 16:36:08.998
220.0, 29944.74380549715, 7352.338117639794, 3143.9963750834913, -1570.053585774134, -185350.45508747757, 187500.0, 19832.00995111584, 6661.468048270709, 0.64, -0.704, 0.376, 192.0, 20.0, 0.0, 234.0, 0.0, 11.0, 192.0, 0.0, 0.0, 0.0, 1.6635873690027573E9, 0.0, 2022-09-19 16:36:09.002
221.0, 29922.079136619468, 7337.250690132462, 3134.340421478799, -1571.1935247413546, -185348.51048570996, 187500.0, 19829.238334803384, 6656.640071468362, 0.64, -0.704, 0.376, 192.0, 0.0, 0.0, 0.0, 0.0, 0.0, 0.0, 0.0, 0.0, 0.0, 1.6635873690058267E9, 0.0, 2022-09-19 16:36:09.005
222.0, 29923.196723842233, 7339.575271555815, 3140.5989099262847, -1571.4170421859078, -185433.11183847333, 187500.0, 19835.96620988443, 6664.172609349801, 0.64, -0.704, 0.376, 192.0, 0.0, 0.0, 0.0, 0.0, 0.0, 0.0, 0.0, 0.0, 0.0, 1.6635873690098217E9, 0.0, 2022-09-19 16:36:09.009
223.0, 29936.02662515958, 7350.862902505744, 3152.467686232053, -1569.1818677403771, -185473.94847559315, 187500.0, 19844.079893121707, 6670.721670475205, 0.64, -0.704, 0.376, 192.0, 0.0, 0.0, 0.0, 0.0, 0.0, 0.0, 0.0, 0.0, 0.0, 1.663587369014785E9, 0.0, 2022-09-19 16:36:09.014
224.0, 29947.470718320696, 7361.9493677555765, 3162.4812677480304, -1573.316940464609, -185460.8280015979, 187500.0, 19844.41516928854, 6671.9510164202475, 0.64, -0.704, 0.376, 192.0, 0.0, 0.0, 0.0, 0.0, 0.0, 0.0, 0.0, 0.0, 0.0, 1.6635873690188107E9, 0.0, 2022-09-19 16:36:09.018
225.0, 29934.59611351444, 7355.199140930074, 3153.0935350768013, -1574.8368590875698, -185357.47353523655, 187500.0, 19835.206250572952, 6666.050155884047, 0.64, -0.704, 0.376, 192.0, 0.0, 0.0, 0.0, 0.0, 0.0, 0.0, 0.0, 0.0, 0.0, 1.6635873690227265E9, 0.0, 2022-09-19 16:36:09.022
226.0, 29912.82551441497, 7339.5305680669035, 3137.492017446997, -1575.7532806102372, -185349.4492589771, 187500.0, 19822.175183555508, 6658.674080213796, 0.64, -0.704, 0.376, 192.0, 0.0, 0.0, 0.0, 0.0, 0.0, 0.0, 0.0, 0.0, 0.0, 1.6635873690267522E9, 0.0, 2022-09-19 16:36:09.026
227.0, 29907.461095745697, 7334.255556375451, 3134.8098081123603, -1577.4520131888407, -185397.55021304492, 187500.0, 19809.658206660533, 6656.975347635192, 0.64, -0.704, 0.376, 192.0, 0.0, 0.0, 0.0, 0.0, 0.0, 0.0, 0.0, 0.0, 0.0, 1.6635873690308137E9, 0.0, 2022-09-19 16:36:09.030
228.0, 29919.01694762909, 7344.02326870242, 3147.237378029511, -1576.4014811994412, -185478.4411762287, 187500.0, 19811.44634621696, 6667.257150084633, 0.64, -0.704, 0.376, 192.0, 0.0, 0.0, 0.0, 0.0, 0.0, 0.0, 0.0, 0.0, 0.0, 1.6635873690337205E9, 0.0, 2022-09-19 16:36:09.033
229.0, 29934.26083734761, 7357.479018864516, 3158.2791397904325, -1578.2343242447764, -185465.9689028226, 187500.0, 19816.229619530397, 6667.547722762552, 0.64, -0.704, 0.376, 192.0, 0.0, 0.0, 0.0, 0.0, 0.0, 0.0, 0.0, 0.0, 0.0, 1.6635873690387151E9, 0.0, 2022-09-19 16:36:09.038
230.0, 29922.92850290877, 7353.12042869573, 3150.0536978308796, -1578.055510289134, -185379.6464657362, 187500.0, 19811.423994472505, 6658.472914513697, 0.634, -0.706, 0.372, 192.0, 19.0, 208.0, 233.0, 240.0, 11.0, 160.0, 0.0, 0.0, 0.0, 1.6635873690427284E9, 0.0, 2022-09-19 16:36:09.042
231.0, 29897.648679929818, 7334.7696464979235, 3136.597947668785, -1574.50158292074, -185337.22285476004, 187500.0, 19810.954607838943, 6651.320356287999, 0.634, -0.706, 0.372, 192.0, 0.0, 0.0, 0.0, 0.0, 0.0, 0.0, 0.0, 0.0, 0.0, 1.663587369046739E9, 0.0, 2022-09-19 16:36:09.046
232.0, 29889.490293203628, 7327.63944001668, 3136.262671501955, -1576.245018988254, -185415.40925686472, 187500.0, 19813.569761940213, 6651.186245821267, 0.634, -0.706, 0.372, 192.0, 0.0, 0.0, 0.0, 0.0, 0.0, 0.0, 0.0, 0.0, 0.0, 1.6635873690527396E9, 0.0, 2022-09-19 16:36:09.052
233.0, 29905.82941840046, 7342.8162745018335, 3151.327747264832, -1573.0487195311453, -185496.50138574856, 187500.0, 19828.92541038101, 6660.998661637147, 0.634, -0.706, 0.372, 192.0, 0.0, 0.0, 0.0, 0.0, 0.0, 0.0, 0.0, 0.0, 0.0, 1.6635873690557404E9, 0.0, 2022-09-19 16:36:09.055
234.0, 29928.941122167245, 7360.921187510632, 3167.1974858281, -1569.5171439072067, -185472.51796394802, 187500.0, 19840.63772447559, 6668.665309985317, 0.634, -0.706, 0.372, 192.0, 0.0, 0.0, 0.0, 0.0, 0.0, 0.0, 0.0, 0.0, 0.0, 1.6635873690587468E9, 0.0, 2022-09-19 16:36:09.058
235.0, 29921.25212207462, 7357.009632230954, 3155.90985487817, -1575.2168387433098, -185375.86902092327, 187500.0, 19828.34426502517, 6658.785838936072, 0.634, -0.706, 0.372, 192.0, 0.0, 0.0, 0.0, 0.0, 0.0, 0.0, 0.0, 0.0, 0.0, 1.6635873690618E9, 0.0, 2022-09-19 16:36:09.061
236.0, 29894.854711872904, 7337.988297699488, 3137.7602383804606, -1571.6852631193715, -185333.6465756472, 187500.0, 19824.343302767673, 6652.639109210862, 0.634, -0.706, 0.372, 192.0, 0.0, 0.0, 0.0, 0.0, 0.0, 0.0, 0.0, 0.0, 0.0, 1.6635873690658517E9, 0.0, 2022-09-19 16:36:09.065
237.0, 29890.42906647075, 7336.133102909697, 3137.0673343023464, -1572.959312553324, -185410.2236521511, 187500.0, 19830.87001214862, 6650.962728376714, 0.634, -0.706, 0.372, 192.0, 0.0, 0.0, 0.0, 0.0, 0.0, 0.0, 0.0, 0.0, 0.0, 1.663587369070773E9, 0.0, 2022-09-19 16:36:09.070
238.0, 29899.034488086047, 7346.392553614683, 3150.254863530977, -1570.9923590412568, -185464.85131559984, 187500.0, 19843.252878576863, 6657.869417413404, 0.634, -0.706, 0.372, 192.0, 0.0, 0.0, 0.0, 0.0, 0.0, 0.0, 0.0, 0.0, 0.0, 1.6635873690748224E9, 0.0, 2022-09-19 16:36:09.074
239.0, 29914.47954350466, 7361.7705537999345, 3164.5376282379184, -1565.985568283268, -185478.26236227303, 187500.0, 19854.45110254897, 6669.000586152147, 0.634, -0.706, 0.372, 192.0, 0.0, 0.0, 0.0, 0.0, 0.0, 0.0, 0.0, 0.0, 0.0, 1.6635873690788648E9, 0.0, 2022-09-19 16:36:09.078
240.0, 29908.198703312723, 7360.69767006608, 3158.1897328126115, -1563.21395197081, -185390.64352400822, 187500.0, 19849.31020132425, 6669.335862318977, 0.634, -0.704, 0.378, 192.0, 19.0, 208.0, 234.0, 0.0, 11.0, 208.0, 0.0, 0.0, 0.0, 1.6635873690827813E9, 0.0, 2022-09-19 16:36:09.082
241.0, 29884.148226278812, 7344.649117547169, 3144.018726827947, -1557.894236790447, -185335.9488053261, 187500.0, 19845.800977444767, 6670.855780941937, 0.634, -0.704, 0.378, 192.0, 0.0, 0.0, 0.0, 0.0, 0.0, 0.0, 0.0, 0.0, 0.0, 1.6635873690858357E9, 0.0, 2022-09-19 16:36:09.085
242.0, 29873.665258129273, 7336.669544776624, 3142.521159949441, -1562.766917081704, -185385.18969836112, 187500.0, 19848.147910612573, 6671.392222808865, 0.634, -0.704, 0.378, 192.0, 0.0, 0.0, 0.0, 0.0, 0.0, 0.0, 0.0, 0.0, 0.0, 1.6635873690898268E9, 0.0, 2022-09-19 16:36:09.089
243.0, 29886.651621657806, 7347.912472237644, 3155.5969304557957, -1562.2975304481424, -185477.25653377254, 187500.0, 19856.73098048341, 6675.482592044186, 0.634, -0.704, 0.378, 192.0, 0.0, 0.0, 0.0, 0.0, 0.0, 0.0, 0.0, 0.0, 0.0, 1.663587369093828E9, 0.0, 2022-09-19 16:36:09.093
244.0, 29910.076249846967, 7367.336138169306, 3172.6736632196503, -1560.8223153140923, -185503.87746141883, 187500.0, 19866.5880997882, 6680.89171420237, 0.634, -0.704, 0.378, 192.0, 0.0, 0.0, 0.0, 0.0, 0.0, 0.0, 0.0, 0.0, 0.0, 1.6635873690988748E9, 0.0, 2022-09-19 16:36:09.098
245.0, 29905.538845722538, 7367.067917235842, 3162.7941921704046, -1564.7562223382263, -185394.84565196582, 187500.0, 19858.519120039837, 6669.760545463628, 0.634, -0.704, 0.378, 192.0, 0.0, 0.0, 0.0, 0.0, 0.0, 0.0, 0.0, 0.0, 0.0, 1.6635873691028128E9, 0.0, 2022-09-19 16:36:09.102
246.0, 29880.214319254676, 7346.638422803691, 3142.744677393994, -1563.6386351154608, -185332.3054709799, 187500.0, 19855.412227560548, 6658.808190680527, 0.634, -0.704, 0.378, 192.0, 0.0, 0.0, 0.0, 0.0, 0.0, 0.0, 0.0, 0.0, 0.0, 1.6635873691068263E9, 0.0, 2022-09-19 16:36:09.106
247.0, 29877.174482008755, 7341.296355878873, 3143.2811192609215, -1562.1410682369553, -185396.58908803333, 187500.0, 19861.626012519126, 6659.2105220807225, 0.634, -0.704, 0.378, 192.0, 0.0, 0.0, 0.0, 0.0, 0.0, 0.0, 0.0, 0.0, 0.0, 1.6635873691109688E9, 0.0, 2022-09-19 16:36:09.110
248.0, 29888.663278658783, 7348.7394867824905, 3151.90889262067, -1559.6153211135056, -185458.4810684301, 187500.0, 19871.281966123817, 6667.547722762552, 0.634, -0.704, 0.378, 192.0, 0.0, 0.0, 0.0, 0.0, 0.0, 0.0, 0.0, 0.0, 0.0, 1.6635873691139193E9, 0.0, 2022-09-19 16:36:09.113
249.0, 29901.67199393177, 7358.261329920451, 3155.127543822234, -1564.957388038324, -185464.35957722183, 187500.0, 19876.869902237642, 6675.527295533097, 0.634, -0.704, 0.378, 192.0, 0.0, 0.0, 0.0, 0.0, 0.0, 0.0, 0.0, 0.0, 0.0, 1.6635873691198685E9, 0.0, 2022-09-19 16:36:09.119
250.0, 29901.604938698405, 7360.988242743999, 3150.1878082976114, -1570.3888619409636, -185411.22948065156, 187500.0, 19875.349983614684, 6670.229932097189, 0.634, -0.71, 0.378, 192.0, 19.0, 208.0, 233.0, 208.0, 11.0, 208.0, 0.0, 0.0, 0.0, 1.6635873691228426E9, 0.0, 2022-09-19 16:36:09.122
251.0, 29880.9519268217, 7346.638422803691, 3132.686392389106, -1571.1935247413546, -185351.3491572558, 187500.0, 19866.141064899097, 6657.93647264677, 0.634, -0.71, 0.378, 192.0, 0.0, 0.0, 0.0, 0.0, 0.0, 0.0, 0.0, 0.0, 0.0, 1.6635873691279986E9, 0.0, 2022-09-19 16:36:09.127
252.0, 29875.0510662855, 7341.229300645507, 3126.9419940640923, -1571.3499869525417, -185401.6629340247, 187500.0, 19865.872843965633, 6657.400030779842, 0.634, -0.71, 0.378, 192.0, 0.0, 0.0, 0.0, 0.0, 0.0, 0.0, 0.0, 0.0, 0.0, 1.6635873691318896E9, 0.0, 2022-09-19 16:36:09.131
253.0, 29879.54376692102, 7346.593719314781, 3131.5017499329747, -1572.534629408673, -185455.2177137396, 187500.0, 19870.566710301246, 6660.529275003586, 0.634, -0.71, 0.378, 192.0, 0.0, 0.0, 0.0, 0.0, 0.0, 0.0, 0.0, 0.0, 0.0, 1.6635873691348772E9, 0.0, 2022-09-19 16:36:09.134
254.0, 29895.659374673294, 7360.630614832714, 3143.750505894483, -1571.6405596304608, -185489.01355135604, 187500.0, 19879.55211157228, 6671.07929838649, 0.634, -0.71, 0.378, 192.0, 0.0, 0.0, 0.0, 0.0, 0.0, 0.0, 0.0, 0.0, 0.0, 1.6635873691389055E9, 0.0, 2022-09-19 16:36:09.138
255.0, 29892.68659266074, 7359.915359010143, 3138.5425494363967, -1575.9320945658797, -185401.14884390222, 187500.0, 19873.673602780535, 6666.363080306421, 0.634, -0.71, 0.378, 192.0, 0.0, 0.0, 0.0, 0.0, 0.0, 0.0, 0.0, 0.0, 0.0, 1.6635873691419091E9, 0.0, 2022-09-19 16:36:09.141
0.0, 29865.015133025066, 7340.35758261175, 3120.258822471955, -1575.663873632416, -185348.66694792116, 187500.0, 19863.011820675354, 6654.740173189661, 0.634, -0.71, 0.378, 192.0, 0.0, 0.0, 0.0, 0.0, 0.0, 0.0, 0.0, 0.0, 0.0, 1.663587369145991E9, 0.0, 2022-09-19 16:36:09.145
1.0, 29853.05694974148, 7332.109788907742, 3117.4425026705867, -1568.8465915735474, -185393.0128089205, 187500.0, 19865.939899199, 6657.534141246574, 0.634, -0.71, 0.378, 192.0, 0.0, 0.0, 0.0, 0.0, 0.0, 0.0, 0.0, 0.0, 0.0, 1.6635873691499295E9, 0.0, 2022-09-19 16:36:09.149
2.0, 29855.202717209188, 7333.160320897141, 3121.979906795014, -1569.248922973743, -185440.35380367684, 187500.0, 19871.30431786827, 6663.725574460695, 0.634, -0.71, 0.378, 192.0, 0.0, 0.0, 0.0, 0.0, 0.0, 0.0, 0.0, 0.0, 0.0, 1.6635873691540227E9, 0.0, 2022-09-19 16:36:09.154
3.0, 29865.305705702987, 7342.145722168175, 3131.658212144162, -1573.3839956979748, -185459.88922833078, 187500.0, 19875.6405562926, 6665.804286695038, 0.634, -0.71, 0.378, 192.0, 0.0, 0.0, 0.0, 0.0, 0.0, 0.0, 0.0, 0.0, 0.0, 1.663587369158919E9, 0.0, 2022-09-19 16:36:09.158
4.0, 29865.52922314754, 7343.509178579949, 3131.9040813331703, -1573.763975353715, -185403.94281195913, 187500.0, 19871.907814968567, 6663.703222716239, 0.64, -0.718, 0.376, 192.0, 20.0, 0.0, 233.0, 144.0, 11.0, 192.0, 0.0, 0.0, 0.0, 1.6635873691630423E9, 0.0, 2022-09-19 16:36:09.163
5.0, 29839.62355132384, 7325.538376037882, 3117.8001305818716, -1574.6803968763825, -185339.48038095003, 187500.0, 19860.530777040814, 6654.404897022831, 0.64, -0.718, 0.376, 192.0, 0.0, 0.0, 0.0, 0.0, 0.0, 0.0, 0.0, 0.0, 0.0, 1.663587369166069E9, 0.0, 2022-09-19 16:36:09.166
6.0, 29822.904446471268, 7313.602544498747, 3114.179147980112, -1574.6803968763825, -185361.60860796078, 187500.0, 19859.41318981805, 6653.309661544521, 0.64, -0.718, 0.376, 192.0, 0.0, 0.0, 0.0, 0.0, 0.0, 0.0, 0.0, 0.0, 0.0, 1.6635873691699548E9, 0.0, 2022-09-19 16:36:09.169
7.0, 29828.537086074008, 7318.139948623175, 3123.164549251145, -1570.8135450856144, -185449.00392878105, 187500.0, 19869.158550400563, 6660.3281093034875, 0.64, -0.718, 0.376, 192.0, 0.0, 0.0, 0.0, 0.0, 0.0, 0.0, 0.0, 0.0, 0.0, 1.6635873691739995E9, 0.0, 2022-09-19 16:36:09.173
8.0, 29846.86551652736, 7330.4334080735935, 3135.8603401017594, -1569.897123562947, -185479.290542518, 187500.0, 19884.178922674528, 6667.950054162748, 0.64, -0.718, 0.376, 192.0, 0.0, 0.0, 0.0, 0.0, 0.0, 0.0, 0.0, 0.0, 0.0, 1.6635873691780677E9, 0.0, 2022-09-19 16:36:09.178
9.0, 29852.520507874553, 7333.987335441988, 3138.9895843255026, -1570.701786363338, -185398.80191073442, 187500.0, 19885.45297210848, 6664.12790586089, 0.64, -0.718, 0.376, 192.0, 0.0, 0.0, 0.0, 0.0, 0.0, 0.0, 0.0, 0.0, 0.0, 1.6635873691820533E9, 0.0, 2022-09-19 16:36:09.182
10.0, 29828.738251774106, 7315.122463121708, 3125.8691103302376, -1566.6561206169274, -185334.76416286995, 187500.0, 19878.03219294932, 6654.404897022831, 0.64, -0.718, 0.376, 192.0, 0.0, 0.0, 0.0, 0.0, 0.0, 0.0, 0.0, 0.0, 0.0, 1.6635873691870081E9, 0.0, 2022-09-19 16:36:09.187
11.0, 29815.081335911913, 7303.454852516038, 3121.175243994623, -1562.7222135927932, -185353.47257297905, 187500.0, 19880.22266390594, 6657.9811761356805, 0.64, -0.718, 0.376, 192.0, 0.0, 0.0, 0.0, 0.0, 0.0, 0.0, 0.0, 0.0, 0.0, 1.6635873691909652E9, 0.0, 2022-09-19 16:36:09.190
12.0, 29814.924873700726, 7303.8348321717785, 3124.170377751634, -1566.6114171280167, -185401.0594369244, 187500.0, 19885.36356513066, 6657.578844735485, 0.64, -0.718, 0.376, 192.0, 0.0, 0.0, 0.0, 0.0, 0.0, 0.0, 0.0, 0.0, 0.0, 1.6635873691951463E9, 0.0, 2022-09-19 16:36:09.195
13.0, 29828.492382585096, 7315.234221843984, 3133.6698691451397, -1568.7795363401815, -185497.90954564925, 187500.0, 19891.42088787805, 6660.3281093034875, 0.64, -0.718, 0.376, 192.0, 0.0, 0.0, 0.0, 0.0, 0.0, 0.0, 0.0, 0.0, 0.0, 1.6635873691981041E9, 0.0, 2022-09-19 16:36:09.198
14.0, 29836.650769311284, 7323.191442870074, 3134.072200545335, -1566.49965840574, -185411.43064635166, 187500.0, 19890.325652399737, 6665.245493083656, 0.636, -0.708, 0.376, 192.0, 19.0, 224.0, 233.0, 224.0, 11.0, 192.0, 0.0, 0.0, 0.0, 1.6635873692030332E9, 0.0, 2022-09-19 16:36:09.203
15.0, 29810.72274574313, 7306.807614184334, 3117.1295782482125, -1567.4831351617736, -185325.4434854321, 187500.0, 19879.59681506119, 6654.091972600458, 0.636, -0.708, 0.376, 192.0, 0.0, 0.0, 0.0, 0.0, 0.0, 0.0, 0.0, 0.0, 0.0, 1.66358736920812E9, 0.0, 2022-09-19 16:36:09.208
16.0, 29791.61200423384, 7292.793070410857, 3111.3404764342877, -1566.49965840574, -185329.8467790898, 187500.0, 19879.93209122802, 6647.878187641882, 0.636, -0.708, 0.376, 192.0, 0.0, 0.0, 0.0, 0.0, 0.0, 0.0, 0.0, 0.0, 0.0, 1.6635873692110538E9, 0.0, 2022-09-19 16:36:09.211
17.0, 29797.75873395905, 7293.173050066597, 3120.392932938687, -1560.3529286805308, -185411.7212190296, 187500.0, 19889.23041692143, 6656.148333090346, 0.636, -0.708, 0.376, 192.0, 0.0, 0.0, 0.0, 0.0, 0.0, 0.0, 0.0, 0.0, 0.0, 1.663587369215028E9, 0.0, 2022-09-19 16:36:09.215
18.0, 29810.1863038762, 7299.63270421418, 3131.2111772550556, -1559.1235827354888, -185449.98740553707, 187500.0, 19898.148762959096, 6661.244530826156, 0.636, -0.708, 0.376, 192.0, 0.0, 0.0, 0.0, 0.0, 0.0, 0.0, 0.0, 0.0, 0.0, 1.6635873692200341E9, 0.0, 2022-09-19 16:36:09.220
19.0, 29814.85781846736, 7302.896058904656, 3135.815636612849, -1558.2742164461872, -185382.0604541374, 187500.0, 19897.478210625435, 6661.289234315066, 0.636, -0.708, 0.376, 192.0, 0.0, 0.0, 0.0, 0.0, 0.0, 0.0, 0.0, 0.0, 0.0, 1.663587369224166E9, 0.0, 2022-09-19 16:36:09.224
20.0, 29796.194111847177, 7285.461698229516, 3123.298659717877, -1555.9049315339246, -185337.82635186033, 187500.0, 19886.034117464318, 6656.662423212818, 0.636, -0.708, 0.376, 192.0, 0.0, 0.0, 0.0, 0.0, 0.0, 0.0, 0.0, 0.0, 0.0, 1.6635873692271082E9, 0.0, 2022-09-19 16:36:09.227
21.0, 29782.89482389627, 7271.245988755941, 3115.5202526474304, -1555.8378763005587, -185340.68737515062, 187500.0, 19880.714402283957, 6653.3990685223425, 0.636, -0.708, 0.376, 192.0, 0.0, 0.0, 0.0, 0.0, 0.0, 0.0, 0.0, 0.0, 0.0, 1.6635873692301035E9, 0.0, 2022-09-19 16:36:09.230
22.0, 29782.55954772944, 7266.529770675871, 3117.5766131373184, -1560.732908336271, -185408.6590300392, 187500.0, 19882.010803462363, 6652.594405721951, 0.636, -0.708, 0.376, 192.0, 0.0, 0.0, 0.0, 0.0, 0.0, 0.0, 0.0, 0.0, 0.0, 1.6635873692340555E9, 0.0, 2022-09-19 16:36:09.234
23.0, 29797.915196170237, 7274.509343446415, 3130.2277004990224, -1562.5881031260615, -185463.9795975661, 187500.0, 19889.58804483271, 6655.991870879158, 0.636, -0.708, 0.376, 192.0, 0.0, 0.0, 0.0, 0.0, 0.0, 0.0, 0.0, 0.0, 0.0, 1.6635873692380743E9, 0.0, 2022-09-19 16:36:09.238
24.0, 29807.861722452846, 7280.611369682714, 3138.944880836592, -1563.1245449929888, -185421.53363484546, 187500.0, 19891.398536133594, 6651.186245821267, 0.636, -0.708, 0.376, 192.0, 0.0, 0.0, 0.0, 0.0, 0.0, 0.0, 0.0, 0.0, 0.0, 1.6635873692421184E9, 0.0, 2022-09-19 16:36:09.242
25.0, 29792.55077750096, 7267.312081731807, 3129.5347964209077, -1562.252826959232, -185348.46578222106, 187500.0, 19884.290681396804, 6645.531254474075, 0.636, -0.71, 0.378, 192.0, 19.0, 224.0, 233.0, 208.0, 11.0, 208.0, 0.0, 0.0, 0.0, 1.6635873692471268E9, 0.0, 2022-09-19 16:36:09.247
26.0, 29774.781140658994, 7249.967128034488, 3120.884671316704, -1561.8504955590363, -185332.05960179088, 187500.0, 19882.323727884737, 6640.792684649549, 0.636, -0.71, 0.378, 192.0, 0.0, 0.0, 0.0, 0.0, 0.0, 0.0, 0.0, 0.0, 0.0, 1.6635873692502315E9, 0.0, 2022-09-19 16:36:09.250
27.0, 29780.23496630609, 7249.922424545578, 3127.7019533755724, -1559.9282455358798, -185415.29749814243, 187500.0, 19890.21389367746, 6644.972460862692, 0.636, -0.71, 0.378, 192.0, 0.0, 0.0, 0.0, 0.0, 0.0, 0.0, 0.0, 0.0, 0.0, 1.6635873692541623E9, 0.0, 2022-09-19 16:36:09.254
28.0, 29802.542007272485, 7265.5686456642925, 3142.141180293701, -1561.5152193922067, -185470.50630694703, 187500.0, 19900.8980275271, 6651.812094666016, 0.636, -0.71, 0.378, 192.0, 0.0, 0.0, 0.0, 0.0, 0.0, 0.0, 0.0, 0.0, 0.0, 1.6635873692581444E9, 0.0, 2022-09-19 16:36:09.258
29.0, 29812.734402744103, 7273.950549835033, 3149.226683286033, -1559.3023966911312, -185425.42283838068, 187500.0, 19904.250789195394, 6656.617719723907, 0.636, -0.71, 0.378, 192.0, 0.0, 0.0, 0.0, 0.0, 0.0, 0.0, 0.0, 0.0, 0.0, 1.663587369262231E9, 0.0, 2022-09-19 16:36:09.262
30.0, 29792.774294945517, 7258.550197905326, 3135.6368226572067, -1560.7105565918157, -185341.53674143992, 187500.0, 19896.695899569502, 6650.292176043055, 0.636, -0.71, 0.378, 192.0, 0.0, 0.0, 0.0, 0.0, 0.0, 0.0, 0.0, 0.0, 0.0, 1.6635873692661629E9, 0.0, 2022-09-19 16:36:09.266
31.0, 29777.061018593435, 7241.361706419195, 3128.484264431508, -1555.1002687335335, -185343.7048606521, 187500.0, 19901.970911260953, 6654.494304000653, 0.636, -0.71, 0.378, 192.0, 0.0, 0.0, 0.0, 0.0, 0.0, 0.0, 0.0, 0.0, 0.0, 1.6635873692711375E9, 0.0, 2022-09-19 16:36:09.271
32.0, 29783.632431463295, 7241.920500030577, 3134.4745319455305, -1556.8437048010476, -185403.9651637036, 187500.0, 19912.208010221482, 6659.903426158837, 0.636, -0.71, 0.378, 192.0, 0.0, 0.0, 0.0, 0.0, 0.0, 0.0, 0.0, 0.0, 0.0, 1.6635873692741835E9, 0.0, 2022-09-19 16:36:09.274
33.0, 29799.74803921557, 7250.257700712407, 3144.3540029947762, -1561.8057920701258, -185458.95045506366, 187500.0, 19922.75803360439, 6661.579806992985, 0.636, -0.71, 0.378, 192.0, 0.0, 0.0, 0.0, 0.0, 0.0, 0.0, 0.0, 0.0, 0.0, 1.6635873692772205E9, 0.0, 2022-09-19 16:36:09.277
34.0, 29813.069678910935, 7258.48314267196, 3149.941939108603, -1565.4491264163407, -185420.39369587824, 187500.0, 19926.04374003932, 6662.987966893669, 0.636, -0.71, 0.378, 192.0, 0.0, 0.0, 0.0, 0.0, 0.0, 0.0, 0.0, 0.0, 0.0, 1.6635873692822268E9, 0.0, 2022-09-19 16:36:09.282
35.0, 29798.496341526075, 7249.654203612114, 3137.246148257989, -1567.9078183064246, -185336.17232277064, 187500.0, 19918.913533558076, 6654.717821445206, 0.634, -0.704, 0.376, 192.0, 19.0, 208.0, 234.0, 0.0, 11.0, 192.0, 0.0, 0.0, 0.0, 1.6635873692862391E9, 0.0, 2022-09-19 16:36:09.286
36.0, 29779.98909711708, 7235.460845882994, 3122.538700406397, -1569.763013096215, -185340.86618910625, 187500.0, 19916.231324223438, 6647.922891130793, 0.634, -0.704, 0.376, 192.0, 0.0, 0.0, 0.0, 0.0, 0.0, 0.0, 0.0, 0.0, 0.0, 1.6635873692902443E9, 0.0, 2022-09-19 16:36:09.290
37.0, 29782.98423087409, 7233.449188882017, 3127.076104530824, -1565.829106072081, -185404.14397765923, 187500.0, 19929.46355694098, 6651.610928965918, 0.634, -0.704, 0.376, 192.0, 0.0, 0.0, 0.0, 0.0, 0.0, 0.0, 0.0, 0.0, 0.0, 1.6635873692942135E9, 0.0, 2022-09-19 16:36:09.294
38.0, 29800.642108993783, 7243.798046564823, 3141.3812209822204, -1563.9739112822904, -185480.2293157851, 187500.0, 19941.46644371348, 6659.501094758642, 0.634, -0.704, 0.376, 192.0, 0.0, 0.0, 0.0, 0.0, 0.0, 0.0, 0.0, 0.0, 0.0, 1.663587369299173E9, 0.0, 2022-09-19 16:36:09.299
39.0, 29819.976367947624, 7258.460790927505, 3152.199465298589, -1561.2917019476536, -185442.67838510018, 187500.0, 19945.266240270885, 6663.055022127035, 0.634, -0.704, 0.376, 192.0, 0.0, 0.0, 0.0, 0.0, 0.0, 0.0, 0.0, 0.0, 0.0, 1.663587369302228E9, 0.0, 2022-09-19 16:36:09.302
40.0, 29806.297100340977, 7249.0730582562755, 3139.2801570034217, -1557.894236790447, -185344.17424728564, 187500.0, 19940.639429168634, 6657.198865079745, 0.634, -0.704, 0.376, 192.0, 0.0, 0.0, 0.0, 0.0, 0.0, 0.0, 0.0, 0.0, 0.0, 1.6635873693053365E9, 0.0, 2022-09-19 16:36:09.305
41.0, 29791.097914111368, 7236.354915661206, 3129.3112789763545, -1552.1945419543435, -185348.17520954314, 187500.0, 19941.511147202393, 6655.991870879158, 0.634, -0.704, 0.376, 192.0, 0.0, 0.0, 0.0, 0.0, 0.0, 0.0, 0.0, 0.0, 0.0, 1.6635873693101673E9, 0.0, 2022-09-19 16:36:09.310
42.0, 29791.589652489383, 7234.4550173825055, 3133.021668555936, -1554.5414751221508, -185414.80575976442, 187500.0, 19948.686057172545, 6655.9248156457925, 0.634, -0.704, 0.376, 192.0, 0.0, 0.0, 0.0, 0.0, 0.0, 0.0, 0.0, 0.0, 0.0, 1.6635873693142405E9, 0.0, 2022-09-19 16:36:09.314
43.0, 29807.81701896394, 7245.34031693224, 3145.3151280063544, -1558.9671205243017, -185475.9824843386, 187500.0, 19957.89497588813, 6662.317414560011, 0.634, -0.704, 0.376, 192.0, 0.0, 0.0, 0.0, 0.0, 0.0, 0.0, 0.0, 0.0, 0.0, 1.6635873693182719E9, 0.0, 2022-09-19 16:36:09.318
44.0, 29824.893751727792, 7259.488971172449, 3156.133372322723, -1561.090536247556, -185477.41299598373, 187500.0, 19963.080580601763, 6667.860647184926, 0.634, -0.704, 0.376, 192.0, 0.0, 0.0, 0.0, 0.0, 0.0, 0.0, 0.0, 0.0, 0.0, 1.663587369322236E9, 0.0, 2022-09-19 16:36:09.322
45.0, 29815.95305394567, 7256.695003115536, 3147.304433262877, -1558.9447687798463, -185352.37733750074, 187500.0, 19957.17972006556, 6663.457353527231, 0.646, -0.71, 0.37, 192.0, 20.0, 48.0, 233.0, 208.0, 11.0, 144.0, 0.0, 0.0, 0.0, 1.6635873693262584E9, 0.0, 2022-09-19 16:36:09.326
46.0, 29797.95989965915, 7244.334488431751, 3134.139255778701, -1561.4481641588409, -185351.5503229559, 187500.0, 19953.871661886176, 6654.494304000653, 0.646, -0.71, 0.37, 192.0, 0.0, 0.0, 0.0, 0.0, 0.0, 0.0, 0.0, 0.0, 0.0, 1.6635873693302681E9, 0.0, 2022-09-19 16:36:09.330
47.0, 29800.530350271507, 7244.513302387393, 3137.8943488471928, -1559.8164868136034, -185402.9593352031, 187500.0, 19957.269127043382, 6658.539969747063, 0.646, -0.71, 0.37, 192.0, 0.0, 0.0, 0.0, 0.0, 0.0, 0.0, 0.0, 0.0, 0.0, 1.6635873693332934E9, 0.0, 2022-09-19 16:36:09.333
48.0, 29817.629434779818, 7257.2314449824635, 3151.8641891317593, -1554.1391437219554, -185480.27401927402, 187500.0, 19964.84636841373, 6671.0122431531245, 0.646, -0.71, 0.37, 192.0, 0.0, 0.0, 0.0, 0.0, 0.0, 0.0, 0.0, 0.0, 0.0, 1.6635873693374035E9, 0.0, 2022-09-19 16:36:09.337
49.0, 29835.95786523317, 7272.654148656625, 3161.8330671588265, -1553.8709227884917, -185444.37711767878, 187500.0, 19966.388638781147, 6674.7673362216165, 0.646, -0.71, 0.37, 192.0, 0.0, 0.0, 0.0, 0.0, 0.0, 0.0, 0.0, 0.0, 0.0, 1.6635873693422205E9, 0.0, 2022-09-19 16:36:09.342
50.0, 29819.305815613967, 7262.931139818566, 3148.8243518858376, -1556.4860768897627, -185332.97602331353, 187500.0, 19955.771560164878, 6663.814981438516, 0.646, -0.71, 0.37, 192.0, 0.0, 0.0, 0.0, 0.0, 0.0, 0.0, 0.0, 0.0, 0.0, 1.6635873693462226E9, 0.0, 2022-09-19 16:36:09.346
51.0, 29796.41762929173, 7247.955471033511, 3137.1567412801674, -1557.7154228348045, -185344.21895077455, 187500.0, 19949.24485078393, 6658.785838936072, 0.646, -0.71, 0.37, 192.0, 0.0, 0.0, 0.0, 0.0, 0.0, 0.0, 0.0, 0.0, 0.0, 1.6635873693503056E9, 0.0, 2022-09-19 16:36:09.350
52.0, 29793.66836472373, 7245.4967791434265, 3137.3579069802654, -1561.537571136662, -185393.2139746206, 187500.0, 19953.13405431915, 6661.289234315066, 0.646, -0.71, 0.37, 192.0, 0.0, 0.0, 0.0, 0.0, 0.0, 0.0, 0.0, 0.0, 0.0, 1.663587369354319E9, 0.0, 2022-09-19 16:36:09.354
53.0, 29806.297100340977, 7256.739706604446, 3143.9069681056703, -1562.9904345262569, -185457.60935039632, 187500.0, 19964.153464335617, 6666.497190773152, 0.646, -0.71, 0.37, 192.0, 0.0, 0.0, 0.0, 0.0, 0.0, 0.0, 0.0, 0.0, 0.0, 1.663587369358312E9, 0.0, 2022-09-19 16:36:09.358
54.0, 29818.411745835754, 7270.374270722184, 3150.880712375726, -1567.0584520171228, -185460.29155973098, 187500.0, 19967.550929492823, 6667.882998929382, 0.646, -0.71, 0.37, 192.0, 0.0, 0.0, 0.0, 0.0, 0.0, 0.0, 0.0, 0.0, 0.0, 1.6635873693613024E9, 0.0, 2022-09-19 16:36:09.361
55.0, 29810.02984166501, 7269.547256177338, 3140.151875037179, -1574.0098445427234, -185380.62994249226, 187500.0, 19958.073789843773, 6659.814019181016, 0.644, -0.712, 0.376, 192.0, 20.0, 32.0, 233.0, 192.0, 11.0, 192.0, 0.0, 0.0, 0.0, 1.663587369365306E9, 0.0, 2022-09-19 16:36:09.365
56.0, 29787.99102163208, 7252.895206558133, 3121.890499817193, -1573.316940464609, -185332.08195353532, 187500.0, 19951.457673485, 6652.907330144326, 0.644, -0.712, 0.376, 192.0, 0.0, 0.0, 0.0, 0.0, 0.0, 0.0, 0.0, 0.0, 0.0, 1.6635873693704593E9, 0.0, 2022-09-19 16:36:09.370
57.0, 29784.660611708237, 7247.463732655494, 3119.990601538492, -1568.8018880846369, -185380.8534599368, 187500.0, 19956.37505726517, 6657.489437757664, 0.644, -0.712, 0.376, 192.0, 0.0, 0.0, 0.0, 0.0, 0.0, 0.0, 0.0, 0.0, 0.0, 1.663587369374307E9, 0.0, 2022-09-19 16:36:09.374
58.0, 29791.634355978294, 7250.525921645871, 3126.271441730433, -1570.2994549631424, -185439.6608995987, 187500.0, 19963.527615490868, 6661.848027926449, 0.644, -0.712, 0.376, 192.0, 0.0, 0.0, 0.0, 0.0, 0.0, 0.0, 0.0, 0.0, 0.0, 1.6635873693783529E9, 0.0, 2022-09-19 16:36:09.378
59.0, 29806.61002476335, 7264.138134019153, 3135.7485813794833, -1574.6133416430166, -185461.0738707869, 187500.0, 19966.209824825506, 6667.1900948512675, 0.644, -0.712, 0.376, 192.0, 0.0, 0.0, 0.0, 0.0, 0.0, 0.0, 0.0, 0.0, 0.0, 1.6635873693823228E9, 0.0, 2022-09-19 16:36:09.382
60.0, 29797.55756825895, 7260.181875250563, 3126.517310919441, -1577.4520131888407, -185347.07997406484, 187500.0, 19955.972725864976, 6659.568149992007, 0.644, -0.712, 0.376, 192.0, 0.0, 0.0, 0.0, 0.0, 0.0, 0.0, 0.0, 0.0, 0.0, 1.6635873693853745E9, 0.0, 2022-09-19 16:36:09.385
61.0, 29771.920117368714, 7243.038087253343, 3111.876918301215, -1575.9767980547904, -185338.18397977162, 187500.0, 19946.674400171567, 6652.79557142205, 0.644, -0.712, 0.376, 192.0, 0.0, 0.0, 0.0, 0.0, 0.0, 0.0, 0.0, 0.0, 0.0, 1.6635873693893414E9, 0.0, 2022-09-19 16:36:09.389
62.0, 29763.56056494243, 7235.729066816458, 3110.871089800726, -1573.7192718648043, -185378.37241630227, 187500.0, 19950.965935106986, 6651.253301054633, 0.644, -0.712, 0.376, 192.0, 0.0, 0.0, 0.0, 0.0, 0.0, 0.0, 0.0, 0.0, 0.0, 1.6635873693933315E9, 0.0, 2022-09-19 16:36:09.393
63.0, 29771.763655157527, 7241.607575608204, 3119.4765114160195, -1576.31207422162, -185465.4324609557, 187500.0, 19960.7112956895, 6655.477780756686, 0.644, -0.712, 0.376, 192.0, 0.0, 0.0, 0.0, 0.0, 0.0, 0.0, 0.0, 0.0, 0.0, 1.6635873693984683E9, 0.0, 2022-09-19 16:36:09.398
64.0, 29791.81316993394, 7259.019584538888, 3134.0945522897905, -1581.6764928908938, -185481.54806870795, 187500.0, 19968.13207484866, 6657.780010435583, 0.644, -0.712, 0.376, 192.0, 0.0, 0.0, 0.0, 0.0, 0.0, 0.0, 0.0, 0.0, 0.0, 1.6635873694024417E9, 0.0, 2022-09-19 16:36:09.402
65.0, 29786.40404777575, 7253.990442036444, 3127.098456275279, -1580.3800917124859, -185348.93516885463, 187500.0, 19965.338106791747, 6648.660498697817, 0.63, -0.716, 0.372, 192.0, 19.0, 176.0, 233.0, 160.0, 11.0, 160.0, 0.0, 0.0, 0.0, 1.6635873694063582E9, 0.0, 2022-09-19 16:36:09.406
66.0, 29768.410893489232, 7241.160540719097, 3117.017819525936, -1575.730928865782, -185341.33557573982, 187500.0, 19960.867757900687, 6643.519597473097, 0.63, -0.716, 0.372, 192.0, 0.0, 0.0, 0.0, 0.0, 0.0, 0.0, 0.0, 0.0, 0.0, 1.6635873694093924E9, 0.0, 2022-09-19 16:36:09.409
67.0, 29762.152405041747, 7236.5113778723935, 3117.4201509261316, -1573.3616439535194, -185402.04291368043, 187500.0, 19962.342973034738, 6647.02882135258, 0.63, -0.716, 0.372, 192.0, 0.0, 0.0, 0.0, 0.0, 0.0, 0.0, 0.0, 0.0, 0.0, 1.6635873694133835E9, 0.0, 2022-09-19 16:36:09.413
68.0, 29770.60136444585, 7244.178026220564, 3125.131502763212, -1572.244056730754, -185438.43155365367, 187500.0, 19970.47900801647, 6653.019088866603, 0.63, -0.716, 0.372, 192.0, 0.0, 0.0, 0.0, 0.0, 0.0, 0.0, 0.0, 0.0, 0.0, 1.663587369417411E9, 0.0, 2022-09-19 16:36:09.417
69.0, 29786.1805303312, 7260.070116528287, 3140.6436134151954, -1571.081766019078, -185487.06894958843, 187500.0, 19980.023202898887, 6655.902463901337, 0.63, -0.716, 0.372, 192.0, 0.0, 0.0, 0.0, 0.0, 0.0, 0.0, 0.0, 0.0, 0.0, 1.663587369421416E9, 0.0, 2022-09-19 16:36:09.421
70.0, 29784.41474251923, 7264.182837508063, 3140.777723881927, -1573.2722369756982, -185386.73196872856, 187500.0, 19973.7647144514, 6652.750867933139, 0.63, -0.716, 0.372, 192.0, 0.0, 0.0, 0.0, 0.0, 0.0, 0.0, 0.0, 0.0, 0.0, 1.663587369426374E9, 0.0, 2022-09-19 16:36:09.426
71.0, 29761.146576541258, 7245.295613443329, 3125.0197440409356, -1574.6580451319273, -185323.27536621992, 187500.0, 19962.52178699038, 6645.17362656279, 0.63, -0.716, 0.372, 192.0, 0.0, 0.0, 0.0, 0.0, 0.0, 0.0, 0.0, 0.0, 0.0, 1.6635873694304912E9, 0.0, 2022-09-19 16:36:09.430
72.0, 29754.3739979713, 7239.215938951485, 3123.0974940177794, -1575.149783509944, -185388.74362572952, 187500.0, 19965.159292836106, 6642.2678997836, 0.63, -0.716, 0.372, 192.0, 0.0, 0.0, 0.0, 0.0, 0.0, 0.0, 0.0, 0.0, 0.0, 1.6635873694344711E9, 0.0, 2022-09-19 16:36:09.434
73.0, 29762.3759224863, 7246.5473111328265, 3128.7077818760613, -1573.8757340759914, -185438.20803620914, 187500.0, 19971.261319072404, 6646.604138207929, 0.63, -0.716, 0.372, 192.0, 0.0, 0.0, 0.0, 0.0, 0.0, 0.0, 0.0, 0.0, 0.0, 1.6635873694375055E9, 0.0, 2022-09-19 16:36:09.437
74.0, 29780.36907677282, 7262.595863651737, 3140.62126167074, -1575.8203358436033, -185511.81233070046, 187500.0, 19977.497455775436, 6653.354365033432, 0.63, -0.716, 0.372, 192.0, 0.0, 0.0, 0.0, 0.0, 0.0, 0.0, 0.0, 0.0, 0.0, 1.6635873694424949E9, 0.0, 2022-09-19 16:36:09.442
75.0, 29784.95118438616, 7270.8660091002, 3141.3812209822204, -1580.5812574125837, -185423.18766393515, 187500.0, 19975.306984818817, 6649.398106264843, 0.632, -0.716, 0.374, 192.0, 19.0, 192.0, 233.0, 160.0, 11.0, 176.0, 0.0, 0.0, 0.0, 1.6635873694475124E9, 0.0, 2022-09-19 16:36:09.447
76.0, 29761.839480619372, 7256.2926717153405, 3120.9964300389806, -1581.9670655688126, -185343.39193622972, 187500.0, 19964.19816782453, 6638.4904549706525, 0.632, -0.716, 0.374, 192.0, 0.0, 0.0, 0.0, 0.0, 0.0, 0.0, 0.0, 0.0, 0.0, 1.6635873694505267E9, 0.0, 2022-09-19 16:36:09.450
77.0, 29754.686922393674, 7251.487046657449, 3115.117921247235, -1579.1730975118992, -185365.87779115175, 187500.0, 19966.05336261432, 6638.713972415206, 0.632, -0.716, 0.374, 192.0, 0.0, 0.0, 0.0, 0.0, 0.0, 0.0, 0.0, 0.0, 0.0, 1.6635873694535284E9, 0.0, 2022-09-19 16:36:09.453
78.0, 29755.089253793867, 7249.698907101025, 3117.464854415042, -1582.5258591801953, -185417.4656173546, 187500.0, 19974.167045851595, 6637.730495659172, 0.632, -0.716, 0.374, 192.0, 0.0, 0.0, 0.0, 0.0, 0.0, 0.0, 0.0, 0.0, 0.0, 1.6635873694584565E9, 0.0, 2022-09-19 16:36:09.458
79.0, 29767.025085333004, 7259.310157216806, 3127.098456275279, -1586.6162284155166, -185482.35273150835, 187500.0, 19982.70541223352, 6643.944280617748, 0.632, -0.716, 0.374, 192.0, 0.0, 0.0, 0.0, 0.0, 0.0, 0.0, 0.0, 0.0, 0.0, 1.6635873694625058E9, 0.0, 2022-09-19 16:36:09.462
80.0, 29764.879317865292, 7258.304328716318, 3121.1528922501675, -1593.0982343075557, -185376.07018662337, 187500.0, 19979.553816265325, 6637.484626470164, 0.632, -0.716, 0.374, 192.0, 0.0, 0.0, 0.0, 0.0, 0.0, 0.0, 0.0, 0.0, 0.0, 1.663587369465485E9, 0.0, 2022-09-19 16:36:09.465
81.0, 29739.286570463966, 7239.372401162673, 3101.7068745740503, -1593.053530818645, -185346.96821534255, 187500.0, 19970.18843533855, 6625.772312375583, 0.632, -0.716, 0.374, 192.0, 0.0, 0.0, 0.0, 0.0, 0.0, 0.0, 0.0, 0.0, 0.0, 1.6635873694694788E9, 0.0, 2022-09-19 16:36:09.469
82.0, 29727.730718580573, 7230.856386525201, 3098.7117408170393, -1592.5841441850835, -185374.1926400891, 187500.0, 19971.551891750325, 6624.967649575192, 0.632, -0.716, 0.374, 192.0, 0.0, 0.0, 0.0, 0.0, 0.0, 0.0, 0.0, 0.0, 0.0, 1.663587369473506E9, 0.0, 2022-09-19 16:36:09.473
83.0, 29732.066957004903, 7231.5269388588595, 3107.250107198967, -1596.5180512092177, -185410.760094018, 187500.0, 19977.720973219988, 6625.794664120039, 0.632, -0.716, 0.374, 192.0, 0.0, 0.0, 0.0, 0.0, 0.0, 0.0, 0.0, 0.0, 0.0, 1.66358736947751E9, 0.0, 2022-09-19 16:36:09.477
84.0, 29748.115509523814, 7242.389886664139, 3118.8283108268156, -1599.4461297328628, -185482.285676275, 187500.0, 19983.53242677837, 6631.583765933963, 0.632, -0.716, 0.374, 192.0, 0.0, 0.0, 0.0, 0.0, 0.0, 0.0, 0.0, 0.0, 0.0, 1.6635873694815452E9, 0.0, 2022-09-19 16:36:09.481
85.0, 29752.69761713715, 7247.106104744209, 3118.716552104539, -1597.9485628543573, -185387.93896292913, 187500.0, 19982.750115722432, 6632.410780478809, 0.634, -0.72, 0.378, 192.0, 19.0, 208.0, 233.0, 128.0, 11.0, 208.0, 0.0, 0.0, 0.0, 1.6635873694865289E9, 0.0, 2022-09-19 16:36:09.486
86.0, 29733.58687562786, 7233.2256714374635, 3105.0596362423466, -1597.6132866875275, -185328.81859884484, 187500.0, 19974.27880457387, 6621.927812329271, 0.634, -0.72, 0.378, 192.0, 0.0, 0.0, 0.0, 0.0, 0.0, 0.0, 0.0, 0.0, 0.0, 1.6635873694905045E9, 0.0, 2022-09-19 16:36:09.490
87.0, 29721.427526644176, 7222.09450269872, 3098.2200024390227, -1595.4898709642735, -185379.6017622473, 187500.0, 19978.63739474266, 6623.045399552036, 0.634, -0.72, 0.378, 192.0, 0.0, 0.0, 0.0, 0.0, 0.0, 0.0, 0.0, 0.0, 0.0, 1.663587369493522E9, 0.0, 2022-09-19 16:36:09.493
88.0, 29723.662701089706, 7221.870985254167, 3100.0304937399023, -1601.4130832449298, -185428.37326864878, 187500.0, 19986.05817390182, 6624.520614686086, 0.634, -0.72, 0.378, 192.0, 0.0, 0.0, 0.0, 0.0, 0.0, 0.0, 0.0, 0.0, 0.0, 1.6635873694975443E9, 0.0, 2022-09-19 16:36:09.497
89.0, 29741.20882048712, 7234.43266563805, 3114.5814793803074, -1602.3965600009633, -185465.8347923559, 187500.0, 20001.14560140915, 6628.141597287846, 0.634, -0.72, 0.378, 192.0, 0.0, 0.0, 0.0, 0.0, 0.0, 0.0, 0.0, 0.0, 0.0, 1.6635873695015283E9, 0.0, 2022-09-19 16:36:09.501
90.0, 29744.606285644328, 7238.43362789555, 3119.074180015824, -1602.5306704676952, -185392.6551810092, 187500.0, 20002.352595609736, 6620.542004173041, 0.634, -0.72, 0.378, 192.0, 0.0, 0.0, 0.0, 0.0, 0.0, 0.0, 0.0, 0.0, 0.0, 1.66358736950552E9, 0.0, 2022-09-19 16:36:09.505
91.0, 29725.942579024148, 7226.9448312455215, 3107.5406798768854, -1604.2070513018432, -185332.61839540224, 187500.0, 19993.076621660784, 6609.097911011924, 0.634, -0.72, 0.378, 192.0, 0.0, 0.0, 0.0, 0.0, 0.0, 0.0, 0.0, 0.0, 0.0, 1.6635873695095923E9, 0.0, 2022-09-19 16:36:09.509
92.0, 29715.772535296983, 7220.23930790893, 3102.176261207612, -1604.8329001465918, -185387.000189662, 187500.0, 19996.09410716225, 6605.342817943432, 0.634, -0.72, 0.378, 192.0, 0.0, 0.0, 0.0, 0.0, 0.0, 0.0, 0.0, 0.0, 0.0, 1.6635873695145783E9, 0.0, 2022-09-19 16:36:09.514
93.0, 29717.40421264222, 7218.7864445193345, 3104.1655664641344, -1603.0000571012565, -185411.3188876294, 187500.0, 20003.805458999333, 6610.662533123796, 0.634, -0.72, 0.378, 192.0, 0.0, 0.0, 0.0, 0.0, 0.0, 0.0, 0.0, 0.0, 0.0, 1.6635873695185688E9, 0.0, 2022-09-19 16:36:09.518
94.0, 29736.09027100686, 7231.9069185146, 3116.9954677814803, -1602.7765396567036, -185494.44502525867, 187500.0, 20014.8248690158, 6619.8267483504715, 0.634, -0.72, 0.378, 192.0, 0.0, 0.0, 0.0, 0.0, 0.0, 0.0, 0.0, 0.0, 0.0, 1.6635873695215273E9, 0.0, 2022-09-19 16:36:09.521
95.0, 29745.992093800556, 7240.24411919643, 3119.990601538492, -1602.2624495342316, -185424.08173371336, 187500.0, 20023.139717953174, 6618.753864616617, 0.638, -0.714, 0.374, 192.0, 19.0, 240.0, 233.0, 176.0, 11.0, 176.0, 0.0, 0.0, 0.0, 1.663587369526694E9, 0.0, 2022-09-19 16:36:09.526
96.0, 29728.915361036703, 7227.838901023734, 3107.3171624323327, -1598.3955977434634, -185336.3958402152, 187500.0, 20022.670331319612, 6608.472062167176, 0.638, -0.714, 0.374, 192.0, 0.0, 0.0, 0.0, 0.0, 0.0, 0.0, 0.0, 0.0, 0.0, 1.6635873695296192E9, 0.0, 2022-09-19 16:36:09.529
97.0, 29714.54318935194, 7215.076054939754, 3098.5776303503076, -1595.0428360751673, -185353.83020089034, 187500.0, 20023.83262203129, 6601.699483597217, 0.638, -0.714, 0.374, 192.0, 0.0, 0.0, 0.0, 0.0, 0.0, 0.0, 0.0, 0.0, 0.0, 1.6635873695356605E9, 0.0, 2022-09-19 16:36:09.535
98.0, 29719.125296965278, 7216.61832530717, 3103.0926827302796, -1595.6239814310052, -185434.22942569607, 187500.0, 20031.81219480183, 6602.772367331072, 0.638, -0.714, 0.374, 192.0, 0.0, 0.0, 0.0, 0.0, 0.0, 0.0, 0.0, 0.0, 0.0, 1.6635873695385609E9, 0.0, 2022-09-19 16:36:09.538
99.0, 29735.84440181785, 7227.682438812547, 3118.1577584931565, -1592.472385462807, -185493.10392059135, 187500.0, 20046.8325670758, 6612.45067268022, 0.638, -0.714, 0.374, 192.0, 0.0, 0.0, 0.0, 0.0, 0.0, 0.0, 0.0, 0.0, 0.0, 1.6635873695436656E9, 0.0, 2022-09-19 16:36:09.543
100.0, 29749.188393257667, 7238.701848829013, 3128.1936917535895, -1588.8514028610473, -185446.8134578244, 187500.0, 20051.258212477947, 6618.038608794047, 0.638, -0.714, 0.374, 192.0, 0.0, 0.0, 0.0, 0.0, 0.0, 0.0, 0.0, 0.0, 0.0, 1.6635873695466003E9, 0.0, 2022-09-19 16:36:09.546
101.0, 29730.92701803768, 7226.676610312058, 3114.3803136802094, -1588.0243883162009, -185359.68635793764, 187500.0, 20044.21741297453, 6608.919097056281, 0.638, -0.714, 0.374, 192.0, 0.0, 0.0, 0.0, 0.0, 0.0, 0.0, 0.0, 0.0, 0.0, 1.6635873695506227E9, 0.0, 2022-09-19 16:36:09.550
102.0, 29719.929959765668, 7216.484214840439, 3105.394912409176, -1588.8066993721366, -185361.42979400515, 187500.0, 20041.043465261875, 6606.482756910653, 0.638, -0.714, 0.374, 192.0, 0.0, 0.0, 0.0, 0.0, 0.0, 0.0, 0.0, 0.0, 0.0, 1.663587369553633E9, 0.0, 2022-09-19 16:36:09.553
103.0, 29721.87456153328, 7216.215993906974, 3110.9604967785476, -1590.4160249729186, -185445.00296652355, 187500.0, 20048.397189187668, 6610.8413470794385, 0.638, -0.714, 0.374, 192.0, 0.0, 0.0, 0.0, 0.0, 0.0, 0.0, 0.0, 0.0, 0.0, 1.663587369557748E9, 0.0, 2022-09-19 16:36:09.557
104.0, 29739.59949488634, 7231.6386975811365, 3127.0537527863685, -1586.571524926606, -185525.9833366851, 187500.0, 20061.763532371944, 6626.331105986966, 0.638, -0.714, 0.374, 192.0, 0.0, 0.0, 0.0, 0.0, 0.0, 0.0, 0.0, 0.0, 0.0, 1.6635873695616364E9, 0.0, 2022-09-19 16:36:09.561
105.0, 29756.497413694553, 7250.257700712407, 3137.0002790689805, -1587.4655947048182, -185445.38294617928, 187500.0, 20069.49723595348, 6629.661515910807, 0.632, -0.714, 0.372, 192.0, 19.0, 192.0, 233.0, 176.0, 11.0, 160.0, 0.0, 0.0, 0.0, 1.6635873695656552E9, 0.0, 2022-09-19 16:36:09.565
106.0, 29738.817183830404, 7238.612441851193, 3121.264650972444, -1587.8008708716477, -185361.31803528286, 187500.0, 20062.836416105798, 6616.049303537525, 0.632, -0.714, 0.372, 192.0, 0.0, 0.0, 0.0, 0.0, 0.0, 0.0, 0.0, 0.0, 0.0, 1.6635873695706165E9, 0.0, 2022-09-19 16:36:09.570
107.0, 29725.517895879497, 7229.358819646695, 3113.396836924176, -1585.7221586373043, -185407.02735269396, 187500.0, 20066.010363818452, 6613.0765215249685, 0.632, -0.714, 0.372, 192.0, 0.0, 0.0, 0.0, 0.0, 0.0, 0.0, 0.0, 0.0, 0.0, 1.6635873695736692E9, 0.0, 2022-09-19 16:36:09.573
108.0, 29724.847343545836, 7227.771845790368, 3112.6368776126956, -1589.5443069391617, -185425.37813489177, 187500.0, 20076.31451801235, 6614.730550614661, 0.632, -0.714, 0.372, 192.0, 0.0, 0.0, 0.0, 0.0, 0.0, 0.0, 0.0, 0.0, 0.0, 1.6635873695766692E9, 0.0, 2022-09-19 16:36:09.576
109.0, 29739.957122797627, 7241.696982586024, 3123.276307973422, -1595.0428360751673, -185498.44598751617, 187500.0, 20089.3902885187, 6621.59253616244, 0.632, -0.714, 0.372, 192.0, 0.0, 0.0, 0.0, 0.0, 0.0, 0.0, 0.0, 0.0, 0.0, 1.6635873695816379E9, 0.0, 2022-09-19 16:36:09.581
110.0, 29752.13882352577, 7254.43747692555, 3128.8642440872486, -1597.3003622651534, -185447.48401015808, 187500.0, 20094.464134510057, 6623.917117585793, 0.632, -0.714, 0.372, 192.0, 0.0, 0.0, 0.0, 0.0, 0.0, 0.0, 0.0, 0.0, 0.0, 1.663587369585736E9, 0.0, 2022-09-19 16:36:09.585
111.0, 29731.865791304805, 7244.781523320857, 3114.2462032134777, -1592.986475585279, -185354.65721543517, 187500.0, 20088.02683210693, 6620.094969283935, 0.632, -0.714, 0.372, 192.0, 0.0, 0.0, 0.0, 0.0, 0.0, 0.0, 0.0, 0.0, 0.0, 1.6635873695898132E9, 0.0, 2022-09-19 16:36:09.589
112.0, 29714.92316900768, 7234.723238315969, 3106.646610098673, -1591.9359435958795, -185393.23632636503, 187500.0, 20089.055012351873, 6613.612963391896, 0.632, -0.714, 0.372, 192.0, 0.0, 0.0, 0.0, 0.0, 0.0, 0.0, 0.0, 0.0, 0.0, 1.6635873695936618E9, 0.0, 2022-09-19 16:36:09.593
113.0, 29714.811410285405, 7233.650354582114, 3110.7146275895393, -1584.8504406035472, -185407.85436723882, 187500.0, 20100.387346790714, 6619.558527417008, 0.632, -0.714, 0.372, 192.0, 0.0, 0.0, 0.0, 0.0, 0.0, 0.0, 0.0, 0.0, 0.0, 1.6635873695978491E9, 0.0, 2022-09-19 16:36:09.597
114.0, 29725.16026796821, 7236.712543572491, 3119.990601538492, -1580.7377196237708, -185462.21380975412, 187500.0, 20110.624445751244, 6629.616812421896, 0.632, -0.714, 0.372, 192.0, 0.0, 0.0, 0.0, 0.0, 0.0, 0.0, 0.0, 0.0, 0.0, 1.6635873696007605E9, 0.0, 2022-09-19 16:36:09.600
115.0, 29741.678207120684, 7252.112895502198, 3126.874938830726, -1586.4150627154188, -185491.82987115742, 187500.0, 20115.541829531412, 6631.606117678419, 0.636, -0.716, 0.376, 192.0, 19.0, 224.0, 233.0, 160.0, 11.0, 192.0, 0.0, 0.0, 0.0, 1.6635873696047423E9, 0.0, 2022-09-19 16:36:09.604
116.0, 29723.75210806753, 7245.250909954419, 3112.212194468045, -1590.3489697395528, -185360.06633759337, 187500.0, 20110.490335284514, 6620.83257685096, 0.636, -0.716, 0.376, 192.0, 0.0, 0.0, 0.0, 0.0, 0.0, 0.0, 0.0, 0.0, 0.0, 1.6635873696088464E9, 0.0, 2022-09-19 16:36:09.608
117.0, 29700.215721156088, 7229.671744069069, 3099.069368728324, -1590.147804039455, -185357.67470093665, 187500.0, 20109.775079461942, 6615.69167562624, 0.636, -0.716, 0.376, 192.0, 0.0, 0.0, 0.0, 0.0, 0.0, 0.0, 0.0, 0.0, 0.0, 1.6635873696137393E9, 0.0, 2022-09-19 16:36:09.613
118.0, 29698.941671722136, 7231.214014436486, 3102.667999585629, -1590.7065976508377, -185433.22359719558, 187500.0, 20118.35814933278, 6621.525480929075, 0.636, -0.716, 0.376, 192.0, 0.0, 0.0, 0.0, 0.0, 0.0, 0.0, 0.0, 0.0, 0.0, 1.663587369617728E9, 0.0, 2022-09-19 16:36:09.617
119.0, 29711.816276528392, 7244.334488431751, 3116.6154881257403, -1590.4607284618294, -185493.08156884692, 187500.0, 20128.483489571034, 6626.800492620528, 0.636, -0.716, 0.376, 192.0, 0.0, 0.0, 0.0, 0.0, 0.0, 0.0, 0.0, 0.0, 0.0, 1.6635873696217492E9, 0.0, 2022-09-19 16:36:09.621
120.0, 29726.59077961335, 7258.751363605424, 3126.5843661528074, -1588.9408098388685, -185453.4742776721, 187500.0, 20135.479585585545, 6628.588632176952, 0.636, -0.716, 0.376, 192.0, 0.0, 0.0, 0.0, 0.0, 0.0, 0.0, 0.0, 0.0, 0.0, 1.663587369625798E9, 0.0, 2022-09-19 16:36:09.625
121.0, 29709.849323016326, 7246.659069855103, 3113.530947390908, -1585.7221586373043, -185347.1023258093, 187500.0, 20134.78668150743, 6621.011390806603, 0.636, -0.716, 0.376, 192.0, 0.0, 0.0, 0.0, 0.0, 0.0, 0.0, 0.0, 0.0, 0.0, 1.6635873696297276E9, 0.0, 2022-09-19 16:36:09.629
122.0, 29690.984450696047, 7234.1644447045865, 3104.3220286753212, -1582.436452202374, -185385.07793963887, 187500.0, 20136.485414086033, 6617.971553560681, 0.636, -0.716, 0.376, 192.0, 0.0, 0.0, 0.0, 0.0, 0.0, 0.0, 0.0, 0.0, 0.0, 1.6635873696327293E9, 0.0, 2022-09-19 16:36:09.632
123.0, 29686.469398316076, 7229.157653946598, 3106.0878164872906, -1583.2411150027651, -185404.7251230151, 187500.0, 20143.74973103401, 6616.876318082371, 0.636, -0.716, 0.376, 192.0, 0.0, 0.0, 0.0, 0.0, 0.0, 0.0, 0.0, 0.0, 0.0, 1.6635873696367233E9, 0.0, 2022-09-19 16:36:09.636
124.0, 29699.411058355698, 7237.964241261989, 3117.4201509261316, -1587.376187726997, -185487.42657749972, 187500.0, 20155.216175939582, 6619.916155328293, 0.636, -0.716, 0.376, 192.0, 0.0, 0.0, 0.0, 0.0, 0.0, 0.0, 0.0, 0.0, 0.0, 1.6635873696417751E9, 0.0, 2022-09-19 16:36:09.641
125.0, 29714.69965156313, 7251.151770490619, 3122.941031806592, -1592.5841441850835, -185457.58699865188, 187500.0, 20160.13355971975, 6623.537137930052, 0.636, -0.716, 0.376, 192.0, 0.0, 0.0, 0.0, 0.0, 0.0, 0.0, 0.0, 0.0, 0.0, 1.6635873696458173E9, 0.0, 2022-09-19 16:36:09.645
126.0, 29704.708421791605, 7244.267433198385, 3112.100435745768, -1595.0875395640778, -185362.36856727226, 187500.0, 20156.534928862446, 6616.1834140042565, 0.626, -0.718, 0.372, 192.0, 19.0, 144.0, 233.0, 144.0, 11.0, 160.0, 0.0, 0.0, 0.0, 1.663587369649776E9, 0.0, 2022-09-19 16:36:09.649
127.0, 29685.955308193603, 7228.129473701653, 3099.426996639609, -1590.4607284618294, -185363.7990789174, 187500.0, 20156.311411417893, 6613.612963391896, 0.626, -0.718, 0.372, 192.0, 0.0, 0.0, 0.0, 0.0, 0.0, 0.0, 0.0, 0.0, 0.0, 1.66358736965381E9, 0.0, 2022-09-19 16:36:09.653
128.0, 29684.703610504104, 7225.000229477911, 3099.8293280398048, -1587.8679261050138, -185430.25081518304, 187500.0, 20166.816731311887, 6616.496338426631, 0.626, -0.718, 0.372, 192.0, 0.0, 0.0, 0.0, 0.0, 0.0, 0.0, 0.0, 0.0, 0.0, 1.6635873696578288E9, 0.0, 2022-09-19 16:36:09.657
129.0, 29695.34304086483, 7229.805854535802, 3109.4405781555865, -1587.3538359825416, -185472.8308883704, 187500.0, 20180.89833031873, 6619.9385070727485, 0.626, -0.718, 0.372, 192.0, 0.0, 0.0, 0.0, 0.0, 0.0, 0.0, 0.0, 0.0, 0.0, 1.6635873696608691E9, 0.0, 2022-09-19 16:36:09.660
130.0, 29714.051450973926, 7244.714468087491, 3123.566880651341, -1585.8786208484914, -185488.09712983336, 187500.0, 20192.968272324597, 6626.666382153796, 0.626, -0.718, 0.372, 192.0, 0.0, 0.0, 0.0, 0.0, 0.0, 0.0, 0.0, 0.0, 0.0, 1.663587369664832E9, 0.0, 2022-09-19 16:36:09.664
131.0, 29701.467418845587, 7238.143055217631, 3113.083912501802, -1587.890277849469, -185362.21210506107, 187500.0, 20188.743792622543, 6621.726646629173, 0.626, -0.718, 0.372, 192.0, 0.0, 0.0, 0.0, 0.0, 0.0, 0.0, 0.0, 0.0, 0.0, 1.6635873696697955E9, 0.0, 2022-09-19 16:36:09.669
132.0, 29681.931994191647, 7224.106159699698, 3103.785586808394, -1579.016635300712, -185361.8991806387, 187500.0, 20188.967310067095, 6623.69360014124, 0.626, -0.718, 0.372, 192.0, 0.0, 0.0, 0.0, 0.0, 0.0, 0.0, 0.0, 0.0, 0.0, 1.663587369673804E9, 0.0, 2022-09-19 16:36:09.673
133.0, 29676.388761566734, 7219.747569530913, 3101.103377473757, -1576.759109110726, -185404.6133642928, 187500.0, 20192.7671066245, 6621.927812329271, 0.626, -0.718, 0.372, 192.0, 0.0, 0.0, 0.0, 0.0, 0.0, 0.0, 0.0, 0.0, 0.0, 1.6635873696778076E9, 0.0, 2022-09-19 16:36:09.677
134.0, 29685.3071076044, 7224.463787610983, 3108.255935699455, -1574.9039143209357, -185494.55678398095, 187500.0, 20205.395842241745, 6624.811187364005, 0.626, -0.718, 0.372, 192.0, 0.0, 0.0, 0.0, 0.0, 0.0, 0.0, 0.0, 0.0, 0.0, 1.6635873696818044E9, 0.0, 2022-09-19 16:36:09.681
135.0, 29705.714250292094, 7239.7970843073235, 3122.3151829618437, -1574.8145073431144, -185512.01349640056, 187500.0, 20217.06345284742, 6631.784931634061, 0.626, -0.718, 0.372, 192.0, 0.0, 0.0, 0.0, 0.0, 0.0, 0.0, 0.0, 0.0, 0.0, 1.6635873696848629E9, 0.0, 2022-09-19 16:36:09.684
136.0, 29697.35469786581, 7234.38796214914, 3112.0557322568575, -1576.9155713219134, -185371.8010034324, 187500.0, 20214.649464446244, 6628.722742643684, 0.634, -0.714, 0.364, 192.0, 19.0, 208.0, 233.0, 176.0, 11.0, 96.0, 0.0, 0.0, 0.0, 1.663587369688831E9, 0.0, 2022-09-19 16:36:09.688
137.0, 29674.734732477038, 7217.780616018846, 3098.197650694567, -1577.40730969993, -185342.36375598476, 187500.0, 20214.38124351278, 6623.514786185598, 0.634, -0.714, 0.364, 192.0, 0.0, 0.0, 0.0, 0.0, 0.0, 0.0, 0.0, 0.0, 0.0, 1.663587369692871E9, 0.0, 2022-09-19 16:36:09.692
138.0, 29669.88440393024, 7215.3219241287625, 3100.7010460735614, -1574.9039143209357, -185436.17402746368, 187500.0, 20223.165479083716, 6626.040533309047, 0.634, -0.714, 0.364, 192.0, 0.0, 0.0, 0.0, 0.0, 0.0, 0.0, 0.0, 0.0, 0.0, 1.6635873696988423E9, 0.0, 2022-09-19 16:36:09.698
139.0, 29678.28865984543, 7222.385075376639, 3108.7029705885616, -1575.0603765321227, -185462.0349957985, 187500.0, 20236.442415290167, 6630.309716500011, 0.634, -0.714, 0.364, 192.0, 0.0, 0.0, 0.0, 0.0, 0.0, 0.0, 0.0, 0.0, 0.0, 1.663587369701876E9, 0.0, 2022-09-19 16:36:09.701
140.0, 29695.34304086483, 7235.796122049824, 3116.5037294034637, -1575.8203358436033, -185496.92606889323, 187500.0, 20248.221784618116, 6632.723704901184, 0.634, -0.714, 0.364, 192.0, 0.0, 0.0, 0.0, 0.0, 0.0, 0.0, 0.0, 0.0, 0.0, 1.6635873697058876E9, 0.0, 2022-09-19 16:36:09.705
141.0, 29690.000973940012, 7234.589127849237, 3107.4736246435195, -1578.4354899448742, -185372.2480383215, 187500.0, 20244.936078183186, 6625.705257142217, 0.634, -0.714, 0.364, 192.0, 0.0, 0.0, 0.0, 0.0, 0.0, 0.0, 0.0, 0.0, 0.0, 1.66358736970985E9, 0.0, 2022-09-19 16:36:09.709
142.0, 29661.3013340594, 7212.036217693832, 3091.268609913422, -1577.0943852775558, -185338.6533664052, 187500.0, 20245.29370609447, 6617.636277393852, 0.634, -0.714, 0.364, 192.0, 0.0, 0.0, 0.0, 0.0, 0.0, 0.0, 0.0, 0.0, 0.0, 1.6635873697129128E9, 0.0, 2022-09-19 16:36:09.712
143.0, 29656.361598534775, 7206.940019958022, 3092.1179762027236, -1575.9097428214245, -185428.14975120424, 187500.0, 20254.43556957669, 6620.07261753948, 0.634, -0.714, 0.364, 192.0, 0.0, 0.0, 0.0, 0.0, 0.0, 0.0, 0.0, 0.0, 0.0, 1.6635873697168767E9, 0.0, 2022-09-19 16:36:09.716
144.0, 29663.827081182848, 7212.215031649474, 3101.595115851774, -1574.5239346651954, -185470.6851209027, 187500.0, 20268.517168583534, 6625.392332719843, 0.634, -0.714, 0.364, 192.0, 0.0, 0.0, 0.0, 0.0, 0.0, 0.0, 0.0, 0.0, 0.0, 1.6635873697210066E9, 0.0, 2022-09-19 16:36:09.721
145.0, 29676.187595866635, 7220.6639910535805, 3114.2462032134777, -1576.088556777067, -185488.34299902237, 187500.0, 20285.90682576976, 6628.678039154773, 0.634, -0.714, 0.364, 192.0, 0.0, 0.0, 0.0, 0.0, 0.0, 0.0, 0.0, 0.0, 0.0, 1.663587369724907E9, 0.0, 2022-09-19 16:36:09.724
146.0, 29668.565651007375, 7215.031351450843, 3110.0217235114246, -1575.9991497992457, -185379.244134336, 187500.0, 20291.45005839468, 6625.4593879532085, 0.638, -0.714, 0.368, 192.0, 19.0, 240.0, 233.0, 176.0, 11.0, 128.0, 0.0, 0.0, 0.0, 1.6635873697299328E9, 0.0, 2022-09-19 16:36:09.729
147.0, 29638.904886115182, 7189.282141838329, 3090.37454013521, -1579.0389870451675, -185331.63491864622, 187500.0, 20288.454924637666, 6610.215498234689, 0.638, -0.714, 0.368, 192.0, 0.0, 0.0, 0.0, 0.0, 0.0, 0.0, 0.0, 0.0, 0.0, 1.6635873697339091E9, 0.0, 2022-09-19 16:36:09.733
148.0, 29627.70666214307, 7176.787516687813, 3086.3512261332544, -1578.279027733687, -185397.259640367, 187500.0, 20294.512247385057, 6608.136786000346, 0.638, -0.714, 0.368, 192.0, 0.0, 0.0, 0.0, 0.0, 0.0, 0.0, 0.0, 0.0, 0.0, 1.6635873697369483E9, 0.0, 2022-09-19 16:36:09.736
149.0, 29635.038034324414, 7180.296740567296, 3098.175298950112, -1572.1770014973881, -185475.6248564273, 187500.0, 20309.867895825853, 6624.230042008167, 0.638, -0.714, 0.368, 192.0, 0.0, 0.0, 0.0, 0.0, 0.0, 0.0, 0.0, 0.0, 0.0, 1.663587369740928E9, 0.0, 2022-09-19 16:36:09.740
150.0, 29654.528755489442, 7195.495926796905, 3116.168453236634, -1568.8465915735474, -185503.96686839664, 187500.0, 20327.39166347881, 6635.875300869382, 0.638, -0.714, 0.368, 192.0, 0.0, 0.0, 0.0, 0.0, 0.0, 0.0, 0.0, 0.0, 0.0, 1.6635873697449224E9, 0.0, 2022-09-19 16:36:09.744
151.0, 29650.17016532066, 7191.092633139209, 3108.0547699993576, -1570.9923590412568, -185376.4501662791, 187500.0, 20325.849393111395, 6630.3320682444655, 0.638, -0.714, 0.368, 192.0, 0.0, 0.0, 0.0, 0.0, 0.0, 0.0, 0.0, 0.0, 0.0, 1.6635873697489326E9, 0.0, 2022-09-19 16:36:09.748
152.0, 29628.444269710097, 7172.048946863288, 3091.2015546800562, -1568.153687495433, -185333.87009309174, 187500.0, 20325.134137288827, 6625.4593879532085, 0.638, -0.714, 0.368, 192.0, 0.0, 0.0, 0.0, 0.0, 0.0, 0.0, 0.0, 0.0, 0.0, 1.6635873697539485E9, 0.0, 2022-09-19 16:36:09.753
153.0, 29614.56383640335, 7158.436734490006, 3085.792432521872, -1566.5220101501955, -185381.36755005928, 187500.0, 20330.275038513548, 6621.145501273335, 0.638, -0.714, 0.368, 192.0, 0.0, 0.0, 0.0, 0.0, 0.0, 0.0, 0.0, 0.0, 0.0, 1.6635873697580175E9, 0.0, 2022-09-19 16:36:09.758
154.0, 29612.28395846891, 7152.759391398357, 3090.37454013521, -1569.4947921627513, -185423.79116103545, 187500.0, 20340.668599685265, 6622.196033262734, 0.638, -0.714, 0.368, 192.0, 0.0, 0.0, 0.0, 0.0, 0.0, 0.0, 0.0, 0.0, 0.0, 1.663587369761979E9, 0.0, 2022-09-19 16:36:09.761
155.0, 29621.38111846222, 7155.061621077254, 3097.9741332500143, -1576.736757366271, -185447.8639898138, 187500.0, 20350.5033672456, 6619.200899505723, 0.638, -0.714, 0.368, 192.0, 0.0, 0.0, 0.0, 0.0, 0.0, 0.0, 0.0, 0.0, 0.0, 1.6635873697649808E9, 0.0, 2022-09-19 16:36:09.764
156.0, 29613.736821858507, 7145.919757595034, 3093.1238047032125, -1580.6483126459495, -185392.1187391423, 187500.0, 20349.4528352562, 6610.2602017236, 0.636, -0.706, 0.37, 192.0, 19.0, 224.0, 233.0, 240.0, 11.0, 144.0, 0.0, 0.0, 0.0, 1.6635873697699766E9, 0.0, 2022-09-19 16:36:09.769
157.0, 29590.5357111139, 7124.88676606259, 3077.365824862221, -1576.2897224771646, -185349.89629386622, 187500.0, 20346.144777076814, 6607.935620300248, 0.636, -0.706, 0.37, 192.0, 0.0, 0.0, 0.0, 0.0, 0.0, 0.0, 0.0, 0.0, 0.0, 1.6635873697740338E9, 0.0, 2022-09-19 16:36:09.774
158.0, 29575.247117906467, 7105.59721059766, 3070.3920805921653, -1576.7144056218156, -185353.94195961262, 187500.0, 20351.397437023814, 6602.839422564438, 0.636, -0.706, 0.37, 192.0, 0.0, 0.0, 0.0, 0.0, 0.0, 0.0, 0.0, 0.0, 0.0, 1.6635873697789848E9, 0.0, 2022-09-19 16:36:09.778
159.0, 29577.504644096454, 7101.395082640062, 3077.1870109065785, -1575.7532806102372, -185406.9155939717, 187500.0, 20364.473207530165, 6605.365169687888, 0.636, -0.706, 0.37, 192.0, 0.0, 0.0, 0.0, 0.0, 0.0, 0.0, 0.0, 0.0, 0.0, 1.6635873697821147E9, 0.0, 2022-09-19 16:36:09.782
160.0, 29594.491969882485, 7109.866393788624, 3094.7331303039946, -1569.5171439072067, -185479.6258186848, 187500.0, 20382.354603094413, 6619.02208555008, 0.636, -0.706, 0.37, 192.0, 0.0, 0.0, 0.0, 0.0, 0.0, 0.0, 0.0, 0.0, 0.0, 1.6635873697860343E9, 0.0, 2022-09-19 16:36:09.786
161.0, 29600.750458329974, 7108.681751332492, 3095.3813308931985, -1565.5161816497066, -185375.17611684516, 187500.0, 20384.94740545123, 6621.7042948847175, 0.636, -0.706, 0.37, 192.0, 0.0, 0.0, 0.0, 0.0, 0.0, 0.0, 0.0, 0.0, 0.0, 1.663587369790039E9, 0.0, 2022-09-19 16:36:09.790
162.0, 29569.882699237194, 7080.1385736630655, 3075.1306504166905, -1565.7620508387151, -185320.70491560758, 187500.0, 20379.582986781956, 6614.9540680592145, 0.636, -0.706, 0.37, 192.0, 0.0, 0.0, 0.0, 0.0, 0.0, 0.0, 0.0, 0.0, 0.0, 1.6635873697930777E9, 0.0, 2022-09-19 16:36:09.793
163.0, 29552.828318217795, 7061.899550187534, 3067.821629979805, -1567.5501903951397, -185353.6513869347, 187500.0, 20382.08638216095, 6611.936582557748, 0.636, -0.706, 0.37, 192.0, 0.0, 0.0, 0.0, 0.0, 0.0, 0.0, 0.0, 0.0, 0.0, 1.6635873697970808E9, 0.0, 2022-09-19 16:36:09.797
164.0, 29555.46582406352, 7061.184294364964, 3074.8400777387715, -1570.2100479853211, -185449.2721497145, 187500.0, 20394.08926893345, 6610.394312190332, 0.636, -0.706, 0.37, 192.0, 0.0, 0.0, 0.0, 0.0, 0.0, 0.0, 0.0, 0.0, 0.0, 1.663587369801052E9, 0.0, 2022-09-19 16:36:09.801
165.0, 29566.90991722464, 7065.900512445035, 3089.033435467891, -1567.6843008618714, -185480.74340590756, 187500.0, 20409.556676096523, 6616.608097148907, 0.636, -0.706, 0.37, 192.0, 0.0, 0.0, 0.0, 0.0, 0.0, 0.0, 0.0, 0.0, 0.0, 1.6635873698050141E9, 0.0, 2022-09-19 16:36:09.805
166.0, 29568.631001547696, 7065.140553133554, 3091.8274035248046, -1566.6114171280167, -185394.0633409099, 187500.0, 20413.222362187193, 6616.742207615639, 0.634, -0.706, 0.374, 192.0, 19.0, 208.0, 233.0, 240.0, 11.0, 176.0, 0.0, 0.0, 0.0, 1.6635873698091123E9, 0.0, 2022-09-19 16:36:09.809
167.0, 29539.730195966986, 7038.586680720649, 3073.65543528264, -1566.4549549168296, -185344.1071920523, 187500.0, 20407.008577228615, 6610.237849979145, 0.634, -0.706, 0.374, 192.0, 0.0, 0.0, 0.0, 0.0, 0.0, 0.0, 0.0, 0.0, 0.0, 1.6635873698141296E9, 0.0, 2022-09-19 16:36:09.814
168.0, 29521.84880040274, 7019.855918867102, 3067.7769264908943, -1561.314053692109, -185364.67079695116, 187500.0, 20413.42352788729, 6613.322390713977, 0.634, -0.706, 0.374, 192.0, 0.0, 0.0, 0.0, 0.0, 0.0, 0.0, 0.0, 0.0, 0.0, 1.6635873698181093E9, 0.0, 2022-09-19 16:36:09.818
