%OpenBCI Raw EEG Data
%Number of channels = 8
%Sample Rate = 250 Hz
%Board = OpenBCI_GUI$BoardCytonSerial
Sample Index, EXG Channel 0, EXG Channel 1, EXG Channel 2, EXG Channel 3, EXG Channel 4, EXG Channel 5, EXG Channel 6, EXG Channel 7, Accel Channel 0, Accel Channel 1, Accel Channel 2, Other, Other, Other, Other, Other, Other, Other, Analog Channel 0, Analog Channel 1, Analog Channel 2, Timestamp, Other, Timestamp (Formatted)
93.0, 23390.541778867457, 63172.28831914524, 11557.818836905819, 140535.1851028425, 187500.0, 187500.0, 10596.827935794347, 19886.92818724253, 0.0, 0.0, 0.0, 192.0, 0.0, 0.0, 0.0, 0.0, 0.0, 0.0, 0.0, 0.0, 0.0, 1.6635890931711292E9, 0.0, 2022-09-19 17:04:53.171
94.0, 23418.727328625602, 63167.75091502082, 11565.5301887429, 140528.43487601698, 187500.0, 187500.0, 10584.065089710366, 19894.348966401692, 0.0, 0.0, 0.0, 192.0, 0.0, 0.0, 0.0, 0.0, 0.0, 0.0, 0.0, 0.0, 0.0, 1.663589093171174E9, 0.0, 2022-09-19 17:04:53.171
95.0, 23417.00624430254, 63140.727655974355, 11563.00444161945, 140500.74106463685, 187500.0, 187500.0, 10567.033060435422, 19884.08951569671, 0.0, 0.0, 0.0, 192.0, 0.0, 0.0, 0.0, 0.0, 0.0, 0.0, 0.0, 0.0, 0.0, 1.6635890931712008E9, 0.0, 2022-09-19 17:04:53.171
0.0, 0.0, 0.0, 0.0, 0.0, 0.0, 0.0, 0.0, 0.0, 0.64, -0.65, 0.452, 192.0, 20.0, 0.0, 235.0, 176.0, 14.0, 32.0, 0.0, 0.0, 0.0, 1.6635890932445228E9, 0.0, 2022-09-19 17:04:53.244
1.0, 23155.691999875547, 63288.96442520195, 10830.068389185475, 145004.17053749211, 187500.0, 187500.0, 11105.084252963574, 19688.779972646236, 0.64, -0.65, 0.452, 192.0, 0.0, 0.0, 0.0, 0.0, 0.0, 0.0, 0.0, 0.0, 0.0, 1.6635890932615547E9, 0.0, 2022-09-19 17:04:53.261
2.0, 23150.081712017265, 63301.97314047494, 10820.345380347417, 145019.50383418845, 187500.0, 187500.0, 11116.148366468951, 19686.723612156347, 0.64, -0.65, 0.452, 192.0, 0.0, 0.0, 0.0, 0.0, 0.0, 0.0, 0.0, 0.0, 0.0, 1.6635890932645652E9, 0.0, 2022-09-19 17:04:53.264
3.0, 23144.516127647894, 63313.50664061387, 10820.770063492067, 145031.50672096096, 187500.0, 187500.0, 11115.47781413529, 19689.405821490982, 0.64, -0.65, 0.452, 192.0, 0.0, 0.0, 0.0, 0.0, 0.0, 0.0, 0.0, 0.0, 0.0, 1.6635890932685592E9, 0.0, 2022-09-19 17:04:53.268
4.0, 23124.24309542693, 63293.07714618173, 10816.456176812193, 145014.07236028582, 187500.0, 187500.0, 11087.560485310612, 19690.90338836949, 0.64, -0.65, 0.452, 192.0, 0.0, 0.0, 0.0, 0.0, 0.0, 0.0, 0.0, 0.0, 0.0, 1.6635890932725463E9, 0.0, 2022-09-19 17:04:53.272
5.0, 23102.89717947211, 63272.96057617195, 10814.28805760003, 144997.5767728778, 187500.0, 187500.0, 11078.91036020641, 19699.397051262506, 0.64, -0.65, 0.452, 192.0, 0.0, 0.0, 0.0, 0.0, 0.0, 0.0, 0.0, 0.0, 0.0, 1.6635890932755632E9, 0.0, 2022-09-19 17:04:53.275
6.0, 23102.181923649543, 63276.983890173906, 10822.446444326217, 145001.1307002462, 187500.0, 187500.0, 11096.322369137093, 19693.406783748484, 0.64, -0.65, 0.452, 192.0, 0.0, 0.0, 0.0, 0.0, 0.0, 0.0, 0.0, 0.0, 0.0, 1.6635890932796192E9, 0.0, 2022-09-19 17:04:53.279
7.0, 23113.357795877197, 63299.22387590694, 10826.603868794904, 145022.38720922318, 187500.0, 187500.0, 11117.891802536466, 19686.164818544963, 0.64, -0.65, 0.452, 192.0, 0.0, 0.0, 0.0, 0.0, 0.0, 0.0, 0.0, 0.0, 0.0, 1.6635890932836447E9, 0.0, 2022-09-19 17:04:53.283
8.0, 23137.497679888926, 63318.491079627405, 10838.651459056313, 145039.24042454248, 187500.0, 187500.0, 11125.111415995529, 19702.638054208524, 0.644, -0.654, 0.454, 192.0, 20.0, 32.0, 235.0, 144.0, 14.0, 48.0, 0.0, 0.0, 0.0, 1.66358909328759E9, 0.0, 2022-09-19 17:04:53.287
9.0, 23153.076845774278, 63295.75935551636, 10844.127636447864, 145017.69334288756, 187500.0, 187500.0, 11105.598343086045, 19713.009263635788, 0.644, -0.654, 0.454, 192.0, 0.0, 0.0, 0.0, 0.0, 0.0, 0.0, 0.0, 0.0, 0.0, 1.6635890932917516E9, 0.0, 2022-09-19 17:04:53.291
10.0, 23130.09925247422, 63274.34638432818, 10822.357037348394, 144997.2862001999, 187500.0, 187500.0, 11096.14355518145, 19696.781897161236, 0.644, -0.654, 0.454, 192.0, 0.0, 0.0, 0.0, 0.0, 0.0, 0.0, 0.0, 0.0, 0.0, 1.6635890932956557E9, 0.0, 2022-09-19 17:04:53.295
11.0, 23125.53949660534, 63280.06843090874, 10833.063522942486, 145004.84108982576, 187500.0, 187500.0, 11114.24846819025, 19708.225990322353, 0.644, -0.654, 0.454, 192.0, 0.0, 0.0, 0.0, 0.0, 0.0, 0.0, 0.0, 0.0, 0.0, 1.663589093299701E9, 0.0, 2022-09-19 17:04:53.299
12.0, 23140.67162760158, 63301.34729163019, 10841.132502690853, 145027.37164823673, 187500.0, 187500.0, 11136.756674856744, 19729.638961510536, 0.644, -0.654, 0.454, 192.0, 0.0, 0.0, 0.0, 0.0, 0.0, 0.0, 0.0, 0.0, 0.0, 1.663589093303705E9, 0.0, 2022-09-19 17:04:53.303
13.0, 23138.995246767434, 63311.18205919052, 10830.940107219232, 145037.4746367305, 187500.0, 187500.0, 11127.771273585711, 19717.434909037936, 0.644, -0.654, 0.454, 192.0, 0.0, 0.0, 0.0, 0.0, 0.0, 0.0, 0.0, 0.0, 0.0, 1.6635890933087037E9, 0.0, 2022-09-19 17:04:53.308
14.0, 23146.52778464887, 63290.84197173619, 10839.724342790169, 145022.38720922318, 187500.0, 187500.0, 11104.279590163183, 19728.119042887574, 0.644, -0.654, 0.454, 192.0, 0.0, 0.0, 0.0, 0.0, 0.0, 0.0, 0.0, 0.0, 0.0, 1.6635890933126419E9, 0.0, 2022-09-19 17:04:53.312
15.0, 23145.030217770367, 63275.151047128566, 10839.612584067892, 145013.15593876314, 187500.0, 187500.0, 11104.43605237437, 19726.17444111996, 0.644, -0.654, 0.454, 192.0, 0.0, 0.0, 0.0, 0.0, 0.0, 0.0, 0.0, 0.0, 0.0, 1.6635890933166928E9, 0.0, 2022-09-19 17:04:53.316
16.0, 23151.9145550626, 63279.979023930915, 10839.679639301257, 145020.3308487333, 187500.0, 187500.0, 11116.617753102511, 19718.66425498298, 0.644, -0.654, 0.454, 192.0, 0.0, 0.0, 0.0, 0.0, 0.0, 0.0, 0.0, 0.0, 0.0, 1.6635890933196735E9, 0.0, 2022-09-19 17:04:53.319
17.0, 23146.43837767105, 63301.369643374645, 10835.030476454554, 145045.29774728988, 187500.0, 187500.0, 11135.504977167247, 19713.18807759143, 0.644, -0.654, 0.454, 192.0, 0.0, 0.0, 0.0, 0.0, 0.0, 0.0, 0.0, 0.0, 0.0, 1.66358909332364E9, 0.0, 2022-09-19 17:04:53.323
18.0, 23142.34800843573, 63314.53482085882, 10832.817653753478, 145060.4969335195, 187500.0, 187500.0, 11133.269802721716, 19710.12588860105, 0.642, -0.656, 0.448, 192.0, 20.0, 16.0, 235.0, 128.0, 14.0, 0.0, 0.0, 0.0, 0.0, 1.6635890933276892E9, 0.0, 2022-09-19 17:04:53.327
19.0, 23137.140051977643, 63288.42798333502, 10836.595098566426, 145039.55334896487, 187500.0, 187500.0, 11106.268895419706, 19715.199734592406, 0.642, -0.656, 0.448, 192.0, 0.0, 0.0, 0.0, 0.0, 0.0, 0.0, 0.0, 0.0, 0.0, 1.6635890933317533E9, 0.0, 2022-09-19 17:04:53.331
20.0, 23127.32763616176, 63268.40082030307, 10826.894441472823, 145024.95765983555, 187500.0, 187500.0, 11099.093985449552, 19705.253208309798, 0.642, -0.656, 0.448, 192.0, 0.0, 0.0, 0.0, 0.0, 0.0, 0.0, 0.0, 0.0, 0.0, 1.6635890933366635E9, 0.0, 2022-09-19 17:04:53.336
21.0, 23128.80285129581, 63265.69625922397, 10823.608735037891, 145026.25406101395, 187500.0, 187500.0, 11108.01233148722, 19709.969426389867, 0.642, -0.656, 0.448, 192.0, 0.0, 0.0, 0.0, 0.0, 0.0, 0.0, 0.0, 0.0, 0.0, 1.6635890933406491E9, 0.0, 2022-09-19 17:04:53.340
22.0, 23158.083636532265, 63288.3385763572, 10836.23747065514, 145051.39977352618, 187500.0, 187500.0, 11135.706142867344, 19730.37656907756, 0.642, -0.656, 0.448, 192.0, 0.0, 0.0, 0.0, 0.0, 0.0, 0.0, 0.0, 0.0, 0.0, 1.6635890933436716E9, 0.0, 2022-09-19 17:04:53.343
23.0, 23177.283785019376, 63309.46097486746, 10851.704877818212, 145070.37640456873, 187500.0, 187500.0, 11141.986983059285, 19733.79638597922, 0.642, -0.656, 0.448, 192.0, 0.0, 0.0, 0.0, 0.0, 0.0, 0.0, 0.0, 0.0, 0.0, 1.6635890933476813E9, 0.0, 2022-09-19 17:04:53.347
24.0, 23162.464578445506, 63286.818657734235, 10858.231587199163, 145050.21513107006, 187500.0, 187500.0, 11116.349532169048, 19737.126795903063, 0.642, -0.656, 0.448, 192.0, 0.0, 0.0, 0.0, 0.0, 0.0, 0.0, 0.0, 0.0, 0.0, 1.6635890933516889E9, 0.0, 2022-09-19 17:04:53.351
25.0, 23153.121549263185, 63268.9819656589, 10859.237415699652, 145036.02177334094, 187500.0, 187500.0, 11116.10366298004, 19736.590354036136, 0.642, -0.656, 0.448, 192.0, 0.0, 0.0, 0.0, 0.0, 0.0, 0.0, 0.0, 0.0, 0.0, 1.6635890933557253E9, 0.0, 2022-09-19 17:04:53.355
26.0, 23155.9155173201, 63271.50771278235, 10857.113999976398, 145039.59805245377, 187500.0, 187500.0, 11131.504014909748, 19734.44458656843, 0.642, -0.656, 0.448, 192.0, 0.0, 0.0, 0.0, 0.0, 0.0, 0.0, 0.0, 0.0, 0.0, 1.6635890933597808E9, 0.0, 2022-09-19 17:04:53.359
27.0, 23155.423778942084, 63294.12767817112, 10857.046944743031, 145064.52024752143, 187500.0, 187500.0, 11153.92281459842, 19736.165670891485, 0.642, -0.656, 0.448, 192.0, 0.0, 0.0, 0.0, 0.0, 0.0, 0.0, 0.0, 0.0, 0.0, 1.6635890933647568E9, 0.0, 2022-09-19 17:04:53.364
28.0, 23140.9622002795, 63306.06350971026, 10848.888558016844, 145077.1489831387, 187500.0, 187500.0, 11148.692506395879, 19721.927609673454, 0.644, -0.654, 0.446, 192.0, 20.0, 32.0, 235.0, 144.0, 13.0, 240.0, 0.0, 0.0, 0.0, 1.6635890933687518E9, 0.0, 2022-09-19 17:04:53.368
29.0, 23132.24501994193, 63282.12479139862, 10853.67183133028, 145056.40656428417, 187500.0, 187500.0, 11120.395197915459, 19731.8070807227, 0.644, -0.654, 0.446, 192.0, 0.0, 0.0, 0.0, 0.0, 0.0, 0.0, 0.0, 0.0, 0.0, 1.6635890933716757E9, 0.0, 2022-09-19 17:04:53.371
30.0, 23163.760979623912, 63271.84298894918, 10864.355965179917, 145048.89637814718, 187500.0, 187500.0, 11127.681866607889, 19760.77494153678, 0.644, -0.654, 0.446, 192.0, 0.0, 0.0, 0.0, 0.0, 0.0, 0.0, 0.0, 0.0, 0.0, 1.6635890933758311E9, 0.0, 2022-09-19 17:04:53.375
31.0, 23177.216729786007, 63277.78855297429, 10854.834122041955, 145056.47361951752, 187500.0, 187500.0, 11139.81886384712, 19750.38138036506, 0.644, -0.654, 0.446, 192.0, 0.0, 0.0, 0.0, 0.0, 0.0, 0.0, 0.0, 0.0, 0.0, 1.6635890933797648E9, 0.0, 2022-09-19 17:04:53.379
32.0, 23180.569491454306, 63300.92260848554, 10851.57076735148, 145081.17229714064, 187500.0, 187500.0, 11158.795494889677, 19748.05679894171, 0.644, -0.654, 0.446, 192.0, 0.0, 0.0, 0.0, 0.0, 0.0, 0.0, 0.0, 0.0, 0.0, 1.6635890933857696E9, 0.0, 2022-09-19 17:04:53.385
33.0, 23160.318810977795, 63310.2432859234, 10837.19859566672, 145093.66692229116, 187500.0, 187500.0, 11146.502035439258, 19738.244383125828, 0.644, -0.654, 0.446, 192.0, 0.0, 0.0, 0.0, 0.0, 0.0, 0.0, 0.0, 0.0, 0.0, 1.6635890933897767E9, 0.0, 2022-09-19 17:04:53.389
34.0, 23140.224592712475, 63290.70786126946, 10846.362810893395, 145077.21603837205, 187500.0, 187500.0, 11120.10462523754, 19741.172461649476, 0.644, -0.654, 0.446, 192.0, 0.0, 0.0, 0.0, 0.0, 0.0, 0.0, 0.0, 0.0, 0.0, 1.663589093392778E9, 0.0, 2022-09-19 17:04:53.392
35.0, 23149.94760155053, 63278.637919263594, 10847.14512194933, 145063.6485294877, 187500.0, 187500.0, 11121.289267693672, 19735.562173791193, 0.644, -0.654, 0.446, 192.0, 0.0, 0.0, 0.0, 0.0, 0.0, 0.0, 0.0, 0.0, 0.0, 1.6635890933967724E9, 0.0, 2022-09-19 17:04:53.396
36.0, 23148.517089905392, 63285.05286992227, 10847.43569462725, 145071.56104702485, 187500.0, 187500.0, 11137.96366905733, 19739.361970348593, 0.644, -0.654, 0.446, 192.0, 0.0, 0.0, 0.0, 0.0, 0.0, 0.0, 0.0, 0.0, 0.0, 1.6635890933997638E9, 0.0, 2022-09-19 17:04:53.399
37.0, 23152.80862484081, 63307.06933821075, 10845.62520332637, 145097.4443671041, 187500.0, 187500.0, 11158.840198378588, 19739.406673837504, 0.644, -0.654, 0.446, 192.0, 0.0, 0.0, 0.0, 0.0, 0.0, 0.0, 0.0, 0.0, 0.0, 1.6635890934037716E9, 0.0, 2022-09-19 17:04:53.403
38.0, 23168.67836340408, 63318.0440447383, 10852.174264451774, 145110.72130331057, 187500.0, 187500.0, 11155.152160543461, 19739.76430174879, 0.644, -0.662, 0.444, 192.0, 20.0, 32.0, 235.0, 80.0, 13.0, 224.0, 0.0, 0.0, 0.0, 1.6635890934078417E9, 0.0, 2022-09-19 17:04:53.407
39.0, 23152.607459140716, 63297.323977628235, 10871.754392594623, 145096.08091069234, 187500.0, 187500.0, 11137.606041146046, 19749.95669722041, 0.644, -0.662, 0.444, 192.0, 0.0, 0.0, 0.0, 0.0, 0.0, 0.0, 0.0, 0.0, 0.0, 1.663589093411769E9, 0.0, 2022-09-19 17:04:53.411
40.0, 23160.139997022154, 63279.77785823082, 10869.630976871369, 145083.2957128639, 187500.0, 187500.0, 11140.087084780585, 19743.877022728568, 0.644, -0.662, 0.444, 192.0, 0.0, 0.0, 0.0, 0.0, 0.0, 0.0, 0.0, 0.0, 0.0, 1.663589093415801E9, 0.0, 2022-09-19 17:04:53.415
41.0, 23179.273090275896, 63285.54460830028, 10864.937110535755, 145089.97888445604, 187500.0, 187500.0, 11158.214349533839, 19725.57094401967, 0.644, -0.662, 0.444, 192.0, 0.0, 0.0, 0.0, 0.0, 0.0, 0.0, 0.0, 0.0, 0.0, 1.6635890934207444E9, 0.0, 2022-09-19 17:04:53.420
42.0, 23172.41110472812, 63306.77876553283, 10860.95850002271, 145110.63189633275, 187500.0, 187500.0, 11177.503904998768, 19723.738100974333, 0.644, -0.662, 0.444, 192.0, 0.0, 0.0, 0.0, 0.0, 0.0, 0.0, 0.0, 0.0, 0.0, 1.6635890934248545E9, 0.0, 2022-09-19 17:04:53.424
43.0, 23156.496662675938, 63313.23841968041, 10859.349174421928, 145116.3986464022, 187500.0, 187500.0, 11163.601119947567, 19730.980066177854, 0.644, -0.662, 0.444, 192.0, 0.0, 0.0, 0.0, 0.0, 0.0, 0.0, 0.0, 0.0, 0.0, 1.6635890934278536E9, 0.0, 2022-09-19 17:04:53.427
44.0, 23129.696921074024, 63287.53391355681, 10860.28794768905, 145093.71162578007, 187500.0, 187500.0, 11131.191090487373, 19733.483461556847, 0.644, -0.662, 0.444, 192.0, 0.0, 0.0, 0.0, 0.0, 0.0, 0.0, 0.0, 0.0, 0.0, 1.6635890934318244E9, 0.0, 2022-09-19 17:04:53.431
45.0, 23148.897069561135, 63272.982927916404, 10867.954596037222, 145081.68638726312, 187500.0, 187500.0, 11138.455407435347, 19740.61366803809, 0.644, -0.662, 0.444, 192.0, 0.0, 0.0, 0.0, 0.0, 0.0, 0.0, 0.0, 0.0, 0.0, 1.6635890934358628E9, 0.0, 2022-09-19 17:04:53.435
46.0, 23154.52970916387, 63278.34734658568, 10857.784552310057, 145088.32485536634, 187500.0, 187500.0, 11154.325145998615, 19738.847880226123, 0.644, -0.662, 0.444, 192.0, 0.0, 0.0, 0.0, 0.0, 0.0, 0.0, 0.0, 0.0, 0.0, 1.6635890934398181E9, 0.0, 2022-09-19 17:04:53.439
47.0, 23155.35672370872, 63298.709785784464, 10837.37740962236, 145111.43655913312, 187500.0, 187500.0, 11166.797419404676, 19747.05097044122, 0.644, -0.662, 0.444, 192.0, 0.0, 0.0, 0.0, 0.0, 0.0, 0.0, 0.0, 0.0, 0.0, 1.6635890934438725E9, 0.0, 2022-09-19 17:04:53.443
48.0, 23159.223575499487, 63309.3939196341, 10834.069351442975, 145124.42292266167, 187500.0, 187500.0, 11159.130771056507, 19747.296839630228, 0.646, -0.662, 0.438, 192.0, 20.0, 48.0, 235.0, 80.0, 13.0, 176.0, 0.0, 0.0, 0.0, 1.6635890934478996E9, 0.0, 2022-09-19 17:04:53.447
49.0, 23152.406293440617, 63289.92555021353, 10845.736962048646, 145110.5424893549, 187500.0, 187500.0, 11135.214404489328, 19755.43287461196, 0.646, -0.662, 0.438, 192.0, 0.0, 0.0, 0.0, 0.0, 0.0, 0.0, 0.0, 0.0, 0.0, 1.663589093452894E9, 0.0, 2022-09-19 17:04:53.452
50.0, 23154.797930097335, 63274.97223317293, 10847.502749860616, 145103.18876542913, 187500.0, 187500.0, 11134.29798296666, 19753.77884552227, 0.646, -0.662, 0.438, 192.0, 0.0, 0.0, 0.0, 0.0, 0.0, 0.0, 0.0, 0.0, 0.0, 1.6635890934558935E9, 0.0, 2022-09-19 17:04:53.455
51.0, 23167.15844478112, 63283.689413510496, 10854.476494130671, 145116.21983244657, 187500.0, 187500.0, 11151.911157597442, 19753.57767982217, 0.646, -0.662, 0.438, 192.0, 0.0, 0.0, 0.0, 0.0, 0.0, 0.0, 0.0, 0.0, 0.0, 1.663589093459824E9, 0.0, 2022-09-19 17:04:53.459
52.0, 23150.59580213974, 63305.638826565606, 10839.612584067892, 145140.09149552483, 187500.0, 187500.0, 11163.198788547372, 19742.491214572336, 0.646, -0.662, 0.438, 192.0, 0.0, 0.0, 0.0, 0.0, 0.0, 0.0, 0.0, 0.0, 0.0, 1.6635890934639363E9, 0.0, 2022-09-19 17:04:53.463
53.0, 23118.655159313104, 63313.10430921368, 10856.689316831746, 145153.30137649793, 187500.0, 187500.0, 11158.571977445125, 19736.09861565812, 0.646, -0.662, 0.438, 192.0, 0.0, 0.0, 0.0, 0.0, 0.0, 0.0, 0.0, 0.0, 0.0, 1.6635890934679146E9, 0.0, 2022-09-19 17:04:53.467
54.0, 23140.828089812767, 63294.28414038231, 10870.279177460574, 145144.00305080452, 187500.0, 187500.0, 11142.590480159579, 19753.75649377781, 0.646, -0.662, 0.438, 192.0, 0.0, 0.0, 0.0, 0.0, 0.0, 0.0, 0.0, 0.0, 0.0, 1.6635890934718904E9, 0.0, 2022-09-19 17:04:53.471
55.0, 23161.279935989372, 63279.62139601963, 10870.122715249387, 145137.252823979, 187500.0, 187500.0, 11145.563262172134, 19761.020810725786, 0.646, -0.662, 0.438, 192.0, 0.0, 0.0, 0.0, 0.0, 0.0, 0.0, 0.0, 0.0, 0.0, 1.663589093475909E9, 0.0, 2022-09-19 17:04:53.475
56.0, 23155.11085451971, 63286.37162284513, 10872.24613097264, 145148.71926888457, 187500.0, 187500.0, 11163.824637392121, 19754.695267044935, 0.646, -0.662, 0.438, 192.0, 0.0, 0.0, 0.0, 0.0, 0.0, 0.0, 0.0, 0.0, 0.0, 1.6635890934800305E9, 0.0, 2022-09-19 17:04:53.480
57.0, 23169.460674460017, 63309.52803010083, 10872.53670365056, 145173.0156151075, 187500.0, 187500.0, 11185.68464346941, 19755.8128542677, 0.646, -0.662, 0.438, 192.0, 0.0, 0.0, 0.0, 0.0, 0.0, 0.0, 0.0, 0.0, 0.0, 1.6635890934829133E9, 0.0, 2022-09-19 17:04:53.482
58.0, 23153.63563938566, 63311.87496326864, 10864.668889602292, 145177.9553506321, 187500.0, 187500.0, 11174.128791586018, 19754.605860067113, 0.642, -0.662, 0.442, 192.0, 20.0, 16.0, 235.0, 80.0, 13.0, 208.0, 0.0, 0.0, 0.0, 1.6635890934879391E9, 0.0, 2022-09-19 17:04:53.487
59.0, 23141.833918313256, 63286.75160250087, 10870.860322816412, 145154.59777767633, 187500.0, 187500.0, 11147.552567428656, 19756.885738001554, 0.642, -0.662, 0.442, 192.0, 0.0, 0.0, 0.0, 0.0, 0.0, 0.0, 0.0, 0.0, 0.0, 1.663589093492026E9, 0.0, 2022-09-19 17:04:53.492
60.0, 23142.19154622454, 63278.302643096766, 10884.651349145335, 145148.71926888457, 187500.0, 187500.0, 11156.985003588798, 19761.266679914796, 0.642, -0.662, 0.442, 192.0, 0.0, 0.0, 0.0, 0.0, 0.0, 0.0, 0.0, 0.0, 0.0, 1.6635890934960237E9, 0.0, 2022-09-19 17:04:53.496
61.0, 23141.72215959098, 63284.09174491069, 10883.690224133758, 145155.76006838802, 187500.0, 187500.0, 11172.02772760722, 19756.975144979377, 0.642, -0.662, 0.442, 192.0, 0.0, 0.0, 0.0, 0.0, 0.0, 0.0, 0.0, 0.0, 0.0, 1.663589093499951E9, 0.0, 2022-09-19 17:04:53.499
62.0, 23155.401427197627, 63306.756413788375, 10878.30345372003, 145177.4189087652, 187500.0, 187500.0, 11190.467916782847, 19752.90712748851, 0.642, -0.662, 0.442, 192.0, 0.0, 0.0, 0.0, 0.0, 0.0, 0.0, 0.0, 0.0, 0.0, 1.6635890935039687E9, 0.0, 2022-09-19 17:04:53.503
63.0, 23141.118662490688, 63311.025596979336, 10871.329709449972, 145181.24105706706, 187500.0, 187500.0, 11176.743945687289, 19746.08984542964, 0.642, -0.662, 0.442, 192.0, 0.0, 0.0, 0.0, 0.0, 0.0, 0.0, 0.0, 0.0, 0.0, 1.6635890935080543E9, 0.0, 2022-09-19 17:04:53.508
64.0, 23127.886429773145, 63280.31430009774, 10864.691241346747, 145154.24014976504, 187500.0, 187500.0, 11140.7799888587, 19740.18898489344, 0.642, -0.662, 0.442, 192.0, 0.0, 0.0, 0.0, 0.0, 0.0, 0.0, 0.0, 0.0, 0.0, 1.6635890935110245E9, 0.0, 2022-09-19 17:04:53.511
65.0, 23123.796060537825, 63261.51648301083, 10853.157741207808, 145138.23630073504, 187500.0, 187500.0, 11137.114302768028, 19735.919801702476, 0.642, -0.662, 0.442, 192.0, 0.0, 0.0, 0.0, 0.0, 0.0, 0.0, 0.0, 0.0, 0.0, 1.6635890935150106E9, 0.0, 2022-09-19 17:04:53.515
66.0, 23154.8649853307, 63269.987794159395, 10855.191749953241, 145147.73579212854, 187500.0, 187500.0, 11156.180340788405, 19736.411540080495, 0.642, -0.662, 0.442, 192.0, 0.0, 0.0, 0.0, 0.0, 0.0, 0.0, 0.0, 0.0, 0.0, 1.6635890935199866E9, 0.0, 2022-09-19 17:04:53.519
67.0, 23166.756113380925, 63295.915817727546, 10867.932244292766, 145172.92620812968, 187500.0, 187500.0, 11179.78378293321, 19752.72831353287, 0.642, -0.662, 0.442, 192.0, 0.0, 0.0, 0.0, 0.0, 0.0, 0.0, 0.0, 0.0, 0.0, 1.6635890935240366E9, 0.0, 2022-09-19 17:04:53.524
68.0, 23165.72793313598, 63307.62813182213, 10869.318052448994, 145182.8056791789, 187500.0, 187500.0, 11174.419364263937, 19756.461054856904, 0.644, -0.658, 0.444, 192.0, 20.0, 32.0, 235.0, 112.0, 13.0, 224.0, 0.0, 0.0, 0.0, 1.663589093528079E9, 0.0, 2022-09-19 17:04:53.528
69.0, 23147.53361314936, 63276.80507621826, 10864.221854713185, 145155.91653059918, 187500.0, 187500.0, 11144.758599371744, 19734.019903423778, 0.644, -0.658, 0.444, 192.0, 0.0, 0.0, 0.0, 0.0, 0.0, 0.0, 0.0, 0.0, 0.0, 1.663589093532054E9, 0.0, 2022-09-19 17:04:53.532
70.0, 23131.172136208075, 63261.605889988656, 10860.9137965338, 145142.6172426483, 187500.0, 187500.0, 11144.44567494937, 19747.743874519336, 0.644, -0.658, 0.444, 192.0, 0.0, 0.0, 0.0, 0.0, 0.0, 0.0, 0.0, 0.0, 0.0, 1.6635890935360153E9, 0.0, 2022-09-19 17:04:53.536
71.0, 23135.463671143494, 63267.86437843614, 10865.831180313968, 145148.71926888457, 187500.0, 187500.0, 11162.148256557974, 19749.37555186457, 0.644, -0.658, 0.444, 192.0, 0.0, 0.0, 0.0, 0.0, 0.0, 0.0, 0.0, 0.0, 0.0, 1.6635890935391204E9, 0.0, 2022-09-19 17:04:53.539
72.0, 23160.117645277696, 63297.81571600625, 10867.664023359303, 145174.69199594166, 187500.0, 187500.0, 11188.746832459788, 19749.9119937315, 0.644, -0.658, 0.444, 192.0, 0.0, 0.0, 0.0, 0.0, 0.0, 0.0, 0.0, 0.0, 0.0, 1.6635890935430653E9, 0.0, 2022-09-19 17:04:53.543
73.0, 23167.00198256993, 63304.70005329848, 10867.731078592667, 145178.8717721548, 187500.0, 187500.0, 11179.292044555194, 19749.017923953288, 0.644, -0.658, 0.444, 192.0, 0.0, 0.0, 0.0, 0.0, 0.0, 0.0, 0.0, 0.0, 0.0, 1.663589093548044E9, 0.0, 2022-09-19 17:04:53.548
74.0, 23156.071979531287, 63273.117038383134, 10869.34040419345, 145151.0662020524, 187500.0, 187500.0, 11147.127884284006, 19755.14230193404, 0.644, -0.658, 0.444, 192.0, 0.0, 0.0, 0.0, 0.0, 0.0, 0.0, 0.0, 0.0, 0.0, 1.6635890935520656E9, 0.0, 2022-09-19 17:04:53.552
75.0, 23142.973857280478, 63255.21329107443, 10870.145066993842, 145138.48216992404, 187500.0, 187500.0, 11148.11136104004, 19749.934345475955, 0.644, -0.658, 0.444, 192.0, 0.0, 0.0, 0.0, 0.0, 0.0, 0.0, 0.0, 0.0, 0.0, 1.6635890935561016E9, 0.0, 2022-09-19 17:04:53.556
76.0, 23148.405331183116, 63261.04709637727, 10867.999299526133, 145145.3665072163, 187500.0, 187500.0, 11161.656518179956, 19744.48051982886, 0.644, -0.658, 0.444, 192.0, 0.0, 0.0, 0.0, 0.0, 0.0, 0.0, 0.0, 0.0, 0.0, 1.6635890935600288E9, 0.0, 2022-09-19 17:04:53.560
77.0, 23144.180851481065, 63286.48338156741, 10863.014860512598, 145172.6579871962, 187500.0, 187500.0, 11181.996605634286, 19755.879909501065, 0.644, -0.658, 0.444, 192.0, 0.0, 0.0, 0.0, 0.0, 0.0, 0.0, 0.0, 0.0, 0.0, 1.6635890935640748E9, 0.0, 2022-09-19 17:04:53.564
78.0, 23140.67162760158, 63294.64176829359, 10860.24324420014, 145180.52580124448, 187500.0, 187500.0, 11172.698279940878, 19763.8147787827, 0.644, -0.658, 0.444, 192.0, 0.0, 0.0, 0.0, 0.0, 0.0, 0.0, 0.0, 0.0, 0.0, 1.6635890935671089E9, 0.0, 2022-09-19 17:04:53.567
79.0, 23148.20416548302, 63270.32307032622, 10863.216026212696, 145157.54820794443, 187500.0, 187500.0, 11148.916023840431, 19759.031505469266, 0.64, -0.656, 0.448, 192.0, 20.0, 0.0, 235.0, 128.0, 14.0, 0.0, 0.0, 0.0, 0.0, 1.6635890935711505E9, 0.0, 2022-09-19 17:04:53.571
80.0, 23162.643392401147, 63258.85662542065, 10867.440505914748, 145148.54045492894, 187500.0, 187500.0, 11157.387334988993, 19758.91974674699, 0.64, -0.656, 0.448, 192.0, 0.0, 0.0, 0.0, 0.0, 0.0, 0.0, 0.0, 0.0, 0.0, 1.6635890935761333E9, 0.0, 2022-09-19 17:04:53.576
81.0, 23157.502491176427, 63269.80898020375, 10875.554189152026, 145158.91166435622, 187500.0, 187500.0, 11179.202637577371, 19763.837130527154, 0.64, -0.656, 0.448, 192.0, 0.0, 0.0, 0.0, 0.0, 0.0, 0.0, 0.0, 0.0, 0.0, 1.6635890935801616E9, 0.0, 2022-09-19 17:04:53.580
82.0, 23133.58612460925, 63289.545570557784, 10880.181000254273, 145175.04962385294, 187500.0, 187500.0, 11199.252152353782, 19760.28320315876, 0.64, -0.656, 0.448, 192.0, 0.0, 0.0, 0.0, 0.0, 0.0, 0.0, 0.0, 0.0, 0.0, 1.663589093584161E9, 0.0, 2022-09-19 17:04:53.584
83.0, 23099.499714314905, 63285.56696004474, 10871.799096083534, 145169.03700459446, 187500.0, 187500.0, 11180.92372190043, 19738.020865681276, 0.64, -0.656, 0.448, 192.0, 0.0, 0.0, 0.0, 0.0, 0.0, 0.0, 0.0, 0.0, 0.0, 1.663589093588159E9, 0.0, 2022-09-19 17:04:53.588
84.0, 23116.419984867574, 63259.773046943315, 10868.066354759498, 145144.67360313816, 187500.0, 187500.0, 11155.375677988015, 19750.783711765256, 0.64, -0.656, 0.448, 192.0, 0.0, 0.0, 0.0, 0.0, 0.0, 0.0, 0.0, 0.0, 0.0, 1.6635890935921147E9, 0.0, 2022-09-19 17:04:53.592
85.0, 23146.43837767105, 63248.95480262695, 10865.160627980307, 145134.23533847753, 187500.0, 187500.0, 11165.009279848253, 19747.229784396863, 0.64, -0.656, 0.448, 192.0, 0.0, 0.0, 0.0, 0.0, 0.0, 0.0, 0.0, 0.0, 0.0, 1.6635890935951157E9, 0.0, 2022-09-19 17:04:53.595
86.0, 23158.82124409929, 63259.19190158748, 10877.632901386369, 145145.74648687203, 187500.0, 187500.0, 11185.729346958322, 19745.32988611816, 0.64, -0.656, 0.448, 192.0, 0.0, 0.0, 0.0, 0.0, 0.0, 0.0, 0.0, 0.0, 0.0, 1.6635890935992596E9, 0.0, 2022-09-19 17:04:53.599
87.0, 23156.16138650911, 63277.609739018655, 10870.346232693939, 145165.88540862626, 187500.0, 187500.0, 11196.704053485877, 19750.42608385397, 0.64, -0.656, 0.448, 192.0, 0.0, 0.0, 0.0, 0.0, 0.0, 0.0, 0.0, 0.0, 0.0, 1.6635890936041799E9, 0.0, 2022-09-19 17:04:53.604
88.0, 23163.87273834619, 63284.22585537742, 10870.43563967176, 145171.02630985097, 187500.0, 187500.0, 11183.538876001701, 19752.370685621583, 0.64, -0.656, 0.448, 192.0, 0.0, 0.0, 0.0, 0.0, 0.0, 0.0, 0.0, 0.0, 0.0, 1.6635890936082132E9, 0.0, 2022-09-19 17:04:53.608
89.0, 23170.95824133852, 63262.365849300135, 10872.559055395015, 145148.83102760685, 187500.0, 187500.0, 11162.148256557974, 19751.09663618763, 0.636, -0.662, 0.446, 192.0, 19.0, 224.0, 235.0, 80.0, 13.0, 240.0, 0.0, 0.0, 0.0, 1.663589093612171E9, 0.0, 2022-09-19 17:04:53.612
90.0, 23167.225500014487, 63252.24050906188, 10873.900160062332, 145141.4549519366, 187500.0, 187500.0, 11169.569035717135, 19769.514473618805, 0.636, -0.662, 0.446, 192.0, 0.0, 0.0, 0.0, 0.0, 0.0, 0.0, 0.0, 0.0, 0.0, 1.6635890936151893E9, 0.0, 2022-09-19 17:04:53.615
91.0, 23154.82028184179, 63259.773046943315, 10864.490075646649, 145150.9097398412, 187500.0, 187500.0, 11178.956768388363, 19758.42800836897, 0.636, -0.662, 0.446, 192.0, 0.0, 0.0, 0.0, 0.0, 0.0, 0.0, 0.0, 0.0, 0.0, 1.6635890936191635E9, 0.0, 2022-09-19 17:04:53.619
92.0, 23144.42672067007, 63280.31430009774, 10860.690279089247, 145169.57344646138, 187500.0, 187500.0, 11191.719614472344, 19754.851729256123, 0.636, -0.662, 0.446, 192.0, 0.0, 0.0, 0.0, 0.0, 0.0, 0.0, 0.0, 0.0, 0.0, 1.6635890936231928E9, 0.0, 2022-09-19 17:04:53.623
93.0, 23137.25181069992, 63285.03051817782, 10854.118866219385, 145171.62980695127, 187500.0, 187500.0, 11176.743945687289, 19744.77109250678, 0.636, -0.662, 0.446, 192.0, 0.0, 0.0, 0.0, 0.0, 0.0, 0.0, 0.0, 0.0, 0.0, 1.6635890936272178E9, 0.0, 2022-09-19 17:04:53.627
94.0, 23136.42479615507, 63260.823578932715, 10855.705840075712, 145148.49575144003, 187500.0, 187500.0, 11152.380544231004, 19739.294915115228, 0.636, -0.662, 0.446, 192.0, 0.0, 0.0, 0.0, 0.0, 0.0, 0.0, 0.0, 0.0, 0.0, 1.663589093631204E9, 0.0, 2022-09-19 17:04:53.631
95.0, 23122.276141914863, 63244.953840369446, 10850.855511528911, 145136.33640245633, 187500.0, 187500.0, 11148.424285462414, 19733.125833645565, 0.636, -0.662, 0.446, 192.0, 0.0, 0.0, 0.0, 0.0, 0.0, 0.0, 0.0, 0.0, 0.0, 1.663589093636206E9, 0.0, 2022-09-19 17:04:53.636
96.0, 23124.511316360393, 63252.151102084055, 10847.279232416062, 145144.87476883826, 187500.0, 187500.0, 11161.522407713224, 19732.589391778638, 0.636, -0.662, 0.446, 192.0, 0.0, 0.0, 0.0, 0.0, 0.0, 0.0, 0.0, 0.0, 0.0, 1.663589093640159E9, 0.0, 2022-09-19 17:04:53.640
97.0, 23141.610400868703, 63279.71080299745, 10854.43179064176, 145173.0603185964, 187500.0, 187500.0, 11190.154992360473, 19750.783711765256, 0.636, -0.662, 0.446, 192.0, 0.0, 0.0, 0.0, 0.0, 0.0, 0.0, 0.0, 0.0, 0.0, 1.663589093643262E9, 0.0, 2022-09-19 17:04:53.643
98.0, 23144.046741014332, 63284.35996584415, 10854.632956341859, 145175.22843780858, 187500.0, 187500.0, 11177.749774187778, 19754.71761878939, 0.636, -0.662, 0.446, 192.0, 0.0, 0.0, 0.0, 0.0, 0.0, 0.0, 0.0, 0.0, 0.0, 1.663589093647256E9, 0.0, 2022-09-19 17:04:53.647
99.0, 23131.14978446362, 63253.536910240284, 10843.322973647473, 145143.44425719313, 187500.0, 187500.0, 11141.003506303252, 19743.161766905996, 0.64, -0.656, 0.442, 192.0, 20.0, 0.0, 235.0, 128.0, 13.0, 208.0, 0.0, 0.0, 0.0, 1.6635890936511743E9, 0.0, 2022-09-19 17:04:53.651
100.0, 23137.20710721101, 63240.99758160086, 10843.010049225099, 145134.3023937109, 187500.0, 187500.0, 11144.848006349564, 19743.497043072824, 0.64, -0.656, 0.442, 192.0, 0.0, 0.0, 0.0, 0.0, 0.0, 0.0, 0.0, 0.0, 0.0, 1.663589093655295E9, 0.0, 2022-09-19 17:04:53.655
101.0, 23154.082674274767, 63246.04907584776, 10845.62520332637, 145142.8631118373, 187500.0, 187500.0, 11163.265843780739, 19745.262830884796, 0.64, -0.656, 0.442, 192.0, 0.0, 0.0, 0.0, 0.0, 0.0, 0.0, 0.0, 0.0, 0.0, 1.663589093659328E9, 0.0, 2022-09-19 17:04:53.659
102.0, 23170.511206449417, 63269.71957322593, 10851.548415607025, 145166.15362955973, 187500.0, 187500.0, 11188.255094081771, 19748.727351275367, 0.64, -0.656, 0.442, 192.0, 0.0, 0.0, 0.0, 0.0, 0.0, 0.0, 0.0, 0.0, 0.0, 1.6635890936642716E9, 0.0, 2022-09-19 17:04:53.664
103.0, 23163.001020312433, 63274.56990177273, 10855.214101697697, 145169.79696390594, 187500.0, 187500.0, 11180.029652122219, 19743.72056051738, 0.64, -0.656, 0.442, 192.0, 0.0, 0.0, 0.0, 0.0, 0.0, 0.0, 0.0, 0.0, 0.0, 1.6635890936682737E9, 0.0, 2022-09-19 17:04:53.668
104.0, 23149.96995329499, 63248.75363692685, 10857.24811044313, 145142.75135311502, 187500.0, 187500.0, 11154.235739020794, 19741.41833083848, 0.64, -0.656, 0.442, 192.0, 0.0, 0.0, 0.0, 0.0, 0.0, 0.0, 0.0, 0.0, 0.0, 1.663589093671339E9, 0.0, 2022-09-19 17:04:53.671
105.0, 23142.996209024932, 63233.01800883032, 10854.096514474932, 145126.7028005961, 187500.0, 187500.0, 11154.213387276339, 19733.885792957044, 0.64, -0.656, 0.442, 192.0, 0.0, 0.0, 0.0, 0.0, 0.0, 0.0, 0.0, 0.0, 0.0, 1.6635890936753206E9, 0.0, 2022-09-19 17:04:53.675
106.0, 23128.892258273634, 63239.85764263364, 10845.044057970532, 145132.08957100983, 187500.0, 187500.0, 11165.836294393099, 19724.81098470819, 0.64, -0.656, 0.442, 192.0, 0.0, 0.0, 0.0, 0.0, 0.0, 0.0, 0.0, 0.0, 0.0, 1.6635890936793275E9, 0.0, 2022-09-19 17:04:53.679
107.0, 23119.32571164676, 63264.109285367645, 10842.853587013911, 145154.82129512087, 187500.0, 187500.0, 11184.142373101995, 19726.33090333115, 0.64, -0.656, 0.442, 192.0, 0.0, 0.0, 0.0, 0.0, 0.0, 0.0, 0.0, 0.0, 0.0, 1.66358909368332E9, 0.0, 2022-09-19 17:04:53.683
108.0, 23101.33255736024, 63261.06944812172, 10845.28992715954, 145149.88155959625, 187500.0, 187500.0, 11171.468933995835, 19720.72061547287, 0.64, -0.656, 0.442, 192.0, 0.0, 0.0, 0.0, 0.0, 0.0, 0.0, 0.0, 0.0, 0.0, 1.6635890936873271E9, 0.0, 2022-09-19 17:04:53.687
109.0, 23106.76403126288, 63234.6273344311, 10854.990584253143, 145124.7134953396, 187500.0, 187500.0, 11153.766352387232, 19721.0558916397, 0.642, -0.66, 0.446, 192.0, 20.0, 16.0, 235.0, 96.0, 13.0, 240.0, 0.0, 0.0, 0.0, 1.6635890936912787E9, 0.0, 2022-09-19 17:04:53.691
110.0, 23117.42581336806, 63223.65262790354, 10850.922566762278, 145114.8563760348, 187500.0, 187500.0, 11154.481608209802, 19737.998513936822, 0.642, -0.66, 0.446, 192.0, 0.0, 0.0, 0.0, 0.0, 0.0, 0.0, 0.0, 0.0, 0.0, 1.6635890936963007E9, 0.0, 2022-09-19 17:04:53.696
111.0, 23148.427682927573, 63232.88389836358, 10849.469703372682, 145121.53954762692, 187500.0, 187500.0, 11169.122000828029, 19737.551479047714, 0.642, -0.66, 0.446, 192.0, 0.0, 0.0, 0.0, 0.0, 0.0, 0.0, 0.0, 0.0, 0.0, 1.6635890936992924E9, 0.0, 2022-09-19 17:04:53.699
112.0, 23154.8649853307, 63254.27451780731, 10841.423075368772, 145138.75039085752, 187500.0, 187500.0, 11179.627320722024, 19725.23566785284, 0.642, -0.66, 0.446, 192.0, 0.0, 0.0, 0.0, 0.0, 0.0, 0.0, 0.0, 0.0, 0.0, 1.6635890937033672E9, 0.0, 2022-09-19 17:04:53.703
113.0, 23140.67162760158, 63257.85079692016, 10839.76904627908, 145139.39859144672, 187500.0, 187500.0, 11163.109381569551, 19723.46988004087, 0.642, -0.66, 0.446, 192.0, 0.0, 0.0, 0.0, 0.0, 0.0, 0.0, 0.0, 0.0, 0.0, 1.663589093707347E9, 0.0, 2022-09-19 17:04:53.707
114.0, 23130.121604218675, 63236.907212365535, 10836.19276716623, 145122.36656217178, 187500.0, 187500.0, 11134.856776578043, 19722.91108642949, 0.642, -0.66, 0.446, 192.0, 0.0, 0.0, 0.0, 0.0, 0.0, 0.0, 0.0, 0.0, 0.0, 1.6635890937113197E9, 0.0, 2022-09-19 17:04:53.711
115.0, 23136.693017088535, 63228.79352912826, 10834.248165398618, 145119.84081504832, 187500.0, 187500.0, 11134.499148666759, 19725.660350997492, 0.642, -0.66, 0.446, 192.0, 0.0, 0.0, 0.0, 0.0, 0.0, 0.0, 0.0, 0.0, 0.0, 1.6635890937153049E9, 0.0, 2022-09-19 17:04:53.715
116.0, 23127.81937453978, 63238.18126179949, 10828.123787417864, 145130.99433553152, 187500.0, 187500.0, 11143.708067382344, 19722.419348051473, 0.642, -0.66, 0.446, 192.0, 0.0, 0.0, 0.0, 0.0, 0.0, 0.0, 0.0, 0.0, 0.0, 1.663589093720406E9, 0.0, 2022-09-19 17:04:53.720
117.0, 23116.643502312127, 63256.7332096974, 10811.404682565295, 145148.89808284023, 187500.0, 187500.0, 11153.319317498126, 19703.263903053274, 0.642, -0.66, 0.446, 192.0, 0.0, 0.0, 0.0, 0.0, 0.0, 0.0, 0.0, 0.0, 0.0, 1.6635890937243521E9, 0.0, 2022-09-19 17:04:53.724
118.0, 23121.784403536847, 63259.43777077649, 10811.42703430975, 145150.0603735519, 187500.0, 187500.0, 11143.01516330423, 19698.83825765112, 0.642, -0.66, 0.446, 192.0, 0.0, 0.0, 0.0, 0.0, 0.0, 0.0, 0.0, 0.0, 0.0, 1.663589093727347E9, 0.0, 2022-09-19 17:04:53.727
119.0, 23114.274217399863, 63232.23569777438, 10815.360941333884, 145125.31699243988, 187500.0, 187500.0, 11119.277610692694, 19701.31930128566, 0.642, -0.666, 0.444, 192.0, 20.0, 16.0, 235.0, 48.0, 13.0, 224.0, 0.0, 0.0, 0.0, 1.6635890937313476E9, 0.0, 2022-09-19 17:04:53.731
120.0, 23119.99626398042, 63218.93640982347, 10808.94599067521, 145114.5434516124, 187500.0, 187500.0, 11121.848061305054, 19684.689603410912, 0.642, -0.666, 0.444, 192.0, 0.0, 0.0, 0.0, 0.0, 0.0, 0.0, 0.0, 0.0, 0.0, 1.6635890937353792E9, 0.0, 2022-09-19 17:04:53.735
121.0, 23122.38790063714, 63232.83919487467, 10809.057749397487, 145125.54050988442, 187500.0, 187500.0, 11142.813997604133, 19704.04621410921, 0.642, -0.666, 0.444, 192.0, 0.0, 0.0, 0.0, 0.0, 0.0, 0.0, 0.0, 0.0, 0.0, 1.6635890937394073E9, 0.0, 2022-09-19 17:04:53.739
122.0, 23117.09053720123, 63257.42611377551, 10809.281266842041, 145145.34415547183, 187500.0, 187500.0, 11160.293061768183, 19702.593350719613, 0.642, -0.666, 0.444, 192.0, 0.0, 0.0, 0.0, 0.0, 0.0, 0.0, 0.0, 0.0, 0.0, 1.6635890937433765E9, 0.0, 2022-09-19 17:04:53.743
123.0, 23100.840818982222, 63257.64963122006, 10811.09175814292, 145146.72996362805, 187500.0, 187500.0, 11143.395142959971, 19693.250321537296, 0.642, -0.666, 0.444, 192.0, 0.0, 0.0, 0.0, 0.0, 0.0, 0.0, 0.0, 0.0, 0.0, 1.663589093747377E9, 0.0, 2022-09-19 17:04:53.747
124.0, 23091.207217121988, 63231.453386718444, 10814.980961678144, 145125.27228895098, 187500.0, 187500.0, 11117.355360669537, 19691.015147091766, 0.642, -0.666, 0.444, 192.0, 0.0, 0.0, 0.0, 0.0, 0.0, 0.0, 0.0, 0.0, 0.0, 1.6635890937524743E9, 0.0, 2022-09-19 17:04:53.752
125.0, 23101.511371315883, 63221.59626741365, 10813.036359910531, 145117.9409167696, 187500.0, 187500.0, 11123.278572950194, 19689.539931957715, 0.642, -0.666, 0.444, 192.0, 0.0, 0.0, 0.0, 0.0, 0.0, 0.0, 0.0, 0.0, 0.0, 1.663589093755428E9, 0.0, 2022-09-19 17:04:53.755
126.0, 23118.38693837964, 63231.922773352, 10812.634028510336, 145130.72611459807, 187500.0, 187500.0, 11141.696410381366, 19682.499132454293, 0.642, -0.666, 0.444, 192.0, 0.0, 0.0, 0.0, 0.0, 0.0, 0.0, 0.0, 0.0, 0.0, 1.663589093759424E9, 0.0, 2022-09-19 17:04:53.759
127.0, 23137.87765954467, 63260.98004114391, 10816.322066345461, 145158.17405678917, 187500.0, 187500.0, 11162.707050169356, 19678.60992891907, 0.642, -0.666, 0.444, 192.0, 0.0, 0.0, 0.0, 0.0, 0.0, 0.0, 0.0, 0.0, 0.0, 1.66358909376343E9, 0.0, 2022-09-19 17:04:53.763
128.0, 23124.1089849602, 63265.360983057144, 10811.89642094331, 145161.30330101293, 187500.0, 187500.0, 11143.77512261571, 19684.779010388735, 0.642, -0.666, 0.444, 192.0, 0.0, 0.0, 0.0, 0.0, 0.0, 0.0, 0.0, 0.0, 0.0, 1.663589093767465E9, 0.0, 2022-09-19 17:04:53.767
129.0, 23107.412231852082, 63237.063674576726, 10818.892516957821, 145133.6541931217, 187500.0, 187500.0, 11116.81891880261, 19676.41945796245, 0.638, -0.66, 0.438, 192.0, 19.0, 240.0, 235.0, 96.0, 13.0, 176.0, 0.0, 0.0, 0.0, 1.663589093771458E9, 0.0, 2022-09-19 17:04:53.771
130.0, 23097.309243358286, 63221.55156392474, 10814.489223300126, 145119.01380050348, 187500.0, 187500.0, 11120.618715360013, 19670.004507303776, 0.638, -0.66, 0.438, 192.0, 0.0, 0.0, 0.0, 0.0, 0.0, 0.0, 0.0, 0.0, 0.0, 1.6635890937754147E9, 0.0, 2022-09-19 17:04:53.775
131.0, 23089.977871176943, 63224.56904942621, 10805.526173773549, 145123.97588777257, 187500.0, 187500.0, 11132.44278817687, 19661.689658366402, 0.638, -0.66, 0.438, 192.0, 0.0, 0.0, 0.0, 0.0, 0.0, 0.0, 0.0, 0.0, 0.0, 1.6635890937794054E9, 0.0, 2022-09-19 17:04:53.779
132.0, 23095.27523461285, 63248.932450882494, 10800.139403359819, 145148.94278632913, 187500.0, 187500.0, 11148.513692440236, 19657.50988215326, 0.638, -0.66, 0.438, 192.0, 0.0, 0.0, 0.0, 0.0, 0.0, 0.0, 0.0, 0.0, 0.0, 1.6635890937824612E9, 0.0, 2022-09-19 17:04:53.782
133.0, 23092.61537702267, 63250.675886950004, 10798.597132992403, 145151.62499566376, 187500.0, 187500.0, 11132.241622476771, 19649.686771593904, 0.638, -0.66, 0.438, 192.0, 0.0, 0.0, 0.0, 0.0, 0.0, 0.0, 0.0, 0.0, 0.0, 1.663589093786446E9, 0.0, 2022-09-19 17:04:53.786
134.0, 23076.455065781483, 63222.937372080974, 10798.999464392598, 145127.37335292978, 187500.0, 187500.0, 11105.330122152582, 19650.55848962766, 0.638, -0.66, 0.438, 192.0, 0.0, 0.0, 0.0, 0.0, 0.0, 0.0, 0.0, 0.0, 0.0, 1.663589093791463E9, 0.0, 2022-09-19 17:04:53.791
135.0, 23091.14016188862, 63217.39413945605, 10803.514516772571, 145124.22175696158, 187500.0, 187500.0, 11115.05313099064, 19655.252355963275, 0.638, -0.66, 0.438, 192.0, 0.0, 0.0, 0.0, 0.0, 0.0, 0.0, 0.0, 0.0, 0.0, 1.6635890937954874E9, 0.0, 2022-09-19 17:04:53.795
136.0, 23082.221815850953, 63229.017046572815, 10807.761348219079, 145141.0079170475, 187500.0, 187500.0, 11136.15317775645, 19659.543890898694, 0.638, -0.66, 0.438, 192.0, 0.0, 0.0, 0.0, 0.0, 0.0, 0.0, 0.0, 0.0, 0.0, 1.663589093799476E9, 0.0, 2022-09-19 17:04:53.799
137.0, 23065.301545298284, 63252.03934336178, 10800.80995569348, 145166.33244351536, 187500.0, 187500.0, 11151.262957008239, 19658.18043448692, 0.638, -0.66, 0.438, 192.0, 0.0, 0.0, 0.0, 0.0, 0.0, 0.0, 0.0, 0.0, 0.0, 1.6635890938034632E9, 0.0, 2022-09-19 17:04:53.803
138.0, 23071.202405834487, 63252.3299160397, 10802.151060360797, 145168.74643191654, 187500.0, 187500.0, 11134.052113777652, 19664.528329912227, 0.638, -0.66, 0.438, 192.0, 0.0, 0.0, 0.0, 0.0, 0.0, 0.0, 0.0, 0.0, 0.0, 1.6635890938074012E9, 0.0, 2022-09-19 17:04:53.807
139.0, 23107.345176618717, 63228.14532853906, 10798.306560314484, 145147.512274684, 187500.0, 187500.0, 11112.415625144915, 19666.60704214657, 0.638, -0.662, 0.448, 192.0, 19.0, 240.0, 235.0, 80.0, 14.0, 0.0, 0.0, 0.0, 0.0, 1.663589093810466E9, 0.0, 2022-09-19 17:04:53.810
140.0, 23109.11096443069, 63214.10843302112, 10778.413507749261, 145134.32474545538, 187500.0, 187500.0, 11106.782985542177, 19649.37384717153, 0.638, -0.662, 0.448, 192.0, 0.0, 0.0, 0.0, 0.0, 0.0, 0.0, 0.0, 0.0, 0.0, 1.663589093815503E9, 0.0, 2022-09-19 17:04:53.815
141.0, 23103.970063205965, 63220.43397670198, 10781.028661850532, 145142.4607804371, 187500.0, 187500.0, 11123.055055505642, 19646.89280353699, 0.638, -0.662, 0.448, 192.0, 0.0, 0.0, 0.0, 0.0, 0.0, 0.0, 0.0, 0.0, 0.0, 1.663589093819527E9, 0.0, 2022-09-19 17:04:53.819
142.0, 23104.551208561803, 63247.90427063755, 10792.450403267194, 145172.27800754047, 187500.0, 187500.0, 11148.223119762317, 19658.873338565034, 0.638, -0.662, 0.448, 192.0, 0.0, 0.0, 0.0, 0.0, 0.0, 0.0, 0.0, 0.0, 0.0, 1.6635890938234344E9, 0.0, 2022-09-19 17:04:53.823
143.0, 23107.412231852082, 63247.747808426364, 10800.720548715657, 145172.6579871962, 187500.0, 187500.0, 11137.606041146046, 19664.036591534208, 0.638, -0.662, 0.448, 192.0, 0.0, 0.0, 0.0, 0.0, 0.0, 0.0, 0.0, 0.0, 0.0, 1.6635890938275604E9, 0.0, 2022-09-19 17:04:53.827
144.0, 23097.28689161383, 63220.94806682445, 10798.32891205894, 145147.35581247282, 187500.0, 187500.0, 11115.813090302121, 19659.052152520675, 0.638, -0.662, 0.448, 192.0, 0.0, 0.0, 0.0, 0.0, 0.0, 0.0, 0.0, 0.0, 0.0, 1.663589093831525E9, 0.0, 2022-09-19 17:04:53.831
145.0, 23071.0459436233, 63207.60407538463, 10791.176353833242, 145136.515216412, 187500.0, 187500.0, 11113.6226193455, 19646.378713414517, 0.638, -0.662, 0.448, 192.0, 0.0, 0.0, 0.0, 0.0, 0.0, 0.0, 0.0, 0.0, 0.0, 1.6635890938355603E9, 0.0, 2022-09-19 17:04:53.835
146.0, 23076.253900081385, 63214.44370918795, 10791.623388722348, 145143.17603625965, 187500.0, 187500.0, 11127.748921841256, 19638.55560285516, 0.638, -0.662, 0.448, 192.0, 0.0, 0.0, 0.0, 0.0, 0.0, 0.0, 0.0, 0.0, 0.0, 1.6635890938384764E9, 0.0, 2022-09-19 17:04:53.838
147.0, 23104.126525417152, 63242.20457580144, 10799.222981837152, 145170.7133854286, 187500.0, 187500.0, 11154.168683787428, 19640.12022496703, 0.638, -0.662, 0.448, 192.0, 0.0, 0.0, 0.0, 0.0, 0.0, 0.0, 0.0, 0.0, 0.0, 1.663589093842576E9, 0.0, 2022-09-19 17:04:53.842
148.0, 23101.131391660143, 63242.003410101344, 10806.241429596119, 145172.50152498504, 187500.0, 187500.0, 11141.15996851444, 19639.047341233178, 0.638, -0.662, 0.448, 192.0, 0.0, 0.0, 0.0, 0.0, 0.0, 0.0, 0.0, 0.0, 0.0, 1.6635890938475883E9, 0.0, 2022-09-19 17:04:53.847
149.0, 23091.833065966734, 63210.75567135283, 10802.866316183367, 145144.3159752269, 187500.0, 187500.0, 11111.521555366702, 19649.79853031618, 0.64, -0.66, 0.446, 192.0, 20.0, 0.0, 235.0, 96.0, 13.0, 240.0, 0.0, 0.0, 0.0, 1.6635890938519092E9, 0.0, 2022-09-19 17:04:53.851
150.0, 23105.62409229566, 63202.8208020712, 10801.61461849387, 145137.99043154603, 187500.0, 187500.0, 11119.322314181605, 19665.824731090634, 0.64, -0.66, 0.446, 192.0, 0.0, 0.0, 0.0, 0.0, 0.0, 0.0, 0.0, 0.0, 0.0, 1.6635890938555856E9, 0.0, 2022-09-19 17:04:53.855
151.0, 23111.212028409485, 63212.05207253124, 10801.480508027138, 145147.82519910636, 187500.0, 187500.0, 11138.656573135446, 19661.242623477297, 0.64, -0.66, 0.446, 192.0, 0.0, 0.0, 0.0, 0.0, 0.0, 0.0, 0.0, 0.0, 0.0, 1.6635890938595989E9, 0.0, 2022-09-19 17:04:53.859
152.0, 23119.370415135672, 63229.59819192865, 10797.010159136076, 145166.17598130417, 187500.0, 187500.0, 11153.811055876144, 19654.31358269615, 0.64, -0.66, 0.446, 192.0, 0.0, 0.0, 0.0, 0.0, 0.0, 0.0, 0.0, 0.0, 0.0, 1.663589093863576E9, 0.0, 2022-09-19 17:04:53.863
153.0, 23109.84857199771, 63224.34553198166, 10795.020853879554, 145161.25859752402, 187500.0, 187500.0, 11134.163872499928, 19645.283477936206, 0.64, -0.66, 0.446, 192.0, 0.0, 0.0, 0.0, 0.0, 0.0, 0.0, 0.0, 0.0, 0.0, 1.6635890938665636E9, 0.0, 2022-09-19 17:04:53.866
154.0, 23094.29175785682, 63194.818877556194, 10792.942141645211, 145133.09539951032, 187500.0, 187500.0, 11108.302904165139, 19638.756768555257, 0.64, -0.66, 0.446, 192.0, 0.0, 0.0, 0.0, 0.0, 0.0, 0.0, 0.0, 0.0, 0.0, 1.6635890938706305E9, 0.0, 2022-09-19 17:04:53.870
155.0, 23086.870978697658, 63180.26789191579, 10792.293941056007, 145121.3607336713, 187500.0, 187500.0, 11114.382578656981, 19641.617791845536, 0.64, -0.66, 0.446, 192.0, 0.0, 0.0, 0.0, 0.0, 0.0, 0.0, 0.0, 0.0, 0.0, 1.6635890938757563E9, 0.0, 2022-09-19 17:04:53.875
156.0, 23091.38603107763, 63193.723642077886, 10793.925618401245, 145136.8057890899, 187500.0, 187500.0, 11136.734323112289, 19648.815053560145, 0.64, -0.66, 0.446, 192.0, 0.0, 0.0, 0.0, 0.0, 0.0, 0.0, 0.0, 0.0, 0.0, 1.6635890938796244E9, 0.0, 2022-09-19 17:04:53.879
157.0, 23077.550301259795, 63217.21532550041, 10789.768193932558, 145160.63274867926, 187500.0, 187500.0, 11149.363058729537, 19646.579879114615, 0.64, -0.66, 0.446, 192.0, 0.0, 0.0, 0.0, 0.0, 0.0, 0.0, 0.0, 0.0, 0.0, 1.6635890938836029E9, 0.0, 2022-09-19 17:04:53.883
158.0, 23081.774780961845, 63218.17645051199, 10789.321159043451, 145159.89514111224, 187500.0, 187500.0, 11130.92286955391, 19642.713027323847, 0.64, -0.66, 0.446, 192.0, 0.0, 0.0, 0.0, 0.0, 0.0, 0.0, 0.0, 0.0, 0.0, 1.6635890938877776E9, 0.0, 2022-09-19 17:04:53.887
159.0, 23097.488057313927, 63193.81304905571, 10793.52328700105, 145134.4141524332, 187500.0, 187500.0, 11109.845174532555, 19640.634315089505, 0.636, -0.662, 0.45, 192.0, 19.0, 224.0, 235.0, 80.0, 14.0, 16.0, 0.0, 0.0, 0.0, 1.6635890938906152E9, 0.0, 2022-09-19 17:04:53.890
160.0, 23095.029365423845, 63185.78877279625, 10791.66809221126, 145126.47928315154, 187500.0, 187500.0, 11116.43893914687, 19641.908364523457, 0.636, -0.662, 0.45, 192.0, 0.0, 0.0, 0.0, 0.0, 0.0, 0.0, 0.0, 0.0, 0.0, 1.6635890938946764E9, 0.0, 2022-09-19 17:04:53.894
161.0, 23077.259728581874, 63190.66145308751, 10786.41543226426, 145133.22950997704, 187500.0, 187500.0, 11130.565241642624, 19636.856870276555, 0.636, -0.662, 0.45, 192.0, 0.0, 0.0, 0.0, 0.0, 0.0, 0.0, 0.0, 0.0, 0.0, 1.6635890938986342E9, 0.0, 2022-09-19 17:04:53.898
162.0, 23083.249996095896, 63213.25906673182, 10786.750708431091, 145153.65900440922, 187500.0, 187500.0, 11149.58657617409, 19630.732492295803, 0.636, -0.662, 0.45, 192.0, 0.0, 0.0, 0.0, 0.0, 0.0, 0.0, 0.0, 0.0, 0.0, 1.663589093903794E9, 0.0, 2022-09-19 17:04:53.903
163.0, 23099.14208640362, 63213.5719911542, 10795.557295746481, 145152.3626032308, 187500.0, 187500.0, 11136.846081834565, 19627.290323649686, 0.636, -0.662, 0.45, 192.0, 0.0, 0.0, 0.0, 0.0, 0.0, 0.0, 0.0, 0.0, 0.0, 1.663589093907653E9, 0.0, 2022-09-19 17:04:53.907
164.0, 23073.28111806883, 63184.67118557348, 10796.406662035783, 145127.73098084104, 187500.0, 187500.0, 11112.974418756297, 19621.769442769222, 0.636, -0.662, 0.45, 192.0, 0.0, 0.0, 0.0, 0.0, 0.0, 0.0, 0.0, 0.0, 0.0, 1.6635890939117296E9, 0.0, 2022-09-19 17:04:53.911
165.0, 23058.08193183922, 63170.45547609991, 10787.197743320197, 145116.33159116886, 187500.0, 187500.0, 11116.170718213407, 19616.65089328896, 0.636, -0.662, 0.45, 192.0, 0.0, 0.0, 0.0, 0.0, 0.0, 0.0, 0.0, 0.0, 0.0, 1.663589093915687E9, 0.0, 2022-09-19 17:04:53.915
166.0, 23072.208234334976, 63181.92192100548, 10786.638949708815, 145125.4958063955, 187500.0, 187500.0, 11132.129863754495, 19622.55175382516, 0.636, -0.662, 0.45, 192.0, 0.0, 0.0, 0.0, 0.0, 0.0, 0.0, 0.0, 0.0, 0.0, 1.663589093918757E9, 0.0, 2022-09-19 17:04:53.918
167.0, 23086.312185086274, 63206.33002595068, 10787.912999142767, 145148.67456539566, 187500.0, 187500.0, 11147.77608487321, 19626.440957360384, 0.636, -0.662, 0.45, 192.0, 0.0, 0.0, 0.0, 0.0, 0.0, 0.0, 0.0, 0.0, 0.0, 1.6635890939226809E9, 0.0, 2022-09-19 17:04:53.922
168.0, 23110.317958631273, 63204.60894162762, 10786.862467153367, 145146.6182049058, 187500.0, 187500.0, 11130.185261986884, 19624.474003848318, 0.636, -0.662, 0.45, 192.0, 0.0, 0.0, 0.0, 0.0, 0.0, 0.0, 0.0, 0.0, 0.0, 1.663589093926646E9, 0.0, 2022-09-19 17:04:53.926
169.0, 23102.91953121657, 63180.40200238252, 10786.750708431091, 145122.8583005498, 187500.0, 187500.0, 11111.476851877791, 19620.16011716844, 0.64, -0.662, 0.446, 192.0, 20.0, 0.0, 235.0, 80.0, 13.0, 240.0, 0.0, 0.0, 0.0, 1.6635890939316816E9, 0.0, 2022-09-19 17:04:53.931
170.0, 23097.599816036203, 63171.17073192248, 10785.90134214179, 145113.91760276767, 187500.0, 187500.0, 11120.216383959816, 19618.662550289937, 0.64, -0.662, 0.446, 192.0, 0.0, 0.0, 0.0, 0.0, 0.0, 0.0, 0.0, 0.0, 0.0, 1.6635890939356797E9, 0.0, 2022-09-19 17:04:53.935
171.0, 23102.181923649543, 63178.189179681445, 10780.313406027963, 145121.33838192682, 187500.0, 187500.0, 11134.409741688936, 19617.477907833803, 0.64, -0.662, 0.446, 192.0, 0.0, 0.0, 0.0, 0.0, 0.0, 0.0, 0.0, 0.0, 0.0, 1.663589093939681E9, 0.0, 2022-09-19 17:04:53.939
172.0, 23102.204275393997, 63201.70321484843, 10784.47083049665, 145146.97583281706, 187500.0, 187500.0, 11152.268785508728, 19625.25631490425, 0.64, -0.662, 0.446, 192.0, 0.0, 0.0, 0.0, 0.0, 0.0, 0.0, 0.0, 0.0, 0.0, 1.66358909394271E9, 0.0, 2022-09-19 17:04:53.942
173.0, 23100.48319107094, 63195.98116826787, 10792.316292800462, 145144.6065479048, 187500.0, 187500.0, 11135.236756233782, 19631.291285907184, 0.64, -0.662, 0.446, 192.0, 0.0, 0.0, 0.0, 0.0, 0.0, 0.0, 0.0, 0.0, 0.0, 1.6635890939467068E9, 0.0, 2022-09-19 17:04:53.946
174.0, 23096.079897413245, 63163.12410391857, 10795.37848179084, 145115.37046615727, 187500.0, 187500.0, 11111.34274141106, 19628.050282961165, 0.64, -0.662, 0.446, 192.0, 0.0, 0.0, 0.0, 0.0, 0.0, 0.0, 0.0, 0.0, 0.0, 1.663589093950723E9, 0.0, 2022-09-19 17:04:53.950
175.0, 23102.67366202756, 63149.48953980083, 10795.13261260183, 145107.65911432018, 187500.0, 187500.0, 11118.875279292499, 19621.54592532467, 0.64, -0.662, 0.446, 192.0, 0.0, 0.0, 0.0, 0.0, 0.0, 0.0, 0.0, 0.0, 0.0, 1.6635890939546852E9, 0.0, 2022-09-19 17:04:53.954
176.0, 23098.270368369864, 63157.51381606029, 10787.801240420491, 145120.22079470407, 187500.0, 187500.0, 11134.655610877946, 19613.54400080967, 0.64, -0.662, 0.446, 192.0, 0.0, 0.0, 0.0, 0.0, 0.0, 0.0, 0.0, 0.0, 0.0, 1.6635890939587202E9, 0.0, 2022-09-19 17:04:53.958
177.0, 23090.71547874397, 63176.848075014124, 10780.671033939247, 145141.92433857016, 187500.0, 187500.0, 11145.071523794119, 19610.370053097016, 0.64, -0.662, 0.446, 192.0, 0.0, 0.0, 0.0, 0.0, 0.0, 0.0, 0.0, 0.0, 0.0, 1.663589093963748E9, 0.0, 2022-09-19 17:04:53.963
178.0, 23086.580406019737, 63171.39424936703, 10789.23175206563, 145139.80092284692, 187500.0, 187500.0, 11128.419474174914, 19620.56244856864, 0.64, -0.662, 0.446, 192.0, 0.0, 0.0, 0.0, 0.0, 0.0, 0.0, 0.0, 0.0, 0.0, 1.6635890939677484E9, 0.0, 2022-09-19 17:04:53.967
179.0, 23110.54147607583, 63142.24757459731, 10796.51842075806, 145115.32576266836, 187500.0, 187500.0, 11110.605133844034, 19621.50122183576, 0.64, -0.662, 0.446, 192.0, 0.0, 0.0, 0.0, 0.0, 0.0, 0.0, 0.0, 0.0, 0.0, 1.6635890939707613E9, 0.0, 2022-09-19 17:04:53.970
180.0, 23139.397578167627, 63133.91037391548, 10792.830382922933, 145107.748521298, 187500.0, 187500.0, 11120.663418848922, 19617.589666556083, 0.642, -0.662, 0.446, 192.0, 20.0, 16.0, 235.0, 80.0, 13.0, 240.0, 0.0, 0.0, 0.0, 1.6635890939747856E9, 0.0, 2022-09-19 17:04:53.974
181.0, 23137.117700233186, 63141.19704260791, 10783.889685140812, 145114.52109986797, 187500.0, 187500.0, 11132.331029454594, 19607.82195422911, 0.642, -0.662, 0.446, 192.0, 0.0, 0.0, 0.0, 0.0, 0.0, 0.0, 0.0, 0.0, 0.0, 1.6635890939789357E9, 0.0, 2022-09-19 17:04:53.978
182.0, 23116.86701975668, 63163.705249274404, 10782.548580473493, 145136.33640245633, 187500.0, 187500.0, 11141.897576081465, 19606.458497817337, 0.642, -0.662, 0.446, 192.0, 0.0, 0.0, 0.0, 0.0, 0.0, 0.0, 0.0, 0.0, 0.0, 1.663589093982825E9, 0.0, 2022-09-19 17:04:53.982
183.0, 23117.872848257168, 63158.184368393944, 10790.058766610477, 145131.508425654, 187500.0, 187500.0, 11122.563317127624, 19604.290378605176, 0.642, -0.662, 0.446, 192.0, 0.0, 0.0, 0.0, 0.0, 0.0, 0.0, 0.0, 0.0, 0.0, 1.663589093986776E9, 0.0, 2022-09-19 17:04:53.986
184.0, 23141.275124701875, 63126.8472226676, 10785.029624108032, 145106.6979893086, 187500.0, 187500.0, 11103.072595962596, 19591.415773798915, 0.642, -0.662, 0.446, 192.0, 0.0, 0.0, 0.0, 0.0, 0.0, 0.0, 0.0, 0.0, 0.0, 1.6635890939918203E9, 0.0, 2022-09-19 17:04:53.991
185.0, 23141.230421212964, 63114.35259751709, 10784.023795607543, 145101.06534970587, 187500.0, 187500.0, 11110.694540821856, 19580.172846337897, 0.642, -0.662, 0.446, 192.0, 0.0, 0.0, 0.0, 0.0, 0.0, 0.0, 0.0, 0.0, 0.0, 1.663589093995795E9, 0.0, 2022-09-19 17:04:53.995
186.0, 23132.200316453018, 63122.890963899015, 10785.230789808129, 145116.5998121023, 187500.0, 187500.0, 11132.688657365878, 19603.776288482703, 0.642, -0.662, 0.446, 192.0, 0.0, 0.0, 0.0, 0.0, 0.0, 0.0, 0.0, 0.0, 0.0, 1.663589093998784E9, 0.0, 2022-09-19 17:04:53.998
187.0, 23134.860174043202, 63141.73348447484, 10778.972301360644, 145138.83979783533, 187500.0, 187500.0, 11143.261032493238, 19606.190276883874, 0.642, -0.662, 0.446, 192.0, 0.0, 0.0, 0.0, 0.0, 0.0, 0.0, 0.0, 0.0, 0.0, 1.6635890940029233E9, 0.0, 2022-09-19 17:04:54.002
188.0, 23138.794081067335, 63135.51969951626, 10782.593283962404, 145138.12454201275, 187500.0, 187500.0, 11126.653686362944, 19600.78115472569, 0.642, -0.662, 0.446, 192.0, 0.0, 0.0, 0.0, 0.0, 0.0, 0.0, 0.0, 0.0, 0.0, 1.663589094006753E9, 0.0, 2022-09-19 17:04:54.006
189.0, 23135.77659556587, 63111.424518993445, 10785.476658997139, 145126.76985582948, 187500.0, 187500.0, 11112.527383867191, 19603.21749487132, 0.642, -0.662, 0.446, 192.0, 0.0, 0.0, 0.0, 0.0, 0.0, 0.0, 0.0, 0.0, 0.0, 1.6635890940108538E9, 0.0, 2022-09-19 17:04:54.010
190.0, 23136.268333943884, 63103.71316715636, 10796.80899343598, 145127.7086290966, 187500.0, 187500.0, 11126.832500318587, 19612.337006609083, 0.646, -0.656, 0.45, 192.0, 20.0, 48.0, 235.0, 128.0, 14.0, 16.0, 0.0, 0.0, 0.0, 1.6635890940148916E9, 0.0, 2022-09-19 17:04:54.014
191.0, 23121.33736864774, 63108.004702091785, 10799.893534170811, 145137.9680798016, 187500.0, 187500.0, 11142.031686548196, 19609.230114129798, 0.646, -0.656, 0.45, 192.0, 0.0, 0.0, 0.0, 0.0, 0.0, 0.0, 0.0, 0.0, 0.0, 1.6635890940188208E9, 0.0, 2022-09-19 17:04:54.018
192.0, 23107.881618485644, 63127.67423721245, 10803.46981328366, 145163.761992903, 187500.0, 187500.0, 11158.817846634132, 19604.625654772004, 0.646, -0.656, 0.45, 192.0, 0.0, 0.0, 0.0, 0.0, 0.0, 0.0, 0.0, 0.0, 0.0, 1.6635890940238557E9, 0.0, 2022-09-19 17:04:54.023
193.0, 23118.744566290923, 63119.82877490864, 10806.241429596119, 145161.97385334657, 187500.0, 187500.0, 11139.7294568693, 19600.60234077005, 0.646, -0.656, 0.45, 192.0, 0.0, 0.0, 0.0, 0.0, 0.0, 0.0, 0.0, 0.0, 0.0, 1.6635890940268762E9, 0.0, 2022-09-19 17:04:54.026
194.0, 23129.138127462644, 63091.88909433951, 10807.89545868581, 145143.1089810263, 187500.0, 187500.0, 11124.083235750584, 19592.39925055495, 0.646, -0.656, 0.45, 192.0, 0.0, 0.0, 0.0, 0.0, 0.0, 0.0, 0.0, 0.0, 0.0, 1.663589094030812E9, 0.0, 2022-09-19 17:04:54.030
195.0, 23122.544362848326, 63079.32741395562, 10795.289074813018, 145134.48120766654, 187500.0, 187500.0, 11126.966610785319, 19579.25642481523, 0.646, -0.656, 0.45, 192.0, 0.0, 0.0, 0.0, 0.0, 0.0, 0.0, 0.0, 0.0, 0.0, 1.6635890940349002E9, 0.0, 2022-09-19 17:04:54.034
196.0, 23110.34031037573, 63086.09999252558, 10793.411528278772, 145147.37816421725, 187500.0, 187500.0, 11141.405837703447, 19578.0717823591, 0.646, -0.656, 0.45, 192.0, 0.0, 0.0, 0.0, 0.0, 0.0, 0.0, 0.0, 0.0, 0.0, 1.6635890940389023E9, 0.0, 2022-09-19 17:04:54.038
197.0, 23122.0079209814, 63108.87642012554, 10791.064595110965, 145175.45195525314, 187500.0, 187500.0, 11155.934471599398, 19576.55186373614, 0.646, -0.656, 0.45, 192.0, 0.0, 0.0, 0.0, 0.0, 0.0, 0.0, 0.0, 0.0, 0.0, 1.6635890940429132E9, 0.0, 2022-09-19 17:04:54.042
198.0, 23132.24501994193, 63102.72969040033, 10785.856638652878, 145171.24982729554, 187500.0, 187500.0, 11133.225099232806, 19568.52758747668, 0.646, -0.656, 0.45, 192.0, 0.0, 0.0, 0.0, 0.0, 0.0, 0.0, 0.0, 0.0, 0.0, 1.6635890940469007E9, 0.0, 2022-09-19 17:04:54.046
199.0, 23126.634732083647, 63076.24287322079, 10782.682690940224, 145149.38982121824, 187500.0, 187500.0, 11111.879183277988, 19569.667526443904, 0.646, -0.656, 0.45, 192.0, 0.0, 0.0, 0.0, 0.0, 0.0, 0.0, 0.0, 0.0, 0.0, 1.663589094051948E9, 0.0, 2022-09-19 17:04:54.051
200.0, 23114.520086588873, 63071.57135862963, 10782.258007795574, 145151.55794043042, 187500.0, 187500.0, 11118.227078703294, 19579.725811448792, 0.648, -0.658, 0.452, 192.0, 20.0, 64.0, 235.0, 112.0, 14.0, 32.0, 0.0, 0.0, 0.0, 1.6635890940548909E9, 0.0, 2022-09-19 17:04:54.054
201.0, 23104.61826379517, 63084.44596343589, 10785.700176441691, 145170.42281275068, 187500.0, 187500.0, 11135.482625422792, 19591.862808688024, 0.648, -0.658, 0.452, 192.0, 0.0, 0.0, 0.0, 0.0, 0.0, 0.0, 0.0, 0.0, 0.0, 1.6635890940579314E9, 0.0, 2022-09-19 17:04:54.057
202.0, 23094.582330534737, 63107.69177766941, 10793.500935256594, 145196.015560152, 187500.0, 187500.0, 11147.35140172856, 19606.190276883874, 0.648, -0.658, 0.452, 192.0, 0.0, 0.0, 0.0, 0.0, 0.0, 0.0, 0.0, 0.0, 0.0, 1.6635890940629182E9, 0.0, 2022-09-19 17:04:54.062
203.0, 23101.04198468232, 63099.86866711005, 10799.826478937446, 145189.24298158207, 187500.0, 187500.0, 11127.681866607889, 19611.55469555315, 0.648, -0.658, 0.452, 192.0, 0.0, 0.0, 0.0, 0.0, 0.0, 0.0, 0.0, 0.0, 0.0, 1.6635890940668814E9, 0.0, 2022-09-19 17:04:54.066
204.0, 23131.015673996888, 63077.651033121474, 10804.56504876197, 145170.4675162396, 187500.0, 187500.0, 11116.170718213407, 19611.420585086416, 0.648, -0.658, 0.452, 192.0, 0.0, 0.0, 0.0, 0.0, 0.0, 0.0, 0.0, 0.0, 0.0, 1.6635890940708807E9, 0.0, 2022-09-19 17:04:54.070
205.0, 23139.218764211986, 63070.20790221786, 10799.446499281705, 145167.5617894604, 187500.0, 187500.0, 11123.546793883657, 19611.10766066404, 0.648, -0.658, 0.452, 192.0, 0.0, 0.0, 0.0, 0.0, 0.0, 0.0, 0.0, 0.0, 0.0, 1.6635890940750113E9, 0.0, 2022-09-19 17:04:54.075
206.0, 23144.58318288126, 63081.7414023568, 10801.212287093675, 145180.5705047334, 187500.0, 187500.0, 11145.809131361144, 19615.041567688175, 0.648, -0.658, 0.452, 192.0, 0.0, 0.0, 0.0, 0.0, 0.0, 0.0, 0.0, 0.0, 0.0, 1.6635890940789156E9, 0.0, 2022-09-19 17:04:54.078
207.0, 23150.327581206275, 63103.28848401171, 10802.218115594163, 145203.61515326682, 187500.0, 187500.0, 11163.757582158754, 19606.234980372785, 0.648, -0.658, 0.452, 192.0, 0.0, 0.0, 0.0, 0.0, 0.0, 0.0, 0.0, 0.0, 0.0, 1.663589094081932E9, 0.0, 2022-09-19 17:04:54.081
208.0, 23149.94760155053, 63098.214638020356, 10795.646702724303, 145199.0777491424, 187500.0, 187500.0, 11142.881052837498, 19591.59458775456, 0.648, -0.658, 0.452, 192.0, 0.0, 0.0, 0.0, 0.0, 0.0, 0.0, 0.0, 0.0, 0.0, 1.6635890940869565E9, 0.0, 2022-09-19 17:04:54.086
209.0, 23143.01856076939, 63072.51013189676, 10789.388214276816, 145173.03796685196, 187500.0, 187500.0, 11122.652724105445, 19579.703459704335, 0.648, -0.658, 0.452, 192.0, 0.0, 0.0, 0.0, 0.0, 0.0, 0.0, 0.0, 0.0, 0.0, 1.663589094090954E9, 0.0, 2022-09-19 17:04:54.090
210.0, 23142.079787502265, 63067.39158241649, 10785.789583419513, 145168.23234179406, 187500.0, 187500.0, 11131.168738742917, 19574.361392779516, 0.64, -0.66, 0.456, 192.0, 20.0, 0.0, 235.0, 96.0, 14.0, 64.0, 0.0, 0.0, 0.0, 1.663589094094976E9, 0.0, 2022-09-19 17:04:54.094
211.0, 23145.074921259275, 63079.99796628928, 10780.693385683702, 145180.92813264468, 187500.0, 187500.0, 11149.49716919627, 19581.133971349474, 0.64, -0.66, 0.456, 192.0, 0.0, 0.0, 0.0, 0.0, 0.0, 0.0, 0.0, 0.0, 0.0, 1.6635890940989842E9, 0.0, 2022-09-19 17:04:54.098
212.0, 23128.601685595713, 63098.01347232026, 10775.239560036607, 145201.64819975474, 187500.0, 187500.0, 11157.163817544439, 19580.50812250473, 0.64, -0.66, 0.456, 192.0, 0.0, 0.0, 0.0, 0.0, 0.0, 0.0, 0.0, 0.0, 0.0, 1.663589094102996E9, 0.0, 2022-09-19 17:04:54.102
213.0, 23132.267371686386, 63090.34682397209, 10777.139458315309, 145195.523821774, 187500.0, 187500.0, 11136.555509156646, 19575.858959658024, 0.64, -0.66, 0.456, 192.0, 0.0, 0.0, 0.0, 0.0, 0.0, 0.0, 0.0, 0.0, 0.0, 1.663589094106977E9, 0.0, 2022-09-19 17:04:54.106
214.0, 23157.480139431973, 63069.5373498842, 10781.341586272907, 145177.17303957618, 187500.0, 187500.0, 11126.58663112958, 19573.26615730121, 0.64, -0.66, 0.456, 192.0, 0.0, 0.0, 0.0, 0.0, 0.0, 0.0, 0.0, 0.0, 0.0, 1.663589094109947E9, 0.0, 2022-09-19 17:04:54.109
215.0, 23169.34891573774, 63071.90663479646, 10775.463077481161, 145179.13999308826, 187500.0, 187500.0, 11136.041419034174, 19569.44400899935, 0.64, -0.66, 0.456, 192.0, 0.0, 0.0, 0.0, 0.0, 0.0, 0.0, 0.0, 0.0, 0.0, 1.663589094114059E9, 0.0, 2022-09-19 17:04:54.114
216.0, 23165.996154069442, 63085.47414368083, 10776.51360947056, 145196.30613282992, 187500.0, 187500.0, 11156.202692532861, 19577.40123002544, 0.64, -0.66, 0.456, 192.0, 0.0, 0.0, 0.0, 0.0, 0.0, 0.0, 0.0, 0.0, 0.0, 1.6635890941190617E9, 0.0, 2022-09-19 17:04:54.119
217.0, 23167.940755837055, 63104.87545786804, 10778.346452515896, 145218.45671158514, 187500.0, 187500.0, 11163.444657736381, 19585.514913262716, 0.64, -0.66, 0.456, 192.0, 0.0, 0.0, 0.0, 0.0, 0.0, 0.0, 0.0, 0.0, 0.0, 1.6635890941229954E9, 0.0, 2022-09-19 17:04:54.122
218.0, 23152.227479484973, 63094.794821118696, 10782.973263618143, 145215.39452259475, 187500.0, 187500.0, 11137.96366905733, 19581.268081816208, 0.64, -0.66, 0.456, 192.0, 0.0, 0.0, 0.0, 0.0, 0.0, 0.0, 0.0, 0.0, 0.0, 1.6635890941270785E9, 0.0, 2022-09-19 17:04:54.127
219.0, 23127.61820883968, 63064.75407657076, 10788.114164842864, 145195.21089735162, 187500.0, 187500.0, 11117.467119391815, 19581.960985894322, 0.64, -0.66, 0.456, 192.0, 0.0, 0.0, 0.0, 0.0, 0.0, 0.0, 0.0, 0.0, 0.0, 1.663589094131078E9, 0.0, 2022-09-19 17:04:54.131
220.0, 23107.166362663076, 63057.08742822259, 10792.383348033829, 145196.06026364092, 187500.0, 187500.0, 11125.53609914018, 19593.963872666824, 0.64, -0.664, 0.458, 192.0, 20.0, 0.0, 235.0, 64.0, 14.0, 80.0, 0.0, 0.0, 0.0, 1.6635890941340327E9, 0.0, 2022-09-19 17:04:54.134
221.0, 23097.53276080284, 63071.68311735191, 10793.23271432313, 145215.10394991684, 187500.0, 187500.0, 11144.400971460458, 19591.885160432477, 0.64, -0.664, 0.458, 192.0, 0.0, 0.0, 0.0, 0.0, 0.0, 0.0, 0.0, 0.0, 0.0, 1.6635890941380036E9, 0.0, 2022-09-19 17:04:54.138
222.0, 23109.356833619695, 63098.66167290946, 10793.99267363461, 145246.79872355447, 187500.0, 187500.0, 11158.661384422945, 19590.655814487436, 0.64, -0.664, 0.458, 192.0, 0.0, 0.0, 0.0, 0.0, 0.0, 0.0, 0.0, 0.0, 0.0, 1.66358909414211E9, 0.0, 2022-09-19 17:04:54.142
223.0, 23103.634787039136, 63089.96684431635, 10794.819688179456, 145245.2788049315, 187500.0, 187500.0, 11134.990887044774, 19592.44395404386, 0.64, -0.664, 0.458, 192.0, 0.0, 0.0, 0.0, 0.0, 0.0, 0.0, 0.0, 0.0, 0.0, 1.663589094147014E9, 0.0, 2022-09-19 17:04:54.147
224.0, 23093.509446800883, 63065.3352219266, 10795.669054468759, 145227.08448494488, 187500.0, 187500.0, 11119.121148481507, 19604.26802686072, 0.64, -0.664, 0.458, 192.0, 0.0, 0.0, 0.0, 0.0, 0.0, 0.0, 0.0, 0.0, 0.0, 1.6635890941511006E9, 0.0, 2022-09-19 17:04:54.151
225.0, 23101.019632937867, 63059.4343613904, 10785.633121208326, 145225.51986283303, 187500.0, 187500.0, 11125.78196832919, 19598.881256446988, 0.64, -0.664, 0.458, 192.0, 0.0, 0.0, 0.0, 0.0, 0.0, 0.0, 0.0, 0.0, 0.0, 1.6635890941550891E9, 0.0, 2022-09-19 17:04:54.155
226.0, 23128.221705939974, 63079.72974535582, 10795.356130046384, 145248.40804915526, 187500.0, 187500.0, 11153.364020987037, 19601.20583787034, 0.64, -0.664, 0.458, 192.0, 0.0, 0.0, 0.0, 0.0, 0.0, 0.0, 0.0, 0.0, 0.0, 1.6635890941590967E9, 0.0, 2022-09-19 17:04:54.159
227.0, 23146.371322437684, 63103.51200145626, 10791.578685233437, 145272.8385058449, 187500.0, 187500.0, 11163.332899014104, 19596.02023315671, 0.64, -0.664, 0.458, 192.0, 0.0, 0.0, 0.0, 0.0, 0.0, 0.0, 0.0, 0.0, 0.0, 1.6635890941621037E9, 0.0, 2022-09-19 17:04:54.162
228.0, 23127.238229183942, 63090.01154780526, 10790.438746266216, 145259.5839213829, 187500.0, 187500.0, 11135.370866700516, 19589.560579009125, 0.64, -0.664, 0.458, 192.0, 0.0, 0.0, 0.0, 0.0, 0.0, 0.0, 0.0, 0.0, 0.0, 1.663589094166093E9, 0.0, 2022-09-19 17:04:54.166
229.0, 23139.53168863436, 63068.41976266143, 10794.551467245992, 145236.91925250523, 187500.0, 187500.0, 11123.323276439105, 19592.533361021684, 0.64, -0.664, 0.458, 192.0, 0.0, 0.0, 0.0, 0.0, 0.0, 0.0, 0.0, 0.0, 0.0, 1.6635890941700747E9, 0.0, 2022-09-19 17:04:54.170
230.0, 23132.133261219653, 63063.52473062572, 10790.304635799484, 145234.23704317058, 187500.0, 187500.0, 11132.688657365878, 19595.461439545328, 0.638, -0.666, 0.46, 192.0, 19.0, 240.0, 235.0, 48.0, 14.0, 96.0, 0.0, 0.0, 0.0, 1.6635890941751096E9, 0.0, 2022-09-19 17:04:54.175
231.0, 23141.856270057713, 63075.92994879842, 10793.18801083422, 145249.50328463357, 187500.0, 187500.0, 11153.8334076206, 19593.58389301108, 0.638, -0.666, 0.46, 192.0, 0.0, 0.0, 0.0, 0.0, 0.0, 0.0, 0.0, 0.0, 0.0, 1.6635890941791232E9, 0.0, 2022-09-19 17:04:54.179
232.0, 23142.258601457906, 63097.47703045333, 10787.354205531385, 145269.10576452088, 187500.0, 187500.0, 11165.791590904188, 19588.577102253093, 0.638, -0.666, 0.46, 192.0, 0.0, 0.0, 0.0, 0.0, 0.0, 0.0, 0.0, 0.0, 0.0, 1.6635890941831186E9, 0.0, 2022-09-19 17:04:54.183
233.0, 23124.757185549402, 63087.12817277053, 10781.65451069528, 145259.40510742727, 187500.0, 187500.0, 11143.43984644888, 19587.750087708246, 0.638, -0.666, 0.46, 192.0, 0.0, 0.0, 0.0, 0.0, 0.0, 0.0, 0.0, 0.0, 0.0, 1.6635890941871192E9, 0.0, 2022-09-19 17:04:54.187
234.0, 23107.546342318816, 63059.76963755723, 10771.596225690393, 145233.76765653703, 187500.0, 187500.0, 11122.317447938616, 19582.385669038973, 0.638, -0.666, 0.46, 192.0, 0.0, 0.0, 0.0, 0.0, 0.0, 0.0, 0.0, 0.0, 0.0, 1.6635890941901734E9, 0.0, 2022-09-19 17:04:54.190
235.0, 23104.864132984178, 63051.499492108764, 10765.22597852063, 145226.63745005577, 187500.0, 187500.0, 11129.470006164314, 19572.372087522996, 0.638, -0.666, 0.46, 192.0, 0.0, 0.0, 0.0, 0.0, 0.0, 0.0, 0.0, 0.0, 0.0, 1.6635890941941192E9, 0.0, 2022-09-19 17:04:54.194
236.0, 23150.171118995087, 63068.4868178948, 10766.231807021119, 145243.8259415419, 187500.0, 187500.0, 11156.448561721869, 19570.807465411122, 0.638, -0.666, 0.46, 192.0, 0.0, 0.0, 0.0, 0.0, 0.0, 0.0, 0.0, 0.0, 0.0, 1.6635890941981194E9, 0.0, 2022-09-19 17:04:54.198
237.0, 23166.107912791722, 63091.66557689495, 10750.630289391314, 145269.9998342991, 187500.0, 187500.0, 11165.769239159732, 19565.711267675313, 0.638, -0.666, 0.46, 192.0, 0.0, 0.0, 0.0, 0.0, 0.0, 0.0, 0.0, 0.0, 0.0, 1.6635890942031379E9, 0.0, 2022-09-19 17:04:54.203
238.0, 23142.57152588028, 63078.81332383315, 10746.22699573362, 145261.3273574504, 187500.0, 187500.0, 11133.560375399635, 19561.375029250983, 0.638, -0.666, 0.46, 192.0, 0.0, 0.0, 0.0, 0.0, 0.0, 0.0, 0.0, 0.0, 0.0, 1.66358909420723E9, 0.0, 2022-09-19 17:04:54.207
239.0, 23131.68622633055, 63054.71814331033, 10744.841187577389, 145240.20495894016, 187500.0, 187500.0, 11116.371883913504, 19562.87259612949, 0.638, -0.666, 0.46, 192.0, 0.0, 0.0, 0.0, 0.0, 0.0, 0.0, 0.0, 0.0, 0.0, 1.6635890942111676E9, 0.0, 2022-09-19 17:04:54.211
240.0, 23128.981665251456, 63052.17004444243, 10737.956850285156, 145238.84150252838, 187500.0, 187500.0, 11123.055055505642, 19557.82110188259, 0.636, -0.664, 0.454, 192.0, 19.0, 224.0, 235.0, 64.0, 14.0, 48.0, 0.0, 0.0, 0.0, 1.66358909421514E9, 0.0, 2022-09-19 17:04:54.215
241.0, 23122.566714592784, 63060.37313465752, 10728.189137958187, 145249.21271195565, 187500.0, 187500.0, 11133.940355055376, 19536.408130694406, 0.636, -0.664, 0.454, 192.0, 0.0, 0.0, 0.0, 0.0, 0.0, 0.0, 0.0, 0.0, 0.0, 1.6635890942181687E9, 0.0, 2022-09-19 17:04:54.218
242.0, 23132.446185642028, 63076.86872206554, 10727.451530391161, 145268.9940057986, 187500.0, 187500.0, 11140.377657458504, 19544.879441842968, 0.636, -0.664, 0.454, 192.0, 0.0, 0.0, 0.0, 0.0, 0.0, 0.0, 0.0, 0.0, 0.0, 1.6635890942221613E9, 0.0, 2022-09-19 17:04:54.222
243.0, 23113.067223199276, 63064.8881870375, 10727.518585624526, 145262.1767237397, 187500.0, 187500.0, 11111.745072811256, 19560.212738539307, 0.636, -0.664, 0.454, 192.0, 0.0, 0.0, 0.0, 0.0, 0.0, 0.0, 0.0, 0.0, 0.0, 1.663589094226208E9, 0.0, 2022-09-19 17:04:54.226
244.0, 23089.687298499026, 63043.6316780605, 10729.574946114415, 145246.35168866537, 187500.0, 187500.0, 11095.540058081158, 19567.812331654113, 0.636, -0.664, 0.454, 192.0, 0.0, 0.0, 0.0, 0.0, 0.0, 0.0, 0.0, 0.0, 0.0, 1.6635890942302103E9, 0.0, 2022-09-19 17:04:54.230
245.0, 23075.13631285862, 63043.8775472495, 10738.068609007432, 145249.25741544456, 187500.0, 187500.0, 11106.827689031088, 19575.523683491192, 0.636, -0.664, 0.454, 192.0, 0.0, 0.0, 0.0, 0.0, 0.0, 0.0, 0.0, 0.0, 0.0, 1.6635890942351737E9, 0.0, 2022-09-19 17:04:54.235
246.0, 23079.584310005226, 63063.457675392354, 10747.36693470084, 145273.91138957875, 187500.0, 187500.0, 11135.147349255962, 19579.63640447097, 0.636, -0.664, 0.454, 192.0, 0.0, 0.0, 0.0, 0.0, 0.0, 0.0, 0.0, 0.0, 0.0, 1.6635890942392027E9, 0.0, 2022-09-19 17:04:54.239
247.0, 23080.0984001277, 63084.98240530281, 10756.933481327711, 145297.58188695693, 187500.0, 187500.0, 11150.97238433032, 19577.20006432534, 0.636, -0.664, 0.454, 192.0, 0.0, 0.0, 0.0, 0.0, 0.0, 0.0, 0.0, 0.0, 0.0, 1.663589094242398E9, 0.0, 2022-09-19 17:04:54.242
248.0, 23100.326728859753, 63074.14180924199, 10767.349394243884, 145288.88705836382, 187500.0, 187500.0, 11131.593421887568, 19598.858904702534, 0.636, -0.664, 0.454, 192.0, 0.0, 0.0, 0.0, 0.0, 0.0, 0.0, 0.0, 0.0, 0.0, 1.6635890942462294E9, 0.0, 2022-09-19 17:04:54.246
249.0, 23111.636711554136, 63053.44409387638, 10779.8440193944, 145270.6927383772, 187500.0, 187500.0, 11122.362151427526, 19613.946332209867, 0.636, -0.664, 0.454, 192.0, 0.0, 0.0, 0.0, 0.0, 0.0, 0.0, 0.0, 0.0, 0.0, 1.6635890942502177E9, 0.0, 2022-09-19 17:04:54.250
250.0, 23126.746490805923, 63059.32260266812, 10803.581572005936, 145278.67231114773, 187500.0, 187500.0, 11151.598233175067, 19627.536192838692, 0.636, -0.664, 0.45, 192.0, 19.0, 224.0, 235.0, 64.0, 14.0, 16.0, 0.0, 0.0, 0.0, 1.6635890942542136E9, 0.0, 2022-09-19 17:04:54.254
251.0, 23143.19737472503, 63084.31185296916, 10806.196726107208, 145304.51092773807, 187500.0, 187500.0, 11180.856666667065, 19638.868527277533, 0.636, -0.664, 0.45, 192.0, 0.0, 0.0, 0.0, 0.0, 0.0, 0.0, 0.0, 0.0, 0.0, 1.663589094258319E9, 0.0, 2022-09-19 17:04:54.258
252.0, 23146.751302093424, 63108.38468174752, 10800.206458593186, 145328.82962570543, 187500.0, 187500.0, 11191.250227838782, 19639.94141101139, 0.636, -0.664, 0.45, 192.0, 0.0, 0.0, 0.0, 0.0, 0.0, 0.0, 0.0, 0.0, 0.0, 1.6635890942633505E9, 0.0, 2022-09-19 17:04:54.263
253.0, 23131.73092981946, 63092.78316411772, 10787.644778209304, 145313.00459063108, 187500.0, 187500.0, 11162.863512380543, 19619.48956483478, 0.636, -0.664, 0.45, 192.0, 0.0, 0.0, 0.0, 0.0, 0.0, 0.0, 0.0, 0.0, 0.0, 1.6635890942672307E9, 0.0, 2022-09-19 17:04:54.267
254.0, 23138.369397922685, 63069.93968128439, 10784.806106663478, 145291.47986072063, 187500.0, 187500.0, 11150.458294207847, 19619.10958517904, 0.636, -0.664, 0.45, 192.0, 0.0, 0.0, 0.0, 0.0, 0.0, 0.0, 0.0, 0.0, 0.0, 1.6635890942702627E9, 0.0, 2022-09-19 17:04:54.270
255.0, 23146.214860226497, 63074.11945749754, 10803.425109794749, 145296.41959624525, 187500.0, 187500.0, 11171.133657829007, 19642.22128894583, 0.636, -0.664, 0.45, 192.0, 0.0, 0.0, 0.0, 0.0, 0.0, 0.0, 0.0, 0.0, 0.0, 1.6635890942742343E9, 0.0, 2022-09-19 17:04:54.274
0.0, 23134.703711832015, 63084.66948088044, 10786.013100864066, 145307.75193068408, 187500.0, 187500.0, 11184.902332413476, 19637.706236565857, 0.636, -0.664, 0.45, 192.0, 0.0, 0.0, 0.0, 0.0, 0.0, 0.0, 0.0, 0.0, 0.0, 1.6635890942782474E9, 0.0, 2022-09-19 17:04:54.278
1.0, 23138.548211878326, 63106.30596951318, 10786.683653197724, 145328.38259081633, 187500.0, 187500.0, 11194.267713340249, 19644.501166880273, 0.636, -0.664, 0.45, 192.0, 0.0, 0.0, 0.0, 0.0, 0.0, 0.0, 0.0, 0.0, 0.0, 1.6635890942822702E9, 0.0, 2022-09-19 17:04:54.282
2.0, 23167.784293625868, 63105.25543752378, 10813.393987821817, 145329.8578059504, 187500.0, 187500.0, 11185.68464346941, 19663.433094433916, 0.636, -0.664, 0.45, 192.0, 0.0, 0.0, 0.0, 0.0, 0.0, 0.0, 0.0, 0.0, 0.0, 1.6635890942862935E9, 0.0, 2022-09-19 17:04:54.286
3.0, 23168.588956426258, 63083.66365237995, 10821.060636169987, 145312.803424931, 187500.0, 187500.0, 11178.643843965989, 19667.724629369335, 0.636, -0.664, 0.45, 192.0, 0.0, 0.0, 0.0, 0.0, 0.0, 0.0, 0.0, 0.0, 0.0, 1.6635890942912767E9, 0.0, 2022-09-19 17:04:54.291
4.0, 23159.15652026612, 63076.37698368752, 10804.52034527306, 145308.55659348448, 187500.0, 187500.0, 11182.30953005666, 19660.125036254532, 0.638, -0.668, 0.442, 192.0, 19.0, 240.0, 235.0, 32.0, 13.0, 208.0, 0.0, 0.0, 0.0, 1.6635890942952662E9, 0.0, 2022-09-19 17:04:54.295
5.0, 23162.30811623432, 63095.37596647453, 10800.228810337641, 145330.4613030507, 187500.0, 187500.0, 11199.922704687442, 19656.03466701921, 0.638, -0.668, 0.442, 192.0, 0.0, 0.0, 0.0, 0.0, 0.0, 0.0, 0.0, 0.0, 0.0, 1.663589094298344E9, 0.0, 2022-09-19 17:04:54.298
6.0, 23180.41302924312, 63122.51098424328, 10803.80508945049, 145359.22799816466, 187500.0, 187500.0, 11212.774957749243, 19655.811149574656, 0.638, -0.668, 0.442, 192.0, 0.0, 0.0, 0.0, 0.0, 0.0, 0.0, 0.0, 0.0, 0.0, 1.663589094302292E9, 0.0, 2022-09-19 17:04:54.302
7.0, 23188.280843291384, 63115.53723997322, 10804.430938295238, 145353.2153789062, 187500.0, 187500.0, 11190.177344104928, 19662.002582788777, 0.638, -0.668, 0.442, 192.0, 0.0, 0.0, 0.0, 0.0, 0.0, 0.0, 0.0, 0.0, 0.0, 1.6635890943062844E9, 0.0, 2022-09-19 17:04:54.306
8.0, 23170.555909938324, 63091.375004217036, 10802.173412105252, 145334.01523041909, 187500.0, 187500.0, 11174.329957286116, 19700.157010573985, 0.638, -0.668, 0.442, 192.0, 0.0, 0.0, 0.0, 0.0, 0.0, 0.0, 0.0, 0.0, 0.0, 1.6635890943103285E9, 0.0, 2022-09-19 17:04:54.310
9.0, 23170.041819815855, 63092.134963528515, 10797.300731813995, 145336.98801243163, 187500.0, 187500.0, 11186.243437080793, 19705.02969086524, 0.638, -0.668, 0.442, 192.0, 0.0, 0.0, 0.0, 0.0, 0.0, 0.0, 0.0, 0.0, 0.0, 1.6635890943144112E9, 0.0, 2022-09-19 17:04:54.314
10.0, 23166.934927336566, 63106.06010032417, 10781.051013594988, 145349.4602858377, 187500.0, 187500.0, 11195.273541840737, 19688.399992990493, 0.638, -0.668, 0.442, 192.0, 0.0, 0.0, 0.0, 0.0, 0.0, 0.0, 0.0, 0.0, 0.0, 1.6635890943184488E9, 0.0, 2022-09-19 17:04:54.318
11.0, 23171.740552394458, 63126.08726335612, 10781.207475806175, 145370.33681515895, 187500.0, 187500.0, 11198.40278606448, 19690.590463947115, 0.638, -0.668, 0.442, 192.0, 0.0, 0.0, 0.0, 0.0, 0.0, 0.0, 0.0, 0.0, 0.0, 1.6635890943233132E9, 0.0, 2022-09-19 17:04:54.323
12.0, 23170.220633771496, 63113.41382424997, 10794.618522479359, 145360.63615806535, 187500.0, 187500.0, 11175.626358464522, 19701.296949541207, 0.638, -0.668, 0.442, 192.0, 0.0, 0.0, 0.0, 0.0, 0.0, 0.0, 0.0, 0.0, 0.0, 1.6635890943264613E9, 0.0, 2022-09-19 17:04:54.326
13.0, 23148.047703271834, 63089.20688500487, 10794.909095157278, 145339.5137595551, 187500.0, 187500.0, 11158.393163489482, 19675.86066435107, 0.638, -0.668, 0.442, 192.0, 0.0, 0.0, 0.0, 0.0, 0.0, 0.0, 0.0, 0.0, 0.0, 1.6635890943303328E9, 0.0, 2022-09-19 17:04:54.330
14.0, 23133.04968274232, 63088.916312326946, 10796.674882969248, 145341.57012004498, 187500.0, 187500.0, 11170.820733406632, 19682.02974582073, 0.642, -0.66, 0.444, 192.0, 20.0, 16.0, 235.0, 96.0, 13.0, 224.0, 0.0, 0.0, 0.0, 1.6635890943344848E9, 0.0, 2022-09-19 17:04:54.334
15.0, 23130.881563530158, 63105.94834160189, 10786.393080519805, 145362.75957378861, 187500.0, 187500.0, 11186.73517545881, 19697.22893205034, 0.642, -0.66, 0.444, 192.0, 0.0, 0.0, 0.0, 0.0, 0.0, 0.0, 0.0, 0.0, 0.0, 1.6635890943383324E9, 0.0, 2022-09-19 17:04:54.338
16.0, 23135.933057777056, 63127.785995934726, 10783.912036885267, 145382.49616414265, 187500.0, 187500.0, 11189.618550493546, 19716.116156115077, 0.642, -0.66, 0.444, 192.0, 0.0, 0.0, 0.0, 0.0, 0.0, 0.0, 0.0, 0.0, 0.0, 1.6635890943423932E9, 0.0, 2022-09-19 17:04:54.342
17.0, 23129.495755373926, 63117.90652488548, 10790.103470099386, 145370.91796051478, 187500.0, 187500.0, 11166.953881615864, 19725.101557386108, 0.642, -0.66, 0.444, 192.0, 0.0, 0.0, 0.0, 0.0, 0.0, 0.0, 0.0, 0.0, 0.0, 1.66358909434643E9, 0.0, 2022-09-19 17:04:54.346
18.0, 23137.87765954467, 63096.71707114185, 10811.516441287571, 145351.94132947223, 187500.0, 187500.0, 11161.96944260233, 19727.493194042825, 0.642, -0.66, 0.444, 192.0, 0.0, 0.0, 0.0, 0.0, 0.0, 0.0, 0.0, 0.0, 0.0, 1.6635890943504164E9, 0.0, 2022-09-19 17:04:54.350
19.0, 23133.608476353704, 63089.22923674932, 10805.749691218101, 145347.2027596477, 187500.0, 187500.0, 11170.172532817429, 19701.296949541207, 0.642, -0.66, 0.444, 192.0, 0.0, 0.0, 0.0, 0.0, 0.0, 0.0, 0.0, 0.0, 0.0, 1.6635890943534317E9, 0.0, 2022-09-19 17:04:54.353
20.0, 23111.636711554136, 63103.176725289435, 10801.189935349219, 145362.62546332186, 187500.0, 187500.0, 11185.662291724955, 19691.41747849196, 0.642, -0.66, 0.444, 192.0, 0.0, 0.0, 0.0, 0.0, 0.0, 0.0, 0.0, 0.0, 0.0, 1.6635890943585224E9, 0.0, 2022-09-19 17:04:54.358
21.0, 23125.695958816526, 63127.093091856616, 10815.204479122696, 145386.22890546668, 187500.0, 187500.0, 11202.962541933364, 19718.463089282883, 0.642, -0.66, 0.444, 192.0, 0.0, 0.0, 0.0, 0.0, 0.0, 0.0, 0.0, 0.0, 0.0, 1.6635890943624213E9, 0.0, 2022-09-19 17:04:54.362
22.0, 23142.996209024932, 63112.63151319403, 10811.158813376285, 145370.69444307024, 187500.0, 187500.0, 11180.521390500235, 19712.38341479104, 0.642, -0.66, 0.444, 192.0, 0.0, 0.0, 0.0, 0.0, 0.0, 0.0, 0.0, 0.0, 0.0, 1.6635890943663878E9, 0.0, 2022-09-19 17:04:54.366
23.0, 23148.67355211658, 63092.559646673166, 10825.598040294415, 145354.46707659567, 187500.0, 187500.0, 11176.565131731646, 19730.08599639964, 0.642, -0.66, 0.444, 192.0, 0.0, 0.0, 0.0, 0.0, 0.0, 0.0, 0.0, 0.0, 0.0, 1.6635890943704228E9, 0.0, 2022-09-19 17:04:54.370
24.0, 23150.841671328744, 63091.30794898367, 10834.292868887529, 145354.64589055133, 187500.0, 187500.0, 11196.659349996968, 19717.680778226946, 0.642, -0.66, 0.444, 192.0, 0.0, 0.0, 0.0, 0.0, 0.0, 0.0, 0.0, 0.0, 0.0, 1.6635890943744206E9, 0.0, 2022-09-19 17:04:54.374
25.0, 23149.880546317167, 63109.36815850356, 10838.71851428968, 145372.0131959931, 187500.0, 187500.0, 11218.899335729997, 19732.790557478733, 0.646, -0.656, 0.45, 192.0, 20.0, 48.0, 235.0, 128.0, 14.0, 16.0, 0.0, 0.0, 0.0, 1.6635890943784387E9, 0.0, 2022-09-19 17:04:54.378
26.0, 23159.67061038859, 63131.2505163253, 10838.472645100672, 145390.67690261328, 187500.0, 187500.0, 11231.885699258532, 19724.654522497003, 0.646, -0.656, 0.45, 192.0, 0.0, 0.0, 0.0, 0.0, 0.0, 0.0, 0.0, 0.0, 0.0, 1.6635890943815072E9, 0.0, 2022-09-19 17:04:54.381
27.0, 23164.699752891036, 63116.6995306849, 10825.9556682057, 145373.62252159388, 187500.0, 187500.0, 11202.269637855248, 19701.9004466415, 0.646, -0.656, 0.45, 192.0, 0.0, 0.0, 0.0, 0.0, 0.0, 0.0, 0.0, 0.0, 0.0, 1.663589094386506E9, 0.0, 2022-09-19 17:04:54.386
28.0, 23158.57537491028, 63091.68792863941, 10818.825461724457, 145352.813047506, 187500.0, 187500.0, 11182.555399245668, 19708.31539730017, 0.646, -0.656, 0.45, 192.0, 0.0, 0.0, 0.0, 0.0, 0.0, 0.0, 0.0, 0.0, 0.0, 1.6635890943905144E9, 0.0, 2022-09-19 17:04:54.390
29.0, 23146.974819537976, 63087.53050417072, 10803.000426650098, 145351.13666667184, 187500.0, 187500.0, 11183.650634723977, 19680.308661497675, 0.646, -0.656, 0.45, 192.0, 0.0, 0.0, 0.0, 0.0, 0.0, 0.0, 0.0, 0.0, 0.0, 1.6635890943944523E9, 0.0, 2022-09-19 17:04:54.394
30.0, 23148.33827594975, 63108.11646081406, 10803.223944094652, 145370.51562911458, 187500.0, 187500.0, 11201.040291910207, 19668.46223693636, 0.646, -0.656, 0.45, 192.0, 0.0, 0.0, 0.0, 0.0, 0.0, 0.0, 0.0, 0.0, 0.0, 1.6635890943984666E9, 0.0, 2022-09-19 17:04:54.398
31.0, 23142.504470646916, 63126.668408711965, 10791.265760811062, 145388.39702467885, 187500.0, 187500.0, 11205.108309401074, 19688.93643485742, 0.646, -0.656, 0.45, 192.0, 0.0, 0.0, 0.0, 0.0, 0.0, 0.0, 0.0, 0.0, 0.0, 1.6635890944024708E9, 0.0, 2022-09-19 17:04:54.402
32.0, 23137.34121767774, 63111.78214690473, 10798.217153336664, 145371.94614075974, 187500.0, 187500.0, 11180.87901841152, 19680.666289408957, 0.646, -0.656, 0.45, 192.0, 0.0, 0.0, 0.0, 0.0, 0.0, 0.0, 0.0, 0.0, 0.0, 1.6635890944055247E9, 0.0, 2022-09-19 17:04:54.405
33.0, 23158.262450487906, 63096.20298101938, 10821.395912336817, 145354.44472485123, 187500.0, 187500.0, 11175.849875909076, 19684.063754566163, 0.646, -0.656, 0.45, 192.0, 0.0, 0.0, 0.0, 0.0, 0.0, 0.0, 0.0, 0.0, 0.0, 1.663589094409616E9, 0.0, 2022-09-19 17:04:54.409
34.0, 23164.14095927965, 63097.47703045333, 10826.04507518352, 145357.50691384161, 187500.0, 187500.0, 11189.484440026814, 19719.737138716835, 0.646, -0.656, 0.45, 192.0, 0.0, 0.0, 0.0, 0.0, 0.0, 0.0, 0.0, 0.0, 0.0, 1.6635890944135032E9, 0.0, 2022-09-19 17:04:54.413
35.0, 23176.702639663537, 63116.610123707076, 10834.605793309904, 145376.19297220625, 187500.0, 187500.0, 11217.848803740599, 19739.00434243731, 0.636, -0.654, 0.46, 192.0, 19.0, 224.0, 235.0, 144.0, 14.0, 96.0, 0.0, 0.0, 0.0, 1.663589094418552E9, 0.0, 2022-09-19 17:04:54.418
36.0, 23172.656973917125, 63141.06293214118, 10835.186938665742, 145398.0082747946, 187500.0, 187500.0, 11229.27054515726, 19698.100650084096, 0.636, -0.654, 0.46, 192.0, 0.0, 0.0, 0.0, 0.0, 0.0, 0.0, 0.0, 0.0, 0.0, 1.6635890944226005E9, 0.0, 2022-09-19 17:04:54.422
37.0, 23142.973857280478, 63121.572210976155, 10829.040208940532, 145379.3669199189, 187500.0, 187500.0, 11196.860515697064, 19670.853873593078, 0.636, -0.654, 0.46, 192.0, 0.0, 0.0, 0.0, 0.0, 0.0, 0.0, 0.0, 0.0, 0.0, 1.6635890944265232E9, 0.0, 2022-09-19 17:04:54.426
38.0, 23124.57837159376, 63102.01443457776, 10839.456121856705, 145364.45830636722, 187500.0, 187500.0, 11188.053928381674, 19719.04423463872, 0.636, -0.654, 0.46, 192.0, 0.0, 0.0, 0.0, 0.0, 0.0, 0.0, 0.0, 0.0, 0.0, 1.6635890944305825E9, 0.0, 2022-09-19 17:04:54.430
39.0, 23113.58131332175, 63095.80064961918, 10828.213194395685, 145364.63712032285, 187500.0, 187500.0, 11190.825544694131, 19699.41940300696, 0.636, -0.654, 0.46, 192.0, 0.0, 0.0, 0.0, 0.0, 0.0, 0.0, 0.0, 0.0, 0.0, 1.6635890944335816E9, 0.0, 2022-09-19 17:04:54.433
40.0, 23104.081821928245, 63113.90556262798, 10830.269554885574, 145393.44851892572, 187500.0, 187500.0, 11213.780786249732, 19764.06064797171, 0.636, -0.654, 0.46, 192.0, 0.0, 0.0, 0.0, 0.0, 0.0, 0.0, 0.0, 0.0, 0.0, 1.6635890944375055E9, 0.0, 2022-09-19 17:04:54.437
41.0, 23115.19063892253, 63141.86759494157, 10840.216081168186, 145423.3328012625, 187500.0, 187500.0, 11233.60678358159, 19759.836168269656, 0.636, -0.654, 0.46, 192.0, 0.0, 0.0, 0.0, 0.0, 0.0, 0.0, 0.0, 0.0, 0.0, 1.66358909444164E9, 0.0, 2022-09-19 17:04:54.441
42.0, 23076.656231481582, 63112.2962370272, 10811.09175814292, 145391.10158575792, 187500.0, 187500.0, 11185.997567891785, 19703.777993175747, 0.636, -0.654, 0.46, 192.0, 0.0, 0.0, 0.0, 0.0, 0.0, 0.0, 0.0, 0.0, 0.0, 1.6635890944465563E9, 0.0, 2022-09-19 17:04:54.446
43.0, 23087.72034498696, 63097.655844408975, 10835.969249721677, 145378.33873967396, 187500.0, 187500.0, 11184.54470450219, 19672.37379221604, 0.636, -0.654, 0.46, 192.0, 0.0, 0.0, 0.0, 0.0, 0.0, 0.0, 0.0, 0.0, 0.0, 1.6635890944505508E9, 0.0, 2022-09-19 17:04:54.450
44.0, 23123.68430181555, 63101.96973108885, 10842.697124802724, 145381.9150187868, 187500.0, 187500.0, 11206.829393724132, 19658.761579842758, 0.636, -0.654, 0.46, 192.0, 0.0, 0.0, 0.0, 0.0, 0.0, 0.0, 0.0, 0.0, 0.0, 1.6635890944546337E9, 0.0, 2022-09-19 17:04:54.454
45.0, 23120.443298869526, 63107.088280569114, 10825.687447272236, 145385.4689461552, 187500.0, 187500.0, 11217.848803740599, 19660.23679497681, 0.632, -0.66, 0.454, 192.0, 19.0, 192.0, 235.0, 96.0, 14.0, 48.0, 0.0, 0.0, 0.0, 1.6635890944586582E9, 0.0, 2022-09-19 17:04:54.458
46.0, 23133.273200186875, 63126.15431858949, 10842.227738169162, 145401.5174986741, 187500.0, 187500.0, 11229.98580097983, 19679.593405675103, 0.632, -0.66, 0.454, 192.0, 0.0, 0.0, 0.0, 0.0, 0.0, 0.0, 0.0, 0.0, 0.0, 1.6635890944617586E9, 0.0, 2022-09-19 17:04:54.461
47.0, 23121.225609925463, 63107.55766720267, 10822.133519903842, 145385.558353133, 187500.0, 187500.0, 11201.30851284367, 19692.8479901371, 0.632, -0.66, 0.454, 192.0, 0.0, 0.0, 0.0, 0.0, 0.0, 0.0, 0.0, 0.0, 0.0, 1.6635890944657097E9, 0.0, 2022-09-19 17:04:54.465
48.0, 23115.81648776728, 63091.91144608396, 10824.86043272739, 145372.63904483785, 187500.0, 187500.0, 11194.625341251534, 19752.817720510688, 0.632, -0.66, 0.454, 192.0, 0.0, 0.0, 0.0, 0.0, 0.0, 0.0, 0.0, 0.0, 0.0, 1.663589094469744E9, 0.0, 2022-09-19 17:04:54.469
49.0, 23119.839801769234, 63097.85701010907, 10843.188863180741, 145378.53990537405, 187500.0, 187500.0, 11213.646675783, 19762.473674115383, 0.632, -0.66, 0.454, 192.0, 0.0, 0.0, 0.0, 0.0, 0.0, 0.0, 0.0, 0.0, 0.0, 1.6635890944746156E9, 0.0, 2022-09-19 17:04:54.474
50.0, 23121.873810514666, 63108.87642012554, 10832.996467709121, 145390.073405513, 187500.0, 187500.0, 11226.096597444606, 19712.629283980048, 0.632, -0.66, 0.454, 192.0, 0.0, 0.0, 0.0, 0.0, 0.0, 0.0, 0.0, 0.0, 0.0, 1.663589094478748E9, 0.0, 2022-09-19 17:04:54.478
51.0, 23124.980702993955, 63131.004647136295, 10828.23554614014, 145414.63797266936, 187500.0, 187500.0, 11228.801158523698, 19732.656447012003, 0.632, -0.66, 0.454, 192.0, 0.0, 0.0, 0.0, 0.0, 0.0, 0.0, 0.0, 0.0, 0.0, 1.6635890944826434E9, 0.0, 2022-09-19 17:04:54.482
52.0, 23118.006958723898, 63116.654827195984, 10837.109188688897, 145403.327989975, 187500.0, 187500.0, 11200.995588421296, 19748.57088906418, 0.632, -0.66, 0.454, 192.0, 0.0, 0.0, 0.0, 0.0, 0.0, 0.0, 0.0, 0.0, 0.0, 1.663589094486646E9, 0.0, 2022-09-19 17:04:54.486
53.0, 23107.367528363175, 63084.513018669255, 10839.277307901062, 145375.56712336148, 187500.0, 187500.0, 11183.650634723977, 19714.506830514292, 0.632, -0.66, 0.454, 192.0, 0.0, 0.0, 0.0, 0.0, 0.0, 0.0, 0.0, 0.0, 0.0, 1.6635890944897099E9, 0.0, 2022-09-19 17:04:54.489
54.0, 23140.381054923662, 63094.3924897185, 10825.151005405309, 145382.65262635384, 187500.0, 187500.0, 11205.711806501366, 19689.13760055752, 0.632, -0.66, 0.454, 192.0, 0.0, 0.0, 0.0, 0.0, 0.0, 0.0, 0.0, 0.0, 0.0, 1.6635890944937105E9, 0.0, 2022-09-19 17:04:54.493
55.0, 23144.113796247697, 63102.17089678895, 10806.911981929778, 145394.83432708198, 187500.0, 187500.0, 11211.389149593015, 19708.158935088984, 0.634, -0.66, 0.452, 192.0, 19.0, 208.0, 235.0, 96.0, 14.0, 32.0, 0.0, 0.0, 0.0, 1.663589094497745E9, 0.0, 2022-09-19 17:04:54.497
56.0, 23157.14486326514, 63126.06491161167, 10842.875938758367, 145421.7234756617, 187500.0, 187500.0, 11234.947888248907, 19680.219254519852, 0.634, -0.66, 0.452, 192.0, 0.0, 0.0, 0.0, 0.0, 0.0, 0.0, 0.0, 0.0, 0.0, 1.6635890945026996E9, 0.0, 2022-09-19 17:04:54.502
57.0, 23144.471424158983, 63113.05619633868, 10824.011066438088, 145415.9790773367, 187500.0, 187500.0, 11206.337655346115, 19773.47073238739, 0.634, -0.66, 0.452, 192.0, 0.0, 0.0, 0.0, 0.0, 0.0, 0.0, 0.0, 0.0, 0.0, 1.6635890945066268E9, 0.0, 2022-09-19 17:04:54.506
58.0, 23120.420947125072, 63082.903693068474, 10793.478583512138, 145389.53696364607, 187500.0, 187500.0, 11178.934416643908, 19692.579769203636, 0.634, -0.66, 0.452, 192.0, 0.0, 0.0, 0.0, 0.0, 0.0, 0.0, 0.0, 0.0, 0.0, 1.663589094510668E9, 0.0, 2022-09-19 17:04:54.510
59.0, 23105.110002173187, 63073.91829179744, 10804.207420850686, 145383.32317868748, 187500.0, 187500.0, 11178.487381754801, 19633.057073719156, 0.634, -0.66, 0.452, 192.0, 0.0, 0.0, 0.0, 0.0, 0.0, 0.0, 0.0, 0.0, 0.0, 1.6635890945137544E9, 0.0, 2022-09-19 17:04:54.513
60.0, 23106.719327773968, 63090.72680362783, 10807.247258096608, 145402.05394054102, 187500.0, 187500.0, 11203.275466355737, 19704.24737980931, 0.634, -0.66, 0.452, 192.0, 0.0, 0.0, 0.0, 0.0, 0.0, 0.0, 0.0, 0.0, 0.0, 1.6635890945176978E9, 0.0, 2022-09-19 17:04:54.517
61.0, 23124.71248206049, 63113.7491004168, 10797.725414958646, 145426.79732165305, 187500.0, 187500.0, 11208.729292002832, 19718.910124171987, 0.634, -0.66, 0.452, 192.0, 0.0, 0.0, 0.0, 0.0, 0.0, 0.0, 0.0, 0.0, 0.0, 1.6635890945216956E9, 0.0, 2022-09-19 17:04:54.521
62.0, 23141.58804912425, 63102.34971074459, 10814.623333766858, 145419.48830121616, 187500.0, 187500.0, 11189.350329560082, 19745.28518262925, 0.634, -0.66, 0.452, 192.0, 0.0, 0.0, 0.0, 0.0, 0.0, 0.0, 0.0, 0.0, 0.0, 1.663589094525672E9, 0.0, 2022-09-19 17:04:54.525
63.0, 23137.944714778034, 63083.10485876857, 10832.504729331104, 145402.23275449668, 187500.0, 187500.0, 11185.349367302582, 19741.641848283034, 0.634, -0.66, 0.452, 192.0, 0.0, 0.0, 0.0, 0.0, 0.0, 0.0, 0.0, 0.0, 0.0, 1.6635890945298023E9, 0.0, 2022-09-19 17:04:54.529
64.0, 23134.413139154094, 63086.97171055934, 10837.869148000378, 145410.34643773394, 187500.0, 187500.0, 11209.042216425207, 19755.544633334237, 0.634, -0.66, 0.452, 192.0, 0.0, 0.0, 0.0, 0.0, 0.0, 0.0, 0.0, 0.0, 0.0, 1.663589094534836E9, 0.0, 2022-09-19 17:04:54.534
65.0, 23103.187752150032, 63092.38083271752, 10810.555316275993, 145418.39306573785, 187500.0, 187500.0, 11217.759396762776, 19720.273580583762, 0.642, -0.658, 0.45, 192.0, 20.0, 16.0, 235.0, 112.0, 14.0, 16.0, 0.0, 0.0, 0.0, 1.6635890945387607E9, 0.0, 2022-09-19 17:04:54.538
66.0, 23098.13625790313, 63112.050367838194, 10814.802147722501, 145443.04703987206, 187500.0, 187500.0, 11228.532937590235, 19699.553513473693, 0.642, -0.658, 0.45, 192.0, 0.0, 0.0, 0.0, 0.0, 0.0, 0.0, 0.0, 0.0, 0.0, 1.6635890945418615E9, 0.0, 2022-09-19 17:04:54.541
67.0, 23091.162513633077, 63089.02807104923, 10817.976095435155, 145426.95378386424, 187500.0, 187500.0, 11196.949922674887, 19682.745001643303, 0.642, -0.658, 0.45, 192.0, 0.0, 0.0, 0.0, 0.0, 0.0, 0.0, 0.0, 0.0, 0.0, 1.6635890945457387E9, 0.0, 2022-09-19 17:04:54.545
68.0, 23141.1633659796, 63081.56258840115, 10846.742790549135, 145424.20451929624, 187500.0, 187500.0, 11203.83425996712, 19643.18241395741, 0.642, -0.658, 0.45, 192.0, 0.0, 0.0, 0.0, 0.0, 0.0, 0.0, 0.0, 0.0, 0.0, 1.663589094549773E9, 0.0, 2022-09-19 17:04:54.549
69.0, 23138.43645315605, 63080.22148373383, 10832.9070607313, 145431.20061531075, 187500.0, 187500.0, 11212.41732983796, 19750.739008276345, 0.642, -0.658, 0.45, 192.0, 0.0, 0.0, 0.0, 0.0, 0.0, 0.0, 0.0, 0.0, 0.0, 1.6635890945537312E9, 0.0, 2022-09-19 17:04:54.553
70.0, 23133.809642053802, 63090.90561758347, 10801.122880115852, 145448.9702521527, 187500.0, 187500.0, 11217.088844429118, 19761.825473526176, 0.642, -0.658, 0.45, 192.0, 0.0, 0.0, 0.0, 0.0, 0.0, 0.0, 0.0, 0.0, 0.0, 1.6635890945588057E9, 0.0, 2022-09-19 17:04:54.558
71.0, 23153.92621206358, 63116.386606262524, 10825.195708894218, 145476.4405460883, 187500.0, 187500.0, 11230.656353313489, 19784.311328448217, 0.642, -0.658, 0.45, 192.0, 0.0, 0.0, 0.0, 0.0, 0.0, 0.0, 0.0, 0.0, 0.0, 1.6635890945627332E9, 0.0, 2022-09-19 17:04:54.562
72.0, 23130.456880385504, 63097.32056824215, 10832.303563631007, 145467.6339587729, 187500.0, 187500.0, 11204.705978000877, 19789.34047095066, 0.642, -0.658, 0.45, 192.0, 0.0, 0.0, 0.0, 0.0, 0.0, 0.0, 0.0, 0.0, 0.0, 1.6635890945667892E9, 0.0, 2022-09-19 17:04:54.566
73.0, 23121.113851203187, 63070.3867161735, 10807.47077554116, 145445.4833800177, 187500.0, 187500.0, 11193.127774373028, 19725.95092367541, 0.642, -0.658, 0.45, 192.0, 0.0, 0.0, 0.0, 0.0, 0.0, 0.0, 0.0, 0.0, 0.0, 1.6635890945699656E9, 0.0, 2022-09-19 17:04:54.569
74.0, 23113.13427843264, 63065.02229750423, 10798.70889171468, 145442.10826660495, 187500.0, 187500.0, 11199.45331805388, 19716.38437704854, 0.642, -0.658, 0.45, 192.0, 0.0, 0.0, 0.0, 0.0, 0.0, 0.0, 0.0, 0.0, 0.0, 1.6635890945737631E9, 0.0, 2022-09-19 17:04:54.573
75.0, 23140.49281364594, 63093.56547517365, 10844.775837037068, 145480.55326706808, 187500.0, 187500.0, 11240.289955173726, 19799.063479788718, 0.642, -0.654, 0.448, 192.0, 20.0, 16.0, 235.0, 144.0, 14.0, 0.0, 0.0, 0.0, 0.0, 1.6635890945787797E9, 0.0, 2022-09-19 17:04:54.578
76.0, 23143.309133447307, 63103.69081541191, 10822.245278626118, 145498.36760739895, 187500.0, 187500.0, 11235.864309771576, 19756.796331023736, 0.642, -0.654, 0.448, 192.0, 0.0, 0.0, 0.0, 0.0, 0.0, 0.0, 0.0, 0.0, 0.0, 1.663589094582798E9, 0.0, 2022-09-19 17:04:54.582
77.0, 23138.034121755856, 63085.89882682548, 10811.203516865196, 145485.7388717817, 187500.0, 187500.0, 11204.728329745332, 19702.973330375353, 0.642, -0.654, 0.448, 192.0, 0.0, 0.0, 0.0, 0.0, 0.0, 0.0, 0.0, 0.0, 0.0, 1.6635890945858853E9, 0.0, 2022-09-19 17:04:54.585
78.0, 23106.24994114041, 63058.24971893427, 10828.14613916232, 145463.8788657044, 187500.0, 187500.0, 11192.993663906296, 19672.619661405046, 0.642, -0.654, 0.448, 192.0, 0.0, 0.0, 0.0, 0.0, 0.0, 0.0, 0.0, 0.0, 0.0, 1.6635890945908136E9, 0.0, 2022-09-19 17:04:54.590
79.0, 23115.68237730055, 63060.55194861317, 10835.879842743856, 145479.65919728985, 187500.0, 187500.0, 11213.669027527456, 19756.61751706809, 0.642, -0.654, 0.448, 192.0, 0.0, 0.0, 0.0, 0.0, 0.0, 0.0, 0.0, 0.0, 0.0, 1.6635890945947893E9, 0.0, 2022-09-19 17:04:54.594
80.0, 23141.96802877999, 63085.80941984766, 10818.445482068717, 145511.46572964976, 187500.0, 187500.0, 11234.165577192973, 19785.406563926528, 0.642, -0.654, 0.448, 192.0, 0.0, 0.0, 0.0, 0.0, 0.0, 0.0, 0.0, 0.0, 0.0, 1.6635890945978513E9, 0.0, 2022-09-19 17:04:54.597
81.0, 23144.516127647894, 63101.67915841093, 10833.264688642585, 145533.28103223813, 187500.0, 187500.0, 11240.334658662638, 19794.749593108845, 0.642, -0.654, 0.448, 192.0, 0.0, 0.0, 0.0, 0.0, 0.0, 0.0, 0.0, 0.0, 0.0, 1.6635890946017787E9, 0.0, 2022-09-19 17:04:54.601
82.0, 23117.202295923507, 63080.84733257858, 10850.05084872852, 145522.4851396662, 187500.0, 187500.0, 11218.072321185151, 19765.49115961685, 0.642, -0.654, 0.448, 192.0, 0.0, 0.0, 0.0, 0.0, 0.0, 0.0, 0.0, 0.0, 0.0, 1.6635890946059685E9, 0.0, 2022-09-19 17:04:54.605
83.0, 23123.036101226342, 63052.46061712034, 10823.72049376017, 145501.89918302288, 187500.0, 187500.0, 11198.067509897652, 19744.72638901787, 0.642, -0.654, 0.448, 192.0, 0.0, 0.0, 0.0, 0.0, 0.0, 0.0, 0.0, 0.0, 0.0, 1.6635890946098404E9, 0.0, 2022-09-19 17:04:54.609
84.0, 23151.40046494013, 63055.925137510916, 10823.80990073799, 145511.73395058324, 187500.0, 187500.0, 11214.74191126131, 19792.76028785232, 0.642, -0.654, 0.448, 192.0, 0.0, 0.0, 0.0, 0.0, 0.0, 0.0, 0.0, 0.0, 0.0, 1.6635890946138709E9, 0.0, 2022-09-19 17:04:54.613
85.0, 23144.80670032581, 63070.27495745123, 10821.57472629246, 145534.06334329408, 187500.0, 187500.0, 11236.110178960584, 19759.85852001411, 0.638, -0.656, 0.446, 192.0, 19.0, 240.0, 235.0, 128.0, 13.0, 240.0, 0.0, 0.0, 0.0, 1.663589094618804E9, 0.0, 2022-09-19 17:04:54.618
86.0, 23141.945677035532, 63086.50232392578, 10824.681618771747, 145552.48118072524, 187500.0, 187500.0, 11242.122798219061, 19723.224010851864, 0.638, -0.656, 0.446, 192.0, 0.0, 0.0, 0.0, 0.0, 0.0, 0.0, 0.0, 0.0, 0.0, 1.6635890946229854E9, 0.0, 2022-09-19 17:04:54.622
87.0, 23135.933057777056, 63068.375059172526, 10826.827386239456, 145539.38305847443, 187500.0, 187500.0, 11216.418292095459, 19740.032522682253, 0.638, -0.656, 0.446, 192.0, 0.0, 0.0, 0.0, 0.0, 0.0, 0.0, 0.0, 0.0, 0.0, 1.663589094625979E9, 0.0, 2022-09-19 17:04:54.625
88.0, 23126.165345450085, 63035.227422145304, 10790.058766610477, 145514.8408430625, 187500.0, 187500.0, 11193.105422628572, 19686.678908667436, 0.638, -0.656, 0.446, 192.0, 0.0, 0.0, 0.0, 0.0, 0.0, 0.0, 0.0, 0.0, 0.0, 1.6635890946298313E9, 0.0, 2022-09-19 17:04:54.629
89.0, 23103.455973083495, 63027.51607030822, 10784.783754919024, 145515.2431744627, 187500.0, 187500.0, 11191.160820860961, 19717.99370264932, 0.638, -0.656, 0.446, 192.0, 0.0, 0.0, 0.0, 0.0, 0.0, 0.0, 0.0, 0.0, 0.0, 1.6635890946339145E9, 0.0, 2022-09-19 17:04:54.633
90.0, 23114.900066244612, 63056.975669500316, 10801.882839427333, 145555.5657214601, 187500.0, 187500.0, 11222.542670076213, 19779.86333130161, 0.638, -0.656, 0.446, 192.0, 0.0, 0.0, 0.0, 0.0, 0.0, 0.0, 0.0, 0.0, 0.0, 1.663589094637869E9, 0.0, 2022-09-19 17:04:54.637
91.0, 23097.421002080562, 63071.213730718344, 10827.564993806482, 145576.88928567045, 187500.0, 187500.0, 11236.691324316422, 19794.123744264096, 0.638, -0.656, 0.446, 192.0, 0.0, 0.0, 0.0, 0.0, 0.0, 0.0, 0.0, 0.0, 0.0, 1.663589094641864E9, 0.0, 2022-09-19 17:04:54.641
92.0, 23089.888464199124, 63045.7327420393, 10840.551357335014, 145558.33733777254, 187500.0, 187500.0, 11212.149108904494, 19735.495118557825, 0.638, -0.656, 0.446, 192.0, 0.0, 0.0, 0.0, 0.0, 0.0, 0.0, 0.0, 0.0, 0.0, 1.6635890946458664E9, 0.0, 2022-09-19 17:04:54.645
93.0, 23146.080749759763, 63019.849421960054, 10852.017802240587, 145542.4452474648, 187500.0, 187500.0, 11211.098576915096, 19775.77296206629, 0.638, -0.656, 0.446, 192.0, 0.0, 0.0, 0.0, 0.0, 0.0, 0.0, 0.0, 0.0, 0.0, 1.663589094650003E9, 0.0, 2022-09-19 17:04:54.650
94.0, 23162.35281972323, 63019.26827660421, 10830.828348496956, 145550.42482023535, 187500.0, 187500.0, 11224.040236954717, 19788.513456405813, 0.638, -0.656, 0.446, 192.0, 0.0, 0.0, 0.0, 0.0, 0.0, 0.0, 0.0, 0.0, 0.0, 1.6635890946528945E9, 0.0, 2022-09-19 17:04:54.652
95.0, 23157.39073245415, 63036.210898901336, 10817.529060546049, 145572.41893677937, 187500.0, 187500.0, 11240.424065640458, 19765.804084039224, 0.636, -0.658, 0.448, 192.0, 19.0, 224.0, 235.0, 112.0, 14.0, 0.0, 0.0, 0.0, 0.0, 1.6635890946578915E9, 0.0, 2022-09-19 17:04:54.657
96.0, 23151.780444595868, 63045.7327420393, 10824.368694349372, 145581.87372468397, 187500.0, 187500.0, 11240.200548195906, 19710.7517374458, 0.636, -0.658, 0.448, 192.0, 0.0, 0.0, 0.0, 0.0, 0.0, 0.0, 0.0, 0.0, 0.0, 1.6635890946619198E9, 0.0, 2022-09-19 17:04:54.661
97.0, 23129.607514096202, 63020.13999463797, 10820.52419430306, 145559.0078901062, 187500.0, 187500.0, 11210.875059470542, 19753.24240365534, 0.636, -0.658, 0.448, 192.0, 0.0, 0.0, 0.0, 0.0, 0.0, 0.0, 0.0, 0.0, 0.0, 1.6635890946659527E9, 0.0, 2022-09-19 17:04:54.665
98.0, 23111.56965632077, 62988.311110533614, 10808.230734852641, 145537.43845670682, 187500.0, 187500.0, 11195.809983707666, 19755.321115889685, 0.636, -0.658, 0.448, 192.0, 0.0, 0.0, 0.0, 0.0, 0.0, 0.0, 0.0, 0.0, 0.0, 1.6635890946720269E9, 0.0, 2022-09-19 17:04:54.672
99.0, 23132.222668197475, 62989.33929077856, 10805.9508569182, 145550.5142272132, 187500.0, 187500.0, 11211.523260059746, 19743.25117388382, 0.636, -0.658, 0.448, 192.0, 0.0, 0.0, 0.0, 0.0, 0.0, 0.0, 0.0, 0.0, 0.0, 1.6635890946750276E9, 0.0, 2022-09-19 17:04:54.675
100.0, 23139.15170897862, 63007.332445065076, 10807.984865663633, 145574.63175948046, 187500.0, 187500.0, 11232.668010314466, 19717.658426482492, 0.636, -0.658, 0.448, 192.0, 0.0, 0.0, 0.0, 0.0, 0.0, 0.0, 0.0, 0.0, 0.0, 1.6635890946779983E9, 0.0, 2022-09-19 17:04:54.677
101.0, 23149.58997363925, 63033.61809654452, 10840.126674190364, 145611.93682097638, 187500.0, 187500.0, 11261.278243217259, 19784.288976703763, 0.636, -0.658, 0.448, 192.0, 0.0, 0.0, 0.0, 0.0, 0.0, 0.0, 0.0, 0.0, 0.0, 1.663589094682033E9, 0.0, 2022-09-19 17:04:54.682
102.0, 23133.608476353704, 62997.69884320484, 10819.294848358018, 145587.39460556445, 187500.0, 187500.0, 11219.972219463853, 19779.63981385706, 0.636, -0.658, 0.448, 192.0, 0.0, 0.0, 0.0, 0.0, 0.0, 0.0, 0.0, 0.0, 0.0, 1.66358909468595E9, 0.0, 2022-09-19 17:04:54.685
103.0, 23120.130374447155, 62961.22079625378, 10809.549487775505, 145564.08173609755, 187500.0, 187500.0, 11203.677797755934, 19769.13449396306, 0.636, -0.658, 0.448, 192.0, 0.0, 0.0, 0.0, 0.0, 0.0, 0.0, 0.0, 0.0, 0.0, 1.6635890946900897E9, 0.0, 2022-09-19 17:04:54.690
104.0, 23091.676603755546, 62962.360735221, 10791.623388722348, 145572.79891643513, 187500.0, 187500.0, 11208.975161191842, 19738.847880226123, 0.636, -0.658, 0.448, 192.0, 0.0, 0.0, 0.0, 0.0, 0.0, 0.0, 0.0, 0.0, 0.0, 1.6635890946939704E9, 0.0, 2022-09-19 17:04:54.693
105.0, 23130.836860041247, 62986.366508766, 10799.37944404834, 145602.2585156272, 187500.0, 187500.0, 11231.952754491896, 19781.159732480017, 0.638, -0.66, 0.448, 192.0, 19.0, 240.0, 235.0, 96.0, 14.0, 0.0, 0.0, 0.0, 0.0, 1.6635890946979897E9, 0.0, 2022-09-19 17:04:54.697
106.0, 23154.30619171932, 62999.12935484998, 10816.702046001203, 145620.74340829175, 187500.0, 187500.0, 11241.094617974117, 19756.684572301456, 0.638, -0.66, 0.448, 192.0, 0.0, 0.0, 0.0, 0.0, 0.0, 0.0, 0.0, 0.0, 0.0, 1.6635890947020295E9, 0.0, 2022-09-19 17:04:54.702
107.0, 23146.371322437684, 62987.72996517777, 10827.274421128563, 145616.20600416732, 187500.0, 187500.0, 11227.974143978852, 19762.406618882014, 0.638, -0.66, 0.448, 192.0, 0.0, 0.0, 0.0, 0.0, 0.0, 0.0, 0.0, 0.0, 0.0, 1.663589094705968E9, 0.0, 2022-09-19 17:04:54.705
108.0, 23139.15170897862, 62966.22758701177, 10820.546546047515, 145598.83869872557, 187500.0, 187500.0, 11221.536841575724, 19754.672915300478, 0.638, -0.66, 0.448, 192.0, 0.0, 0.0, 0.0, 0.0, 0.0, 0.0, 0.0, 0.0, 0.0, 1.6635890947090344E9, 0.0, 2022-09-19 17:04:54.709
109.0, 23156.78723535386, 62968.57452017958, 10827.833214739945, 145602.5714400496, 187500.0, 187500.0, 11237.294821416715, 19749.979048964866, 0.638, -0.66, 0.448, 192.0, 0.0, 0.0, 0.0, 0.0, 0.0, 0.0, 0.0, 0.0, 0.0, 1.6635890947139888E9, 0.0, 2022-09-19 17:04:54.713
110.0, 23161.838729600757, 62988.93695937836, 10816.925563445755, 145623.0232862262, 187500.0, 187500.0, 11253.633946613545, 19731.628266767057, 0.638, -0.66, 0.448, 192.0, 0.0, 0.0, 0.0, 0.0, 0.0, 0.0, 0.0, 0.0, 0.0, 1.663589094717974E9, 0.0, 2022-09-19 17:04:54.717
111.0, 23146.326618948773, 63006.75129970924, 10823.89930771581, 145639.69768758985, 187500.0, 187500.0, 11255.399734425513, 19765.558214850214, 0.638, -0.66, 0.448, 192.0, 0.0, 0.0, 0.0, 0.0, 0.0, 0.0, 0.0, 0.0, 0.0, 1.6635890947219868E9, 0.0, 2022-09-19 17:04:54.721
112.0, 23115.883543000644, 62991.57446522409, 10809.124804630854, 145622.15156819244, 187500.0, 187500.0, 11226.923611989452, 19745.642810540536, 0.638, -0.66, 0.448, 192.0, 0.0, 0.0, 0.0, 0.0, 0.0, 0.0, 0.0, 0.0, 0.0, 1.6635890947260585E9, 0.0, 2022-09-19 17:04:54.726
113.0, 23117.33640639024, 62969.69210740234, 10807.314313329973, 145599.08456791457, 187500.0, 187500.0, 11215.233649639327, 19723.983970163343, 0.638, -0.66, 0.448, 192.0, 0.0, 0.0, 0.0, 0.0, 0.0, 0.0, 0.0, 0.0, 0.0, 1.6635890947300358E9, 0.0, 2022-09-19 17:04:54.730
114.0, 23137.967066522488, 62971.83787487005, 10823.42992108225, 145600.4703760708, 187500.0, 187500.0, 11232.422141125458, 19746.983915207853, 0.638, -0.66, 0.448, 192.0, 0.0, 0.0, 0.0, 0.0, 0.0, 0.0, 0.0, 0.0, 0.0, 1.6635890947341008E9, 0.0, 2022-09-19 17:04:54.734
115.0, 23142.95150553602, 63001.05160487314, 10829.66605778528, 145634.26621368722, 187500.0, 187500.0, 11261.501760661813, 19770.900281775033, 0.644, -0.662, 0.442, 192.0, 20.0, 32.0, 235.0, 80.0, 13.0, 208.0, 0.0, 0.0, 0.0, 1.6635890947370458E9, 0.0, 2022-09-19 17:04:54.737
116.0, 23125.986531494444, 63012.09336663406, 10798.083042869932, 145651.70057436236, 187500.0, 187500.0, 11243.620365097568, 19744.547575062224, 0.644, -0.662, 0.442, 192.0, 0.0, 0.0, 0.0, 0.0, 0.0, 0.0, 0.0, 0.0, 0.0, 1.6635890947410767E9, 0.0, 2022-09-19 17:04:54.741
117.0, 23123.68430181555, 62989.853380901026, 10817.66317101278, 145637.32840267758, 187500.0, 187500.0, 11217.468824084857, 19774.364802165604, 0.644, -0.662, 0.442, 192.0, 0.0, 0.0, 0.0, 0.0, 0.0, 0.0, 0.0, 0.0, 0.0, 1.6635890947460656E9, 0.0, 2022-09-19 17:04:54.746
118.0, 23133.58612460925, 62980.17507555188, 10823.80990073799, 145629.1253124625, 187500.0, 187500.0, 11225.336638133125, 19711.891676413023, 0.644, -0.662, 0.442, 192.0, 0.0, 0.0, 0.0, 0.0, 0.0, 0.0, 0.0, 0.0, 0.0, 1.6635890947500527E9, 0.0, 2022-09-19 17:04:54.750
119.0, 23117.47051685697, 62976.218816783294, 10785.387252019316, 145627.0242484837, 187500.0, 187500.0, 11218.474652585346, 19663.410742689462, 0.644, -0.662, 0.442, 192.0, 0.0, 0.0, 0.0, 0.0, 0.0, 0.0, 0.0, 0.0, 0.0, 1.6635890947540746E9, 0.0, 2022-09-19 17:04:54.754
120.0, 23130.09925247422, 63021.3246370941, 10819.205441380196, 145681.85307763258, 187500.0, 187500.0, 11254.572719880667, 19716.09380437062, 0.644, -0.662, 0.442, 192.0, 0.0, 0.0, 0.0, 0.0, 0.0, 0.0, 0.0, 0.0, 0.0, 1.6635890947581468E9, 0.0, 2022-09-19 17:04:54.758
121.0, 23129.495755373926, 63049.86781476353, 10835.410456110294, 145716.23006060484, 187500.0, 187500.0, 11265.6591851305, 19764.731200305367, 0.644, -0.662, 0.442, 192.0, 0.0, 0.0, 0.0, 0.0, 0.0, 0.0, 0.0, 0.0, 0.0, 1.6635890947610717E9, 0.0, 2022-09-19 17:04:54.761
122.0, 23114.0059964664, 63024.34212259557, 10812.09758664341, 145698.37101678504, 187500.0, 187500.0, 11226.186004422427, 19779.460999901414, 0.644, -0.662, 0.442, 192.0, 0.0, 0.0, 0.0, 0.0, 0.0, 0.0, 0.0, 0.0, 0.0, 1.663589094765088E9, 0.0, 2022-09-19 17:04:54.765
123.0, 23132.848517042225, 63018.240096359266, 10809.99652266461, 145697.1863743289, 187500.0, 187500.0, 11225.917783488963, 19752.080112943666, 0.644, -0.662, 0.442, 192.0, 0.0, 0.0, 0.0, 0.0, 0.0, 0.0, 0.0, 0.0, 0.0, 1.6635890947691221E9, 0.0, 2022-09-19 17:04:54.769
124.0, 23134.748415320926, 63028.87952672, 10803.000426650098, 145714.66543849296, 187500.0, 187500.0, 11237.98772549483, 19757.109255446107, 0.644, -0.662, 0.442, 192.0, 0.0, 0.0, 0.0, 0.0, 0.0, 0.0, 0.0, 0.0, 0.0, 1.6635890947731807E9, 0.0, 2022-09-19 17:04:54.773
125.0, 23137.028293255367, 63063.2341579478, 10793.165659089764, 145751.72463079984, 187500.0, 187500.0, 11259.08777226064, 19778.298709189738, 0.644, -0.662, 0.442, 192.0, 0.0, 0.0, 0.0, 0.0, 0.0, 0.0, 0.0, 0.0, 0.0, 1.6635890947781098E9, 0.0, 2022-09-19 17:04:54.778
126.0, 23113.693072044025, 63083.73070761332, 10789.9470078882, 145768.64490135253, 187500.0, 187500.0, 11250.303536689704, 19752.549499577224, 0.642, -0.662, 0.442, 192.0, 20.0, 16.0, 235.0, 80.0, 13.0, 208.0, 0.0, 0.0, 0.0, 1.6635890947821205E9, 0.0, 2022-09-19 17:04:54.782
127.0, 23076.790341948312, 63065.17875971541, 10791.80220267799, 145752.68575581143, 187500.0, 187500.0, 11214.339579861115, 19732.701150500914, 0.642, -0.662, 0.442, 192.0, 0.0, 0.0, 0.0, 0.0, 0.0, 0.0, 0.0, 0.0, 0.0, 1.663589094785146E9, 0.0, 2022-09-19 17:04:54.785
128.0, 23068.207272077474, 63047.29736415117, 10781.56510371746, 145736.1901684034, 187500.0, 187500.0, 11202.582562277623, 19701.006376863286, 0.642, -0.662, 0.442, 192.0, 0.0, 0.0, 0.0, 0.0, 0.0, 0.0, 0.0, 0.0, 0.0, 1.663589094789153E9, 0.0, 2022-09-19 17:04:54.789
129.0, 23100.773763748857, 63067.27982369421, 10807.761348219079, 145757.13375295803, 187500.0, 187500.0, 11235.976068493852, 19792.067383774207, 0.642, -0.662, 0.442, 192.0, 0.0, 0.0, 0.0, 0.0, 0.0, 0.0, 0.0, 0.0, 0.0, 1.6635890947931747E9, 0.0, 2022-09-19 17:04:54.793
130.0, 23126.590028594735, 63087.77637335973, 10805.414415051273, 145777.92087530147, 187500.0, 187500.0, 11256.047935014718, 19771.8167032977, 0.642, -0.662, 0.442, 192.0, 0.0, 0.0, 0.0, 0.0, 0.0, 0.0, 0.0, 0.0, 0.0, 1.6635890947971127E9, 0.0, 2022-09-19 17:04:54.797
131.0, 23125.76301404989, 63093.43136470692, 10787.264798553562, 145781.92183755897, 187500.0, 187500.0, 11237.563042350179, 19711.62345547956, 0.642, -0.662, 0.442, 192.0, 0.0, 0.0, 0.0, 0.0, 0.0, 0.0, 0.0, 0.0, 0.0, 1.6635890948021376E9, 0.0, 2022-09-19 17:04:54.802
132.0, 23127.305284417307, 63072.2866144522, 10795.8478684244, 145764.64393909503, 187500.0, 187500.0, 11203.498983800291, 19671.837350349113, 0.642, -0.662, 0.442, 192.0, 0.0, 0.0, 0.0, 0.0, 0.0, 0.0, 0.0, 0.0, 0.0, 1.6635890948061364E9, 0.0, 2022-09-19 17:04:54.806
133.0, 23139.66579910109, 63063.97176551483, 10828.392008351328, 145766.6108926071, 187500.0, 187500.0, 11215.16659440596, 19743.586450050647, 0.642, -0.662, 0.442, 192.0, 0.0, 0.0, 0.0, 0.0, 0.0, 0.0, 0.0, 0.0, 0.0, 1.663589094810158E9, 0.0, 2022-09-19 17:04:54.810
134.0, 23128.646389084624, 63070.72199234033, 10810.220040109163, 145780.84895382513, 187500.0, 187500.0, 11227.325943389647, 19801.700985634445, 0.642, -0.662, 0.442, 192.0, 0.0, 0.0, 0.0, 0.0, 0.0, 0.0, 0.0, 0.0, 0.0, 1.663589094813186E9, 0.0, 2022-09-19 17:04:54.813
135.0, 23116.643502312127, 63078.25453022177, 10792.98684513412, 145791.73425337486, 187500.0, 187500.0, 11235.7525510493, 19752.70596178841, 0.642, -0.662, 0.442, 192.0, 0.0, 0.0, 0.0, 0.0, 0.0, 0.0, 0.0, 0.0, 0.0, 1.6635890948171551E9, 0.0, 2022-09-19 17:04:54.817
136.0, 23128.40051989562, 63089.20688500487, 10794.998502135099, 145801.07728255718, 187500.0, 187500.0, 11237.36187665008, 19684.242568521808, 0.638, -0.66, 0.44, 192.0, 19.0, 240.0, 235.0, 96.0, 13.0, 192.0, 0.0, 0.0, 0.0, 1.6635890948211634E9, 0.0, 2022-09-19 17:04:54.821
137.0, 23105.311167873286, 63063.591785859084, 10775.396022247794, 145778.18909623494, 187500.0, 187500.0, 11199.341559331604, 19727.42613880946, 0.638, -0.66, 0.44, 192.0, 0.0, 0.0, 0.0, 0.0, 0.0, 0.0, 0.0, 0.0, 0.0, 1.663589094825328E9, 0.0, 2022-09-19 17:04:54.825
138.0, 23120.353891891707, 63055.366343899535, 10806.04026389602, 145774.56811363317, 187500.0, 187500.0, 11206.203544879383, 19771.6155375976, 0.638, -0.66, 0.44, 192.0, 0.0, 0.0, 0.0, 0.0, 0.0, 0.0, 0.0, 0.0, 0.0, 1.663589094829216E9, 0.0, 2022-09-19 17:04:54.829
139.0, 23133.47436588697, 63053.689963065386, 10803.156888861286, 145776.19979097843, 187500.0, 187500.0, 11221.55919332018, 19786.077116260185, 0.638, -0.66, 0.44, 192.0, 0.0, 0.0, 0.0, 0.0, 0.0, 0.0, 0.0, 0.0, 0.0, 1.6635890948342495E9, 0.0, 2022-09-19 17:04:54.834
140.0, 23136.7600723219, 63065.491684137785, 10799.155926603786, 145792.62832315307, 187500.0, 187500.0, 11240.111141218084, 19754.605860067113, 0.638, -0.66, 0.44, 192.0, 0.0, 0.0, 0.0, 0.0, 0.0, 0.0, 0.0, 0.0, 0.0, 1.663589094838229E9, 0.0, 2022-09-19 17:04:54.838
141.0, 23136.87183104418, 63068.375059172526, 10781.65451069528, 145800.83141336817, 187500.0, 187500.0, 11232.288030658727, 19757.779807779767, 0.638, -0.66, 0.44, 192.0, 0.0, 0.0, 0.0, 0.0, 0.0, 0.0, 0.0, 0.0, 0.0, 1.6635890948412488E9, 0.0, 2022-09-19 17:04:54.841
142.0, 23137.072996744275, 63046.04566646167, 10786.907170642278, 145783.17353524847, 187500.0, 187500.0, 11208.304608858181, 19777.29288068925, 0.638, -0.66, 0.44, 192.0, 0.0, 0.0, 0.0, 0.0, 0.0, 0.0, 0.0, 0.0, 0.0, 1.6635890948452537E9, 0.0, 2022-09-19 17:04:54.845
143.0, 23124.086633215742, 63020.65408476044, 10789.589379976915, 145754.6080058346, 187500.0, 187500.0, 11201.464975054858, 19681.068620809154, 0.638, -0.66, 0.44, 192.0, 0.0, 0.0, 0.0, 0.0, 0.0, 0.0, 0.0, 0.0, 0.0, 1.6635890948492415E9, 0.0, 2022-09-19 17:04:54.849
144.0, 23111.457897598495, 63018.240096359266, 10804.654455739792, 145758.98894774783, 187500.0, 187500.0, 11222.654428798489, 19783.216092969906, 0.638, -0.66, 0.44, 192.0, 0.0, 0.0, 0.0, 0.0, 0.0, 0.0, 0.0, 0.0, 0.0, 1.6635890948533633E9, 0.0, 2022-09-19 17:04:54.853
145.0, 23100.550246304305, 63020.542326038165, 10800.698196971201, 145764.28631118374, 187500.0, 187500.0, 11233.763245792778, 19740.658371527003, 0.638, -0.66, 0.44, 192.0, 0.0, 0.0, 0.0, 0.0, 0.0, 0.0, 0.0, 0.0, 0.0, 1.6635890948572776E9, 0.0, 2022-09-19 17:04:54.857
146.0, 23128.15465070661, 63034.378055856, 10811.561144776482, 145781.6089131366, 187500.0, 187500.0, 11240.93815576293, 19748.39207510854, 0.636, -0.662, 0.444, 192.0, 19.0, 224.0, 235.0, 80.0, 13.0, 224.0, 0.0, 0.0, 0.0, 1.663589094862294E9, 0.0, 2022-09-19 17:04:54.862
147.0, 23111.010862709387, 63001.05160487314, 10805.503822029093, 145754.9656337459, 187500.0, 187500.0, 11210.65154202599, 19734.981028435355, 0.636, -0.662, 0.444, 192.0, 0.0, 0.0, 0.0, 0.0, 0.0, 0.0, 0.0, 0.0, 0.0, 1.6635890948662944E9, 0.0, 2022-09-19 17:04:54.866
148.0, 23128.311112917796, 62985.450087243335, 10817.23848786813, 145742.2921946397, 187500.0, 187500.0, 11217.245306640305, 19762.920709004487, 0.636, -0.662, 0.444, 192.0, 0.0, 0.0, 0.0, 0.0, 0.0, 0.0, 0.0, 0.0, 0.0, 1.6635890948694563E9, 0.0, 2022-09-19 17:04:54.869
149.0, 23129.987493751945, 62982.11967731949, 10807.001388907598, 145748.17070343147, 187500.0, 187500.0, 11227.951792234397, 19767.011078239808, 0.636, -0.662, 0.444, 192.0, 0.0, 0.0, 0.0, 0.0, 0.0, 0.0, 0.0, 0.0, 0.0, 1.6635890948732688E9, 0.0, 2022-09-19 17:04:54.873
150.0, 23130.836860041247, 62998.50350600523, 10804.006255150587, 145767.88494204104, 187500.0, 187500.0, 11249.208301211394, 19685.382507489026, 0.636, -0.662, 0.444, 192.0, 0.0, 0.0, 0.0, 0.0, 0.0, 0.0, 0.0, 0.0, 0.0, 1.6635890948773575E9, 0.0, 2022-09-19 17:04:54.877
151.0, 23126.835897783745, 63010.52874452219, 10795.579647490937, 145778.36791019057, 187500.0, 187500.0, 11245.073228487163, 19696.17840006094, 0.636, -0.662, 0.444, 192.0, 0.0, 0.0, 0.0, 0.0, 0.0, 0.0, 0.0, 0.0, 0.0, 1.6635890948813486E9, 0.0, 2022-09-19 17:04:54.881
152.0, 23105.847609740213, 62977.24699702823, 10798.552429503492, 145753.1998459339, 187500.0, 187500.0, 11209.355140847581, 19777.00230801133, 0.636, -0.662, 0.444, 192.0, 0.0, 0.0, 0.0, 0.0, 0.0, 0.0, 0.0, 0.0, 0.0, 1.6635890948854024E9, 0.0, 2022-09-19 17:04:54.885
153.0, 23127.57350535077, 62955.45404618431, 10820.211269880685, 145739.1405986715, 187500.0, 187500.0, 11218.720521774356, 19768.083961973665, 0.636, -0.662, 0.444, 192.0, 0.0, 0.0, 0.0, 0.0, 0.0, 0.0, 0.0, 0.0, 0.0, 1.6635890948903272E9, 0.0, 2022-09-19 17:04:54.890
154.0, 23118.699862802016, 62953.55414790561, 10794.283246312529, 145750.78585753273, 187500.0, 187500.0, 11227.08007420064, 19742.357104105606, 0.636, -0.662, 0.444, 192.0, 0.0, 0.0, 0.0, 0.0, 0.0, 0.0, 0.0, 0.0, 0.0, 1.663589094894349E9, 0.0, 2022-09-19 17:04:54.894
155.0, 23103.0536416833, 62963.09834278803, 10772.266778024052, 145771.97531127636, 187500.0, 187500.0, 11234.344391148614, 19727.135566131543, 0.636, -0.662, 0.444, 192.0, 0.0, 0.0, 0.0, 0.0, 0.0, 0.0, 0.0, 0.0, 0.0, 1.663589094897316E9, 0.0, 2022-09-19 17:04:54.897
156.0, 23073.437580280017, 62963.36656372149, 10775.060746080964, 145784.64875038253, 187500.0, 187500.0, 11228.376475379047, 19755.835206012154, 0.642, -0.668, 0.448, 192.0, 20.0, 16.0, 235.0, 32.0, 14.0, 0.0, 0.0, 0.0, 0.0, 1.6635890949013915E9, 0.0, 2022-09-19 17:04:54.901
157.0, 23097.19748463601, 62934.622220351965, 10801.659321982781, 145771.30475894272, 187500.0, 187500.0, 11205.22006812335, 19748.14620591953, 0.642, -0.668, 0.448, 192.0, 0.0, 0.0, 0.0, 0.0, 0.0, 0.0, 0.0, 0.0, 0.0, 1.6635890949053829E9, 0.0, 2022-09-19 17:04:54.905
158.0, 23156.943697565046, 62916.62906606544, 10813.058711654987, 145765.3144914287, 187500.0, 187500.0, 11212.5961437936, 19744.815795995688, 0.642, -0.668, 0.448, 192.0, 0.0, 0.0, 0.0, 0.0, 0.0, 0.0, 0.0, 0.0, 0.0, 1.6635890949094365E9, 0.0, 2022-09-19 17:04:54.909
159.0, 23157.56954640979, 62914.39389161991, 10788.315330542962, 145774.14343048853, 187500.0, 187500.0, 11225.023713710752, 19754.9634879784, 0.642, -0.668, 0.448, 192.0, 0.0, 0.0, 0.0, 0.0, 0.0, 0.0, 0.0, 0.0, 0.0, 1.663589094913442E9, 0.0, 2022-09-19 17:04:54.913
160.0, 23153.523880663382, 62922.68638881283, 10782.995615362599, 145792.02482605277, 187500.0, 187500.0, 11237.920670261463, 19783.372555181093, 0.642, -0.668, 0.448, 192.0, 0.0, 0.0, 0.0, 0.0, 0.0, 0.0, 0.0, 0.0, 0.0, 1.6635890949184017E9, 0.0, 2022-09-19 17:04:54.918
161.0, 23141.34217993524, 62917.67959805484, 10810.555316275993, 145796.67398889948, 187500.0, 187500.0, 11229.829338768643, 19737.216202880885, 0.642, -0.668, 0.448, 192.0, 0.0, 0.0, 0.0, 0.0, 0.0, 0.0, 0.0, 0.0, 0.0, 1.6635890949224055E9, 0.0, 2022-09-19 17:04:54.922
162.0, 23108.261598141384, 62879.055783636075, 10782.70504268468, 145768.19786646342, 187500.0, 187500.0, 11189.97617840483, 19739.853708726612, 0.642, -0.668, 0.448, 192.0, 0.0, 0.0, 0.0, 0.0, 0.0, 0.0, 0.0, 0.0, 0.0, 1.6635890949254375E9, 0.0, 2022-09-19 17:04:54.925
163.0, 23135.86600254369, 62869.332774798015, 10798.954760903689, 145771.57297987616, 187500.0, 187500.0, 11203.655446011478, 19772.844883542646, 0.642, -0.668, 0.448, 192.0, 0.0, 0.0, 0.0, 0.0, 0.0, 0.0, 0.0, 0.0, 0.0, 1.663589094929424E9, 0.0, 2022-09-19 17:04:54.929
164.0, 23163.716276135, 62869.44453352029, 10815.964438434177, 145778.52437240176, 187500.0, 187500.0, 11223.50379508779, 19723.022845151765, 0.642, -0.668, 0.448, 192.0, 0.0, 0.0, 0.0, 0.0, 0.0, 0.0, 0.0, 0.0, 0.0, 1.6635890949333613E9, 0.0, 2022-09-19 17:04:54.933
165.0, 23170.801779127334, 62882.609711004465, 10798.552429503492, 145795.08701504316, 187500.0, 187500.0, 11234.210280681882, 19734.176365634965, 0.642, -0.668, 0.448, 192.0, 0.0, 0.0, 0.0, 0.0, 0.0, 0.0, 0.0, 0.0, 0.0, 1.663589094937464E9, 0.0, 2022-09-19 17:04:54.937
166.0, 23183.0728868333, 62889.78462097462, 10814.28805760003, 145808.02867508278, 187500.0, 187500.0, 11235.618440582568, 19739.026694181764, 0.638, -0.658, 0.446, 192.0, 19.0, 240.0, 235.0, 112.0, 13.0, 240.0, 0.0, 0.0, 0.0, 1.6635890949415267E9, 0.0, 2022-09-19 17:04:54.941
167.0, 23177.842578630756, 62863.811893917555, 10833.801130509511, 145791.17545976347, 187500.0, 187500.0, 11218.497004329802, 19701.542818730213, 0.638, -0.658, 0.446, 192.0, 0.0, 0.0, 0.0, 0.0, 0.0, 0.0, 0.0, 0.0, 0.0, 1.6635890949454849E9, 0.0, 2022-09-19 17:04:54.945
168.0, 23162.017543556398, 62846.37753324241, 10819.339551846928, 145786.4592416834, 187500.0, 187500.0, 11217.915858973964, 19755.790502523247, 0.638, -0.658, 0.446, 192.0, 0.0, 0.0, 0.0, 0.0, 0.0, 0.0, 0.0, 0.0, 0.0, 1.6635890949494853E9, 0.0, 2022-09-19 17:04:54.949
169.0, 23152.49570041844, 62854.82649264652, 10820.166566391776, 145809.7721111503, 187500.0, 187500.0, 11235.685495815933, 19785.87595056009, 0.638, -0.658, 0.446, 192.0, 0.0, 0.0, 0.0, 0.0, 0.0, 0.0, 0.0, 0.0, 0.0, 1.663589094952504E9, 0.0, 2022-09-19 17:04:54.952
170.0, 23152.58510739626, 62877.24529233519, 10822.401740837306, 145842.40565805504, 187500.0, 187500.0, 11253.61159486909, 19787.284110460772, 0.638, -0.658, 0.446, 192.0, 0.0, 0.0, 0.0, 0.0, 0.0, 0.0, 0.0, 0.0, 0.0, 1.6635890949574578E9, 0.0, 2022-09-19 17:04:54.957
171.0, 23156.54136616485, 62888.95760642977, 10816.120900645365, 145866.21026589995, 187500.0, 187500.0, 11247.174292465961, 19744.994609951333, 0.638, -0.658, 0.446, 192.0, 0.0, 0.0, 0.0, 0.0, 0.0, 0.0, 0.0, 0.0, 0.0, 1.6635890949614813E9, 0.0, 2022-09-19 17:04:54.961
172.0, 23155.423778942084, 62878.20641734677, 10826.603868794904, 145870.61355955762, 187500.0, 187500.0, 11229.35995213508, 19747.453301841415, 0.638, -0.658, 0.446, 192.0, 0.0, 0.0, 0.0, 0.0, 0.0, 0.0, 0.0, 0.0, 0.0, 1.6635890949655092E9, 0.0, 2022-09-19 17:04:54.965
173.0, 23161.570508667293, 62871.97028064374, 10836.215118910684, 145882.2364666744, 187500.0, 187500.0, 11232.310382403182, 19772.53195912027, 0.638, -0.658, 0.446, 192.0, 0.0, 0.0, 0.0, 0.0, 0.0, 0.0, 0.0, 0.0, 0.0, 1.6635890949695053E9, 0.0, 2022-09-19 17:04:54.969
174.0, 23178.40137224214, 62882.58735926001, 10820.367732091872, 145905.437577419, 187500.0, 187500.0, 11242.279260430249, 19767.94985150693, 0.638, -0.658, 0.446, 192.0, 0.0, 0.0, 0.0, 0.0, 0.0, 0.0, 0.0, 0.0, 0.0, 1.663589094974536E9, 0.0, 2022-09-19 17:04:54.974
175.0, 23181.19534029905, 62907.73307177223, 10826.559165305993, 145945.8048279053, 187500.0, 187500.0, 11262.909920562497, 19747.609764052602, 0.638, -0.658, 0.446, 192.0, 0.0, 0.0, 0.0, 0.0, 0.0, 0.0, 0.0, 0.0, 0.0, 1.6635890949774973E9, 0.0, 2022-09-19 17:04:54.977
176.0, 23163.403351712626, 62920.87589751195, 10808.722473230657, 145967.19544734902, 187500.0, 187500.0, 11253.566891380178, 19716.652597982003, 0.642, -0.66, 0.446, 192.0, 20.0, 16.0, 235.0, 96.0, 13.0, 240.0, 0.0, 0.0, 0.0, 1.6635890949805186E9, 0.0, 2022-09-19 17:04:54.980
177.0, 23136.961238022, 62904.20149614829, 10792.673920711746, 145960.06524086779, 187500.0, 187500.0, 11216.261829884272, 19754.38234262256, 0.642, -0.66, 0.446, 192.0, 0.0, 0.0, 0.0, 0.0, 0.0, 0.0, 0.0, 0.0, 0.0, 1.6635890949855237E9, 0.0, 2022-09-19 17:04:54.985
178.0, 23138.10117698922, 62902.12278391395, 10792.226885822642, 145968.24597933842, 187500.0, 187500.0, 11215.345408361603, 19714.23860958083, 0.642, -0.66, 0.446, 192.0, 0.0, 0.0, 0.0, 0.0, 0.0, 0.0, 0.0, 0.0, 0.0, 1.6635890949895618E9, 0.0, 2022-09-19 17:04:54.989
179.0, 23150.238174228452, 62929.43661563833, 10830.202499652207, 146003.7629012779, 187500.0, 187500.0, 11244.715600575877, 19760.57377583668, 0.642, -0.66, 0.446, 192.0, 0.0, 0.0, 0.0, 0.0, 0.0, 0.0, 0.0, 0.0, 0.0, 1.6635890949935732E9, 0.0, 2022-09-19 17:04:54.993
180.0, 23149.500566661427, 62969.80386612462, 10834.739903776635, 146047.23704424346, 187500.0, 187500.0, 11277.639720158544, 19733.103481901107, 0.642, -0.66, 0.446, 192.0, 0.0, 0.0, 0.0, 0.0, 0.0, 0.0, 0.0, 0.0, 0.0, 1.663589094997602E9, 0.0, 2022-09-19 17:04:54.997
181.0, 23147.265392215897, 62988.4675727448, 10826.134482161342, 146071.04165208837, 187500.0, 187500.0, 11264.563949652189, 19783.14903773654, 0.642, -0.66, 0.446, 192.0, 0.0, 0.0, 0.0, 0.0, 0.0, 0.0, 0.0, 0.0, 0.0, 1.6635890950016E9, 0.0, 2022-09-19 17:04:55.001
182.0, 23148.986476538954, 62973.983642337764, 10824.055769926998, 146065.3196055078, 187500.0, 187500.0, 11235.238460926827, 19760.8643485146, 0.642, -0.66, 0.446, 192.0, 0.0, 0.0, 0.0, 0.0, 0.0, 0.0, 0.0, 0.0, 0.0, 1.6635890950055215E9, 0.0, 2022-09-19 17:04:55.005
183.0, 23178.82605538679, 62986.61237795501, 10838.271479400573, 146083.6703877056, 187500.0, 187500.0, 11251.935214034942, 19737.819699981177, 0.642, -0.66, 0.446, 192.0, 0.0, 0.0, 0.0, 0.0, 0.0, 0.0, 0.0, 0.0, 0.0, 1.663589095008585E9, 0.0, 2022-09-19 17:04:55.008
184.0, 23177.97668909749, 63003.04091012966, 10833.130578175853, 146099.987161158, 187500.0, 187500.0, 11264.116914763084, 19700.022900107255, 0.642, -0.66, 0.446, 192.0, 0.0, 0.0, 0.0, 0.0, 0.0, 0.0, 0.0, 0.0, 0.0, 1.6635890950136433E9, 0.0, 2022-09-19 17:04:55.013
