%OpenBCI Raw EEG Data
%Number of channels = 8
%Sample Rate = 250 Hz
%Board = OpenBCI_GUI$BoardCytonSerial
Sample Index, EXG Channel 0, EXG Channel 1, EXG Channel 2, EXG Channel 3, EXG Channel 4, EXG Channel 5, EXG Channel 6, EXG Channel 7, Accel Channel 0, Accel Channel 1, Accel Channel 2, Other, Other, Other, Other, Other, Other, Other, Analog Channel 0, Analog Channel 1, Analog Channel 2, Timestamp, Other, Timestamp (Formatted)
233.0, 12079.463849003774, 16509.646655279, -74150.81699500287, -16800.621664598188, -58337.09190333985, -187500.02235174447, -40399.347591322374, -25477.099475514828, 0.0, 0.0, 0.0, 192.0, 0.0, 0.0, 0.0, 0.0, 0.0, 0.0, 0.0, 0.0, 0.0, 1.6635925695367184E9, 0.0, 2022-09-19 18:02:49.536
234.0, 12188.875638112502, 16554.327792445158, -74199.29792872643, -16841.3241912513, -58386.243389397074, -187500.02235174447, -40448.25320819059, -25511.65527244273, 0.5, -0.864, 0.178, 192.0, 15.0, 160.0, 229.0, 0.0, 5.0, 144.0, 0.0, 0.0, 0.0, 1.6635925695367436E9, 0.0, 2022-09-19 18:02:49.536
0.0, 0.0, 0.0, 0.0, 0.0, 0.0, 0.0, 0.0, 0.0, 0.5, -0.864, 0.178, 192.0, 0.0, 0.0, 0.0, 0.0, 0.0, 0.0, 0.0, 0.0, 0.0, 1.663592569626685E9, 0.0, 2022-09-19 18:02:49.626
1.0, 9723.031189803027, 20208.167458554206, -73476.39780955289, -17156.3496776044, -57093.284379635385, -187500.02235174447, -39554.094023000485, -25110.709680403434, 0.496, -0.864, 0.176, 192.0, 15.0, 128.0, 229.0, 0.0, 5.0, 128.0, 0.0, 0.0, 0.0, 1.663592569644756E9, 0.0, 2022-09-19 18:02:49.644
2.0, 9929.673067292342, 20317.221619751646, -73567.54822344163, -17248.438864760265, -57194.06839538436, -187500.02235174447, -39575.86462209995, -25218.46744042247, 0.496, -0.864, 0.176, 192.0, 0.0, 0.0, 0.0, 0.0, 0.0, 0.0, 0.0, 0.0, 0.0, 1.6635925696477072E9, 0.0, 2022-09-19 18:02:49.647
3.0, 10062.934167734882, 20387.339042107946, -73652.82012853863, -17306.262827666145, -57252.18293096816, -187500.02235174447, -39720.9274436149, -25273.944470160543, 0.496, -0.864, 0.176, 192.0, 0.0, 0.0, 0.0, 0.0, 0.0, 0.0, 0.0, 0.0, 0.0, 1.6635925696507897E9, 0.0, 2022-09-19 18:02:49.650
4.0, 9830.878356799883, 20277.659032065756, -73565.93889784085, -17213.056053287513, -57143.82167384883, -187500.02235174447, -39740.90990315794, -25161.78341648381, 0.496, -0.864, 0.176, 192.0, 0.0, 0.0, 0.0, 0.0, 0.0, 0.0, 0.0, 0.0, 0.0, 1.6635925696537817E9, 0.0, 2022-09-19 18:02:49.653
5.0, 9688.788317297498, 20192.253016502025, -73507.28792039012, -17137.261287839567, -57085.72949000949, -187500.02235174447, -39663.97519874277, -25098.72914537539, 0.496, -0.864, 0.176, 192.0, 0.0, 0.0, 0.0, 0.0, 0.0, 0.0, 0.0, 0.0, 0.0, 1.6635925696587691E9, 0.0, 2022-09-19 18:02:49.658
6.0, 9754.100114595904, 20227.233496574583, -73483.6397747564, -17147.498386800096, -57115.94904851307, -187500.02235174447, -39519.49352258367, -25107.58043617969, 0.496, -0.864, 0.176, 192.0, 0.0, 0.0, 0.0, 0.0, 0.0, 0.0, 0.0, 0.0, 0.0, 1.6635925696627443E9, 0.0, 2022-09-19 18:02:49.662
7.0, 9955.48933213822, 20346.658867199287, -73556.95349656981, -17221.572067924986, -57213.00032293801, -187500.02235174447, -39497.320592084005, -25195.154570955583, 0.496, -0.864, 0.176, 192.0, 0.0, 0.0, 0.0, 0.0, 0.0, 0.0, 0.0, 0.0, 0.0, 1.6635925696668792E9, 0.0, 2022-09-19 18:02:49.666
8.0, 10061.168379922912, 20398.537266080057, -73619.8736572115, -17269.538911526073, -57266.57745439738, -187500.02235174447, -39602.41849451286, -25235.94650458652, 0.498, -0.86, 0.17200000000000001, 192.0, 15.0, 144.0, 229.0, 32.0, 5.0, 96.0, 0.0, 0.0, 0.0, 1.6635925696707985E9, 0.0, 2022-09-19 18:02:49.670
9.0, 9844.110589517426, 20281.883511767806, -73526.84569678851, -17187.664471586286, -57156.629223421725, -187500.02235174447, -39646.652596789914, -25137.21884932743, 0.498, -0.86, 0.17200000000000001, 192.0, 0.0, 0.0, 0.0, 0.0, 0.0, 0.0, 0.0, 0.0, 0.0, 1.6635925696737952E9, 0.0, 2022-09-19 18:02:49.673
10.0, 9757.609338475388, 20227.121737852303, -73498.77190575266, -17153.600413036398, -57112.05984497784, -187500.02235174447, -39652.82167825958, -25114.59888393866, 0.498, -0.86, 0.17200000000000001, 192.0, 0.0, 0.0, 0.0, 0.0, 0.0, 0.0, 0.0, 0.0, 0.0, 1.663592569677776E9, 0.0, 2022-09-19 18:02:49.677
11.0, 9837.13684524737, 20268.02543020552, -73502.68346103233, -17180.10958196039, -57152.628261164224, -187500.02235174447, -39546.80735430805, -25157.246012359385, 0.498, -0.86, 0.17200000000000001, 192.0, 0.0, 0.0, 0.0, 0.0, 0.0, 0.0, 0.0, 0.0, 0.0, 1.6635925696818137E9, 0.0, 2022-09-19 18:02:49.681
12.0, 10040.828292468583, 20376.587853024943, -73575.28192702317, -17235.966591354205, -57247.89139603274, -187500.02235174447, -39522.24278715167, -25228.123394027163, 0.498, -0.86, 0.17200000000000001, 192.0, 0.0, 0.0, 0.0, 0.0, 0.0, 0.0, 0.0, 0.0, 0.0, 1.663592569686756E9, 0.0, 2022-09-19 18:02:49.686
13.0, 10132.448092990888, 20421.693673335754, -73624.20989563584, -17280.04423142007, -57287.141059296264, -187500.02235174447, -39619.942262165816, -25259.90757464261, 0.498, -0.86, 0.17200000000000001, 192.0, 0.0, 0.0, 0.0, 0.0, 0.0, 0.0, 0.0, 0.0, 0.0, 1.6635925696908572E9, 0.0, 2022-09-19 18:02:49.690
14.0, 9870.552703208054, 20280.944738500686, -73542.44721441832, -17224.07546330398, -57179.15978183267, -187500.02235174447, -39664.332826654056, -25166.45493107497, 0.498, -0.86, 0.17200000000000001, 192.0, 0.0, 0.0, 0.0, 0.0, 0.0, 0.0, 0.0, 0.0, 0.0, 1.663592569694821E9, 0.0, 2022-09-19 18:02:49.694
15.0, 9784.319673099479, 20216.549362724945, -73529.12557472296, -17197.58864612444, -57141.54179591439, -187500.02235174447, -39672.60297210252, -25142.516212763338, 0.498, -0.86, 0.17200000000000001, 192.0, 0.0, 0.0, 0.0, 0.0, 0.0, 0.0, 0.0, 0.0, 0.0, 1.663592569698959E9, 0.0, 2022-09-19 18:02:49.698
16.0, 9913.87038396244, 20276.29557565398, -73576.77949390167, -17244.192033313757, -57175.002357363985, -187500.02235174447, -39690.417312433405, -25185.27509990634, 0.498, -0.86, 0.17200000000000001, 192.0, 0.0, 0.0, 0.0, 0.0, 0.0, 0.0, 0.0, 0.0, 0.0, 1.6635925697018874E9, 0.0, 2022-09-19 18:02:49.701
17.0, 10135.197357558889, 20401.55475158152, -73634.93873297438, -17297.836220006495, -57281.620178415804, -187500.02235174447, -39615.98600339723, -25271.8657579262, 0.498, -0.86, 0.17200000000000001, 192.0, 0.0, 0.0, 0.0, 0.0, 0.0, 0.0, 0.0, 0.0, 0.0, 1.66359256970587E9, 0.0, 2022-09-19 18:02:49.705
18.0, 10155.805665946684, 20417.782118056075, -73651.94841050488, -17308.162725944847, -57314.65605672074, -187500.02235174447, -39637.80130598561, -25283.399258065136, 0.492, -0.856, 0.176, 192.0, 15.0, 96.0, 229.0, 64.0, 5.0, 128.0, 0.0, 0.0, 0.0, 1.6635925697098727E9, 0.0, 2022-09-19 18:02:49.709
19.0, 9903.72269197973, 20278.418991377235, -73543.14011849643, -17197.856867057904, -57183.384261534724, -187500.02235174447, -39630.24641635972, -25156.59781177018, 0.492, -0.856, 0.176, 192.0, 0.0, 0.0, 0.0, 0.0, 0.0, 0.0, 0.0, 0.0, 0.0, 1.6635925697138503E9, 0.0, 2022-09-19 18:02:49.713
20.0, 9811.030007723572, 20215.00709235753, -73500.51534182017, -17148.191290878214, -57130.052999264364, -187500.02235174447, -39584.17947103733, -25107.513380946326, 0.492, -0.856, 0.176, 192.0, 0.0, 0.0, 0.0, 0.0, 0.0, 0.0, 0.0, 0.0, 0.0, 1.6635925697188592E9, 0.0, 2022-09-19 18:02:49.718
21.0, 9907.030750159116, 20260.716409768633, -73548.61629588799, -17191.196047210222, -57174.89059864171, -187500.02235174447, -39613.68377371833, -25148.662942488547, 0.492, -0.856, 0.176, 192.0, 0.0, 0.0, 0.0, 0.0, 0.0, 0.0, 0.0, 0.0, 0.0, 1.663592569722864E9, 0.0, 2022-09-19 18:02:49.722
22.0, 10154.196340345901, 20397.777306768574, -73625.3274828586, -17259.301812565544, -57279.49676269255, -187500.02235174447, -39603.67019220236, -25249.22344079297, 0.492, -0.856, 0.176, 192.0, 0.0, 0.0, 0.0, 0.0, 0.0, 0.0, 0.0, 0.0, 0.0, 1.663592569725835E9, 0.0, 2022-09-19 18:02:49.725
23.0, 10204.465413625887, 20430.18733622877, -73639.92317198792, -17292.76237401514, -57304.418957760216, -187500.02235174447, -39639.61179728649, -25271.485778270457, 0.492, -0.856, 0.176, 192.0, 0.0, 0.0, 0.0, 0.0, 0.0, 0.0, 0.0, 0.0, 0.0, 1.663592569729929E9, 0.0, 2022-09-19 18:02:49.729
24.0, 9953.522378626154, 20295.741593330098, -73553.01958954569, -17205.054128772514, -57181.52906674494, -187500.02235174447, -39678.34737042754, -25145.578401753715, 0.492, -0.856, 0.176, 192.0, 0.0, 0.0, 0.0, 0.0, 0.0, 0.0, 0.0, 0.0, 0.0, 1.6635925697338881E9, 0.0, 2022-09-19 18:02:49.733
25.0, 9876.587674210987, 20248.62411601831, -73529.84083054552, -17142.2457268531, -57135.05979002235, -187500.02235174447, -39689.59029788856, -25107.06634605722, 0.492, -0.856, 0.176, 192.0, 0.0, 0.0, 0.0, 0.0, 0.0, 0.0, 0.0, 0.0, 0.0, 1.663592569737887E9, 0.0, 2022-09-19 18:02:49.737
26.0, 9950.907224524883, 20286.577378103422, -73524.74463280971, -17195.666396101285, -57191.587351749826, -187500.02235174447, -39540.50416237166, -25181.11767543765, 0.492, -0.856, 0.176, 192.0, 0.0, 0.0, 0.0, 0.0, 0.0, 0.0, 0.0, 0.0, 0.0, 1.6635925697419295E9, 0.0, 2022-09-19 18:02:49.741
27.0, 10156.699735724895, 20407.254446417624, -73599.80179069065, -17307.3357114, -57303.927219382196, -187500.02235174447, -39503.48967355367, -25287.62373776719, 0.492, -0.856, 0.176, 192.0, 0.0, 0.0, 0.0, 0.0, 0.0, 0.0, 0.0, 0.0, 0.0, 1.6635925697469225E9, 0.0, 2022-09-19 18:02:49.746
28.0, 10195.055329210201, 20432.020179274106, -73636.57041031962, -17339.455168182274, -57319.17110910072, -187500.02235174447, -39637.33191935205, -25298.173761150094, 0.498, -0.856, 0.18, 192.0, 15.0, 144.0, 229.0, 64.0, 5.0, 160.0, 0.0, 0.0, 0.0, 1.663592569750877E9, 0.0, 2022-09-19 18:02:49.750
29.0, 9926.499119579688, 20281.34706990088, -73528.87970553395, -17216.766442867094, -57202.4502995551, -187500.02235174447, -39615.15898885238, -25172.624012544635, 0.498, -0.856, 0.18, 192.0, 0.0, 0.0, 0.0, 0.0, 0.0, 0.0, 0.0, 0.0, 0.0, 1.6635925697538557E9, 0.0, 2022-09-19 18:02:49.753
30.0, 9849.832636097985, 20233.313171066424, -73483.12568463394, -17152.482825813633, -57158.59617693379, -187500.02235174447, -39543.00755775065, -25125.618293955125, 0.498, -0.856, 0.18, 192.0, 0.0, 0.0, 0.0, 0.0, 0.0, 0.0, 0.0, 0.0, 0.0, 1.6635925697580483E9, 0.0, 2022-09-19 18:02:49.758
31.0, 9954.930538526838, 20291.651224094778, -73520.4978013632, -17159.367163105868, -57185.26180806897, -187500.02235174447, -39561.26893297064, -25155.6366867586, 0.498, -0.856, 0.18, 192.0, 0.0, 0.0, 0.0, 0.0, 0.0, 0.0, 0.0, 0.0, 0.0, 1.6635925697619936E9, 0.0, 2022-09-19 18:02:49.761
32.0, 10199.749195545817, 20422.3195221805, -73633.21764865132, -17257.625431731394, -57287.074004062895, -187500.02235174447, -39643.992739199726, -25267.61892647969, 0.498, -0.856, 0.18, 192.0, 0.0, 0.0, 0.0, 0.0, 0.0, 0.0, 0.0, 0.0, 0.0, 1.6635925697659836E9, 0.0, 2022-09-19 18:02:49.765
33.0, 10231.511024416808, 20444.648914891353, -73637.2856661422, -17288.962577457736, -57282.246027260546, -187500.02235174447, -39731.2763012977, -25283.15338887613, 0.498, -0.856, 0.18, 192.0, 0.0, 0.0, 0.0, 0.0, 0.0, 0.0, 0.0, 0.0, 0.0, 1.663592569769946E9, 0.0, 2022-09-19 18:02:49.769
34.0, 9976.656434137396, 20309.53261965902, -73530.354920668, -17232.680884919275, -57165.18994154811, -187500.02235174447, -39707.49404519726, -25178.144893425095, 0.498, -0.856, 0.18, 192.0, 0.0, 0.0, 0.0, 0.0, 0.0, 0.0, 0.0, 0.0, 0.0, 1.6635925697750125E9, 0.0, 2022-09-19 18:02:49.775
35.0, 9910.271753105135, 20267.95837497215, -73501.63292904293, -17218.80045161253, -57145.31924072734, -187500.02235174447, -39625.08316339054, -25168.26542237585, 0.498, -0.856, 0.18, 192.0, 0.0, 0.0, 0.0, 0.0, 0.0, 0.0, 0.0, 0.0, 0.0, 1.6635925697789788E9, 0.0, 2022-09-19 18:02:49.778
36.0, 10008.574725219576, 20320.172050019748, -73537.7086445938, -17239.98990535616, -57193.93428491763, -187500.02235174447, -39589.45448272878, -25210.42081241856, 0.498, -0.856, 0.18, 192.0, 0.0, 0.0, 0.0, 0.0, 0.0, 0.0, 0.0, 0.0, 0.0, 1.6635925697819557E9, 0.0, 2022-09-19 18:02:49.781
37.0, 10286.183391354489, 20466.911252368838, -73634.51404982973, -17263.392181800864, -57282.804820871934, -187500.02235174447, -39646.652596789914, -25256.778330418867, 0.498, -0.856, 0.18, 192.0, 0.0, 0.0, 0.0, 0.0, 0.0, 0.0, 0.0, 0.0, 0.0, 1.6635925697859185E9, 0.0, 2022-09-19 18:02:49.785
38.0, 10260.143609064056, 20458.462292964734, -73613.34694783056, -17240.101664078436, -57253.456980402116, -187500.02235174447, -39686.55046064263, -25240.729777899956, 0.504, -0.862, 0.178, 192.0, 15.0, 192.0, 229.0, 16.0, 5.0, 144.0, 0.0, 0.0, 0.0, 1.6635925697899885E9, 0.0, 2022-09-19 18:02:49.789
39.0, 9990.425108721865, 20311.87955282683, -73485.42791431284, -17151.812273479973, -57118.6312578477, -187500.02235174447, -39610.53217775014, -25124.16543056553, 0.504, -0.862, 0.178, 192.0, 0.0, 0.0, 0.0, 0.0, 0.0, 0.0, 0.0, 0.0, 0.0, 1.6635925697940176E9, 0.0, 2022-09-19 18:02:49.794
40.0, 9930.433026603821, 20286.823247292432, -73463.70201870227, -17171.325346389454, -57098.76055702694, -187500.02235174447, -39540.392403649385, -25133.821384170224, 0.504, -0.862, 0.178, 192.0, 0.0, 0.0, 0.0, 0.0, 0.0, 0.0, 0.0, 0.0, 0.0, 1.6635925697980115E9, 0.0, 2022-09-19 18:02:49.798
41.0, 10051.735943762773, 20352.827948668953, -73522.66592057538, -17195.68874784574, -57141.653554636665, -187500.02235174447, -39573.33887497651, -25170.65705903257, 0.504, -0.862, 0.178, 192.0, 0.0, 0.0, 0.0, 0.0, 0.0, 0.0, 0.0, 0.0, 0.0, 1.6635925698030128E9, 0.0, 2022-09-19 18:02:49.803
42.0, 10315.777101013315, 20490.984081147206, -73622.53351480169, -17246.963649626214, -57231.57462258037, -187500.02235174447, -39638.58361704154, -25259.95227813152, 0.504, -0.862, 0.178, 192.0, 0.0, 0.0, 0.0, 0.0, 0.0, 0.0, 0.0, 0.0, 0.0, 1.66359256980702E9, 0.0, 2022-09-19 18:02:49.807
43.0, 10294.632350758595, 20484.323261299523, -73620.14187814498, -17259.391219543366, -57213.35795084929, -187500.02235174447, -39730.65045245295, -25231.654969651103, 0.504, -0.862, 0.178, 192.0, 0.0, 0.0, 0.0, 0.0, 0.0, 0.0, 0.0, 0.0, 0.0, 1.663592569810045E9, 0.0, 2022-09-19 18:02:49.810
44.0, 10028.870109184994, 20339.93099211824, -73486.29963234659, -17177.740297048127, -57089.30576912234, -187500.02235174447, -39623.07150638956, -25121.10324157515, 0.504, -0.862, 0.178, 192.0, 0.0, 0.0, 0.0, 0.0, 0.0, 0.0, 0.0, 0.0, 0.0, 1.663592569814082E9, 0.0, 2022-09-19 18:02:49.814
45.0, 9968.296881711112, 20308.05740452497, -73438.86923061243, -17157.221395638157, -57070.68676599107, -187500.02235174447, -39486.79292044556, -25113.21307578243, 0.504, -0.862, 0.178, 192.0, 0.0, 0.0, 0.0, 0.0, 0.0, 0.0, 0.0, 0.0, 0.0, 1.663592569818047E9, 0.0, 2022-09-19 18:02:49.818
46.0, 10085.956464523848, 20371.04462040003, -73512.67469080385, -17177.539131348032, -57114.69735082357, -187500.02235174447, -39551.45651715476, -25152.194518112483, 0.504, -0.862, 0.178, 192.0, 0.0, 0.0, 0.0, 0.0, 0.0, 0.0, 0.0, 0.0, 0.0, 1.6635925698220437E9, 0.0, 2022-09-19 18:02:49.822
47.0, 10344.275575193831, 20492.213427092247, -73655.34587566208, -17299.445545607276, -57225.56200332189, -187500.02235174447, -39694.954716557826, -25269.407066036114, 0.504, -0.862, 0.178, 192.0, 0.0, 0.0, 0.0, 0.0, 0.0, 0.0, 0.0, 0.0, 0.0, 1.6635925698260465E9, 0.0, 2022-09-19 18:02:49.826
48.0, 10299.37092058312, 20467.782970402597, -73636.34689287507, -17313.95182775877, -57202.02561641045, -187500.02235174447, -39739.09941185706, -25264.512034000403, 0.498, -0.858, 0.18, 192.0, 15.0, 144.0, 229.0, 48.0, 5.0, 160.0, 0.0, 0.0, 0.0, 1.6635925698300257E9, 0.0, 2022-09-19 18:02:49.830
49.0, 10024.332705060568, 20338.947515362208, -73489.87591145944, -17185.63046284085, -57075.89472244916, -187500.02235174447, -39586.36994199395, -25125.64064569958, 0.498, -0.858, 0.18, 192.0, 0.0, 0.0, 0.0, 0.0, 0.0, 0.0, 0.0, 0.0, 0.0, 1.6635925698350885E9, 0.0, 2022-09-19 18:02:49.835
50.0, 9997.60001869202, 20331.660846669776, -73463.45614951327, -17139.02707565154, -57046.43512325706, -187500.02235174447, -39521.14755167336, -25087.19564523645, 0.498, -0.858, 0.18, 192.0, 0.0, 0.0, 0.0, 0.0, 0.0, 0.0, 0.0, 0.0, 0.0, 1.6635925698380623E9, 0.0, 2022-09-19 18:02:49.838
51.0, 10132.515148224253, 20402.202952170726, -73525.34812991001, -17186.68099483025, -57109.35528389875, -187500.02235174447, -39545.086269985, -25153.580326268715, 0.498, -0.858, 0.18, 192.0, 0.0, 0.0, 0.0, 0.0, 0.0, 0.0, 0.0, 0.0, 0.0, 1.6635925698420584E9, 0.0, 2022-09-19 18:02:49.842
52.0, 10377.512619198873, 20526.523354831144, -73613.99514841977, -17246.98600137067, -57208.12764264675, -187500.02235174447, -39587.82280538354, -25223.89891432511, 0.498, -0.858, 0.18, 192.0, 0.0, 0.0, 0.0, 0.0, 0.0, 0.0, 0.0, 0.0, 0.0, 1.6635925698460937E9, 0.0, 2022-09-19 18:02:49.846
53.0, 10278.919074406514, 20474.779066417108, -73575.48309272327, -17227.83055637247, -57174.51061898597, -187500.02235174447, -39610.37571553895, -25185.677431306536, 0.498, -0.858, 0.18, 192.0, 0.0, 0.0, 0.0, 0.0, 0.0, 0.0, 0.0, 0.0, 0.0, 1.6635925698501325E9, 0.0, 2022-09-19 18:02:49.850
54.0, 10014.78851017815, 20335.50534671609, -73505.20920815578, -17163.166959663267, -57060.11439086371, -187500.02235174447, -39674.92755352587, -25089.140247004063, 0.498, -0.858, 0.18, 192.0, 0.0, 0.0, 0.0, 0.0, 0.0, 0.0, 0.0, 0.0, 0.0, 1.6635925698540926E9, 0.0, 2022-09-19 18:02:49.854
55.0, 10060.497827589254, 20341.02622759655, -73521.86125777499, -17194.54880887852, -57066.68580373357, -187500.02235174447, -39696.38522820297, -25111.179067036996, 0.498, -0.858, 0.18, 192.0, 0.0, 0.0, 0.0, 0.0, 0.0, 0.0, 0.0, 0.0, 0.0, 1.6635925698581088E9, 0.0, 2022-09-19 18:02:49.858
56.0, 10183.477125582353, 20412.93178950927, -73499.33069936403, -17214.553620166018, -57119.45827239255, -187500.02235174447, -39473.136004583364, -25163.348038595683, 0.498, -0.858, 0.18, 192.0, 0.0, 0.0, 0.0, 0.0, 0.0, 0.0, 0.0, 0.0, 0.0, 1.6635925698631516E9, 0.0, 2022-09-19 18:02:49.863
57.0, 10365.755601615383, 20520.01899719465, -73594.70559295484, -17264.50976902363, -57223.505642832, -187500.02235174447, -39516.6772027823, -25246.116548313687, 0.498, -0.858, 0.18, 192.0, 0.0, 0.0, 0.0, 0.0, 0.0, 0.0, 0.0, 0.0, 0.0, 1.663592569866123E9, 0.0, 2022-09-19 18:02:49.866
58.0, 10290.094946634168, 20470.420476248324, -73615.49271529827, -17266.923757424804, -57184.05481386839, -187500.02235174447, -39725.44249599487, -25209.191466473516, 0.494, -0.856, 0.184, 192.0, 15.0, 112.0, 229.0, 64.0, 5.0, 192.0, 0.0, 0.0, 0.0, 1.6635925698691208E9, 0.0, 2022-09-19 18:02:49.869
59.0, 10083.52012437822, 20348.335248033436, -73530.19845845681, -17192.335986177444, -57076.364109082715, -187500.02235174447, -39749.64943523997, -25122.623160198113, 0.494, -0.856, 0.184, 192.0, 0.0, 0.0, 0.0, 0.0, 0.0, 0.0, 0.0, 0.0, 0.0, 1.6635925698741524E9, 0.0, 2022-09-19 18:02:49.874
60.0, 10072.858342273039, 20343.753140420096, -73482.11985613345, -17178.164980192778, -57085.7741934984, -187500.02235174447, -39571.081348786516, -25103.8253431112, 0.494, -0.856, 0.184, 192.0, 0.0, 0.0, 0.0, 0.0, 0.0, 0.0, 0.0, 0.0, 0.0, 1.663592569878169E9, 0.0, 2022-09-19 18:02:49.878
61.0, 10185.332320372143, 20423.973551270195, -73502.3481848655, -17209.725643363672, -57135.95385980057, -187500.02235174447, -39486.79292044556, -25138.26938131683, 0.494, -0.856, 0.184, 192.0, 0.0, 0.0, 0.0, 0.0, 0.0, 0.0, 0.0, 0.0, 0.0, 1.6635925698821373E9, 0.0, 2022-09-19 18:02:49.882
62.0, 10433.615497781695, 20557.145244734915, -73641.97953247781, -17271.662327249327, -57228.73595103454, -187500.02235174447, -39690.57377464459, -25224.636521892135, 0.494, -0.856, 0.184, 192.0, 0.0, 0.0, 0.0, 0.0, 0.0, 0.0, 0.0, 0.0, 0.0, 1.6635925698861384E9, 0.0, 2022-09-19 18:02:49.886
63.0, 10325.678923807016, 20482.222197320723, -73574.16433980041, -17231.853870374427, -57181.41730802266, -187500.02235174447, -39641.24347463172, -25183.55401558328, 0.494, -0.856, 0.184, 192.0, 0.0, 0.0, 0.0, 0.0, 0.0, 0.0, 0.0, 0.0, 0.0, 1.6635925698912768E9, 0.0, 2022-09-19 18:02:49.891
64.0, 10056.429810098387, 20340.132157818338, -73442.15493704737, -17166.899700987306, -57070.217379357506, -187500.02235174447, -39485.27300182259, -25097.231578496885, 0.494, -0.856, 0.184, 192.0, 0.0, 0.0, 0.0, 0.0, 0.0, 0.0, 0.0, 0.0, 0.0, 1.6635925698941605E9, 0.0, 2022-09-19 18:02:49.894
65.0, 10076.188752196878, 20354.638439969833, -73443.33957950349, -17155.992049693115, -57056.0687251173, -187500.02235174447, -39470.14087082635, -25084.692249857457, 0.494, -0.856, 0.184, 192.0, 0.0, 0.0, 0.0, 0.0, 0.0, 0.0, 0.0, 0.0, 0.0, 1.6635925698971581E9, 0.0, 2022-09-19 18:02:49.897
66.0, 10219.754006833316, 20424.979379770684, -73487.6407370139, -17171.370049878366, -57114.87616477921, -187500.02235174447, -39432.589940141435, -25127.987578867385, 0.494, -0.856, 0.184, 192.0, 0.0, 0.0, 0.0, 0.0, 0.0, 0.0, 0.0, 0.0, 0.0, 1.663592569902145E9, 0.0, 2022-09-19 18:02:49.902
67.0, 10429.100445401722, 20528.780881021128, -73605.83676169357, -17248.55062348254, -57214.90022121671, -187500.02235174447, -39577.83157561202, -25225.37412945916, 0.494, -0.856, 0.184, 192.0, 0.0, 0.0, 0.0, 0.0, 0.0, 0.0, 0.0, 0.0, 0.0, 1.6635925699062004E9, 0.0, 2022-09-19 18:02:49.906
68.0, 10325.298944151276, 20463.11145581144, -73607.58019776108, -17234.55843145352, -57159.0432118229, -187500.02235174447, -39774.8398512411, -25178.32370738074, 0.494, -0.856, 0.192, 192.0, 15.0, 112.0, 229.0, 64.0, 6.0, 0.0, 0.0, 0.0, 0.0, 1.663592569910148E9, 0.0, 2022-09-19 18:02:49.910
69.0, 10080.94967376586, 20342.188518308227, -73444.09953881497, -17167.614956809874, -57056.53811175086, -187500.02235174447, -39548.30492118656, -25088.961433048422, 0.494, -0.856, 0.192, 192.0, 0.0, 0.0, 0.0, 0.0, 0.0, 0.0, 0.0, 0.0, 0.0, 1.6635925699161944E9, 0.0, 2022-09-19 18:02:49.916
70.0, 10049.74663850625, 20333.873669370852, -73414.01409077813, -17164.172788163756, -57059.60030074124, -187500.02235174447, -39422.26343420308, -25089.564930148714, 0.494, -0.856, 0.192, 192.0, 0.0, 0.0, 0.0, 0.0, 0.0, 0.0, 0.0, 0.0, 0.0, 1.663592569919233E9, 0.0, 2022-09-19 18:02:49.919
71.0, 10210.187460206445, 20416.351606410935, -73493.34043185001, -17213.2125154987, -57129.96359228654, -187500.02235174447, -39468.15156556983, -25155.368465825137, 0.494, -0.856, 0.192, 192.0, 0.0, 0.0, 0.0, 0.0, 0.0, 0.0, 0.0, 0.0, 0.0, 1.6635925699222653E9, 0.0, 2022-09-19 18:02:49.922
72.0, 10445.104294431721, 20536.089901458014, -73633.70938702935, -17296.919798483825, -57225.47259634407, -187500.02235174447, -39669.13845171195, -25235.208897019496, 0.494, -0.856, 0.192, 192.0, 0.0, 0.0, 0.0, 0.0, 0.0, 0.0, 0.0, 0.0, 0.0, 1.663592569925215E9, 0.0, 2022-09-19 18:02:49.925
73.0, 10308.781004998804, 20461.412723232836, -73567.65998216391, -17279.708955253238, -57160.85370312378, -187500.02235174447, -39686.05872226461, -25189.70074530849, 0.494, -0.856, 0.192, 192.0, 0.0, 0.0, 0.0, 0.0, 0.0, 0.0, 0.0, 0.0, 0.0, 1.6635925699302375E9, 0.0, 2022-09-19 18:02:49.930
74.0, 10069.215007926823, 20345.69774218771, -73470.13932110541, -17165.200968408702, -57060.47201877499, -187500.02235174447, -39597.97049736625, -25083.172331234495, 0.494, -0.856, 0.192, 192.0, 0.0, 0.0, 0.0, 0.0, 0.0, 0.0, 0.0, 0.0, 0.0, 1.663592569934252E9, 0.0, 2022-09-19 18:02:49.934
75.0, 10087.47638314681, 20350.41396026778, -73464.81960592505, -17131.76275870356, -57062.14839960914, -187500.02235174447, -39539.54303736008, -25075.259813697317, 0.494, -0.856, 0.192, 192.0, 0.0, 0.0, 0.0, 0.0, 0.0, 0.0, 0.0, 0.0, 0.0, 1.66359256993825E9, 0.0, 2022-09-19 18:02:49.938
76.0, 10246.598451924141, 20442.369036956912, -73504.11397267747, -17197.074556001968, -57130.65649636466, -187500.02235174447, -39476.62287671839, -25157.760102481858, 0.494, -0.856, 0.192, 192.0, 0.0, 0.0, 0.0, 0.0, 0.0, 0.0, 0.0, 0.0, 0.0, 1.6635925699422057E9, 0.0, 2022-09-19 18:02:49.942
77.0, 10435.425989082574, 20548.137491719426, -73587.28481379568, -17278.390202330374, -57218.47650032956, -187500.02235174447, -39525.01440346413, -25235.56652493078, 0.494, -0.856, 0.192, 192.0, 0.0, 0.0, 0.0, 0.0, 0.0, 0.0, 0.0, 0.0, 0.0, 1.663592569946254E9, 0.0, 2022-09-19 18:02:49.946
78.0, 10258.467228229909, 20458.14936854236, -73535.94285678182, -17248.103588593436, -57140.15598775816, -187500.02235174447, -39593.07546533054, -25183.196387671996, 0.494, -0.856, 0.192, 192.0, 0.0, 0.0, 0.0, 0.0, 0.0, 0.0, 0.0, 0.0, 0.0, 1.6635925699494162E9, 0.0, 2022-09-19 18:02:49.949
79.0, 10064.431734613388, 20354.12434984736, -73456.25888779866, -17166.564424820474, -57046.94921337953, -187500.02235174447, -39555.65864511236, -25093.856465084133, 0.5, -0.852, 0.186, 192.0, 15.0, 160.0, 229.0, 96.0, 5.0, 208.0, 0.0, 0.0, 0.0, 1.6635925699532392E9, 0.0, 2022-09-19 18:02:49.953
80.0, 10110.275162491222, 20376.69961174722, -73466.69715245928, -17155.92499445975, -57054.14647509414, -187500.02235174447, -39535.94440650278, -25091.91186331652, 0.5, -0.852, 0.186, 192.0, 0.0, 0.0, 0.0, 0.0, 0.0, 0.0, 0.0, 0.0, 0.0, 1.6635925699582655E9, 0.0, 2022-09-19 18:02:49.958
81.0, 10309.272743376821, 20476.410743762346, -73538.62506611647, -17211.044396286536, -57130.54473764238, -187500.02235174447, -39547.45555489726, -25158.698875748978, 0.5, -0.852, 0.186, 192.0, 0.0, 0.0, 0.0, 0.0, 0.0, 0.0, 0.0, 0.0, 0.0, 1.6635925699622853E9, 0.0, 2022-09-19 18:02:49.962
82.0, 10485.851524573747, 20571.673878630863, -73611.26823559622, -17281.787667487584, -57208.99936068051, -187500.02235174447, -39594.23775604222, -25235.074786552763, 0.5, -0.852, 0.186, 192.0, 0.0, 0.0, 0.0, 0.0, 0.0, 0.0, 0.0, 0.0, 0.0, 1.6635925699662938E9, 0.0, 2022-09-19 18:02:49.966
83.0, 10290.094946634168, 20475.829598406508, -73537.21690621578, -17244.50495773613, -57127.08021725181, -187500.02235174447, -39617.215349342274, -25164.197404884984, 0.5, -0.852, 0.186, 192.0, 0.0, 0.0, 0.0, 0.0, 0.0, 0.0, 0.0, 0.0, 0.0, 1.663592569970292E9, 0.0, 2022-09-19 18:02:49.970
84.0, 10109.38109271301, 20381.70640250521, -73470.11696936096, -17192.06776524398, -57047.776227924376, -187500.02235174447, -39595.60121245399, -25089.92255806, 0.5, -0.852, 0.186, 192.0, 0.0, 0.0, 0.0, 0.0, 0.0, 0.0, 0.0, 0.0, 0.0, 1.663592569974608E9, 0.0, 2022-09-19 18:02:49.974
85.0, 10164.321680584155, 20406.60624582842, -73519.73784205173, -17223.40491097032, -57066.26112058892, -187500.02235174447, -39671.08305347956, -25124.25483754335, 0.5, -0.852, 0.186, 192.0, 0.0, 0.0, 0.0, 0.0, 0.0, 0.0, 0.0, 0.0, 0.0, 1.6635925699773843E9, 0.0, 2022-09-19 18:02:49.977
86.0, 10390.856610638692, 20509.424270322834, -73579.90873812542, -17262.855739933937, -57150.326031485325, -187500.02235174447, -39636.996643185215, -25201.301300680796, 0.5, -0.852, 0.186, 192.0, 0.0, 0.0, 0.0, 0.0, 0.0, 0.0, 0.0, 0.0, 0.0, 1.6635925699813452E9, 0.0, 2022-09-19 18:02:49.981
87.0, 10521.70372268006, 20587.476561960764, -73599.08653486807, -17293.723499026717, -57218.252982885, -187500.02235174447, -39559.34668294748, -25262.14274908814, 0.5, -0.852, 0.186, 192.0, 0.0, 0.0, 0.0, 0.0, 0.0, 0.0, 0.0, 0.0, 0.0, 1.6635925699853227E9, 0.0, 2022-09-19 18:02:49.985
88.0, 10292.017196657323, 20477.327165285013, -73493.34043185001, -17214.575971910475, -57114.38442640119, -187500.02235174447, -39537.956063503756, -25167.55016655328, 0.5, -0.852, 0.186, 192.0, 0.0, 0.0, 0.0, 0.0, 0.0, 0.0, 0.0, 0.0, 0.0, 1.66359256999033E9, 0.0, 2022-09-19 18:02:49.990
89.0, 10105.089557777592, 20374.3079750905, -73419.80319259205, -17143.698590242697, -57034.633402184656, -187500.02235174447, -39489.85510943593, -25082.077095756187, 0.5, -0.858, 0.184, 192.0, 15.0, 160.0, 229.0, 48.0, 5.0, 192.0, 0.0, 0.0, 0.0, 1.6635925699944394E9, 0.0, 2022-09-19 18:02:49.994
90.0, 10131.084636579113, 20394.581007311466, -73449.37455050643, -17173.024078968057, -57064.49533277695, -187500.02235174447, -39489.02809489109, -25092.11302901662, 0.5, -0.858, 0.184, 192.0, 0.0, 0.0, 0.0, 0.0, 0.0, 0.0, 0.0, 0.0, 0.0, 1.6635925699984105E9, 0.0, 2022-09-19 18:02:49.998
91.0, 10328.539947097295, 20507.47966855522, -73537.10514749351, -17243.677943191284, -57156.69627865509, -187500.02235174447, -39547.366147919434, -25163.30333510677, 0.5, -0.858, 0.184, 192.0, 0.0, 0.0, 0.0, 0.0, 0.0, 0.0, 0.0, 0.0, 0.0, 1.6635925700024035E9, 0.0, 2022-09-19 18:02:50.002
92.0, 10494.524001422405, 20588.661204416898, -73600.11471511301, -17297.47859209521, -57226.545480077926, -187500.02235174447, -39611.135674850426, -25251.19039430504, 0.5, -0.858, 0.184, 192.0, 0.0, 0.0, 0.0, 0.0, 0.0, 0.0, 0.0, 0.0, 0.0, 1.663592570005466E9, 0.0, 2022-09-19 18:02:50.005
93.0, 10284.395251798065, 20480.992851375682, -73516.76506003918, -17210.93263756426, -57117.02193224692, -187500.02235174447, -39640.66232927589, -25151.076930889718, 0.5, -0.858, 0.184, 192.0, 0.0, 0.0, 0.0, 0.0, 0.0, 0.0, 0.0, 0.0, 0.0, 1.6635925700094266E9, 0.0, 2022-09-19 18:02:50.009
94.0, 10105.223668244324, 20391.80939099901, -73460.77394017862, -17143.564479775963, -57034.02990508437, -187500.02235174447, -39617.19299759781, -25073.04699099624, 0.5, -0.858, 0.184, 192.0, 0.0, 0.0, 0.0, 0.0, 0.0, 0.0, 0.0, 0.0, 0.0, 1.6635925700134544E9, 0.0, 2022-09-19 18:02:50.013
95.0, 10110.677493891419, 20423.146536725348, -73477.13541711992, -17176.957985992194, -57053.9676611385, -187500.02235174447, -39580.67024715785, -25094.169389506507, 0.5, -0.858, 0.184, 192.0, 0.0, 0.0, 0.0, 0.0, 0.0, 0.0, 0.0, 0.0, 0.0, 1.6635925700184517E9, 0.0, 2022-09-19 18:02:50.018
96.0, 10325.656572062562, 20541.566078849566, -73533.57357186957, -17253.289193307068, -57140.87124358073, -187500.02235174447, -39525.90847324234, -25180.044791703796, 0.5, -0.858, 0.184, 192.0, 0.0, 0.0, 0.0, 0.0, 0.0, 0.0, 0.0, 0.0, 0.0, 1.6635925700223913E9, 0.0, 2022-09-19 18:02:50.022
97.0, 10519.22267904552, 20623.351111811535, -73604.2274360928, -17332.66023786786, -57205.11015714528, -187500.02235174447, -39609.83927367202, -25244.88720236864, 0.5, -0.858, 0.184, 192.0, 0.0, 0.0, 0.0, 0.0, 0.0, 0.0, 0.0, 0.0, 0.0, 1.6635925700264192E9, 0.0, 2022-09-19 18:02:50.026
98.0, 10304.981208441402, 20512.285293613113, -73510.81949601407, -17238.13471056637, -57102.26978090642, -187500.02235174447, -39610.50982600568, -25146.316009320737, 0.5, -0.858, 0.184, 192.0, 0.0, 0.0, 0.0, 0.0, 0.0, 0.0, 0.0, 0.0, 0.0, 1.6635925700304189E9, 0.0, 2022-09-19 18:02:50.030
99.0, 10120.825185874128, 20419.838478545964, -73418.37268094691, -17128.231183079624, -57014.04744554132, -187500.02235174447, -39502.81912122001, -25059.971220489886, 0.496, -0.864, 0.18, 192.0, 15.0, 128.0, 229.0, 0.0, 5.0, 160.0, 0.0, 0.0, 0.0, 1.6635925700344317E9, 0.0, 2022-09-19 18:02:50.034
100.0, 10177.039823179224, 20456.29417375257, -73471.10044611698, -17142.62570650884, -57029.9618875935, -187500.02235174447, -39591.66730542986, -25081.808874822724, 0.496, -0.864, 0.18, 192.0, 0.0, 0.0, 0.0, 0.0, 0.0, 0.0, 0.0, 0.0, 0.0, 1.6635925700384145E9, 0.0, 2022-09-19 18:02:50.038
101.0, 10374.584540675229, 20567.203529739803, -73552.88547907895, -17248.1706438268, -57132.48933940999, -187500.02235174447, -39585.45352047128, -25190.751277297888, 0.496, -0.864, 0.18, 192.0, 0.0, 0.0, 0.0, 0.0, 0.0, 0.0, 0.0, 0.0, 0.0, 1.6635925700413885E9, 0.0, 2022-09-19 18:02:50.041
102.0, 10473.580416867784, 20632.358864827023, -73594.99616563275, -17307.201600933266, -57195.36479656277, -187500.02235174447, -39587.66634317236, -25239.791004632832, 0.496, -0.864, 0.18, 192.0, 0.0, 0.0, 0.0, 0.0, 0.0, 0.0, 0.0, 0.0, 0.0, 1.6635925700464854E9, 0.0, 2022-09-19 18:02:50.046
103.0, 10247.000783324336, 20516.576828548532, -73471.77099845064, -17215.40298645532, -57072.161981125115, -187500.02235174447, -39535.47501986921, -25116.565837450726, 0.496, -0.864, 0.18, 192.0, 0.0, 0.0, 0.0, 0.0, 0.0, 0.0, 0.0, 0.0, 0.0, 1.6635925700503924E9, 0.0, 2022-09-19 18:02:50.050
104.0, 10085.844705801572, 20433.94242929726, -73390.6788695668, -17142.513947786563, -56996.21075346599, -187500.02235174447, -39430.53357965155, -25058.116025700096, 0.496, -0.864, 0.18, 192.0, 0.0, 0.0, 0.0, 0.0, 0.0, 0.0, 0.0, 0.0, 0.0, 1.66359257005443E9, 0.0, 2022-09-19 18:02:50.054
105.0, 10142.77459892924, 20466.978307602207, -73436.41053872234, -17159.478921828144, -57013.24278274093, -187500.02235174447, -39488.514004768615, -25097.924482575, 0.496, -0.864, 0.18, 192.0, 0.0, 0.0, 0.0, 0.0, 0.0, 0.0, 0.0, 0.0, 0.0, 1.6635925700583973E9, 0.0, 2022-09-19 18:02:50.058
106.0, 10369.95772957298, 20578.357050223, -73560.35096172702, -17251.121074094903, -57105.7790047859, -187500.02235174447, -39613.66142197388, -25210.577274629748, 0.496, -0.864, 0.18, 192.0, 0.0, 0.0, 0.0, 0.0, 0.0, 0.0, 0.0, 0.0, 0.0, 1.6635925700615146E9, 0.0, 2022-09-19 18:02:50.061
107.0, 10475.346204679752, 20642.841832976563, -73609.01070940623, -17322.266676696145, -57149.566072173846, -187500.02235174447, -39678.23561170526, -25249.80458614881, 0.496, -0.864, 0.18, 192.0, 0.0, 0.0, 0.0, 0.0, 0.0, 0.0, 0.0, 0.0, 0.0, 1.6635925700675387E9, 0.0, 2022-09-19 18:02:50.067
108.0, 10211.841489296137, 20517.605008793475, -73481.60576601098, -17259.36886779891, -57036.309783018805, -187500.02235174447, -39588.40395073938, -25153.937954179997, 0.496, -0.864, 0.18, 192.0, 0.0, 0.0, 0.0, 0.0, 0.0, 0.0, 0.0, 0.0, 0.0, 1.6635925700704672E9, 0.0, 2022-09-19 18:02:50.070
109.0, 10079.362699909532, 20449.253374249147, -73411.30952969904, -17179.371974393365, -56975.066003211265, -187500.02235174447, -39480.42267327579, -25068.91191827201, 0.498, -0.864, 0.186, 192.0, 15.0, 144.0, 229.0, 0.0, 5.0, 208.0, 0.0, 0.0, 0.0, 1.663592570074462E9, 0.0, 2022-09-19 18:02:50.074
110.0, 10165.931006184937, 20483.451543265768, -73459.87987040041, -17154.270965370055, -57002.245724468914, -187500.02235174447, -39522.06397319603, -25058.29483965574, 0.498, -0.864, 0.186, 192.0, 0.0, 0.0, 0.0, 0.0, 0.0, 0.0, 0.0, 0.0, 0.0, 1.6635925700784664E9, 0.0, 2022-09-19 18:02:50.078
111.0, 10428.63105876816, 20604.486239491252, -73566.14006354095, -17219.582762668462, -57089.35047261125, -187500.02235174447, -39602.15027357939, -25157.804805970765, 0.498, -0.864, 0.186, 192.0, 0.0, 0.0, 0.0, 0.0, 0.0, 0.0, 0.0, 0.0, 0.0, 1.663592570082572E9, 0.0, 2022-09-19 18:02:50.082
112.0, 10499.240219502475, 20648.116844668013, -73587.53068298468, -17285.36394660043, -57130.70119985357, -187500.02235174447, -39621.50688427769, -25213.192428731018, 0.498, -0.864, 0.186, 192.0, 0.0, 0.0, 0.0, 0.0, 0.0, 0.0, 0.0, 0.0, 0.0, 1.6635925700885313E9, 0.0, 2022-09-19 18:02:50.088
113.0, 10220.871594056081, 20513.42523258033, -73467.77003619313, -17195.17465772327, -57013.91333507459, -187500.02235174447, -39576.91515408935, -25107.423973968504, 0.498, -0.864, 0.186, 192.0, 0.0, 0.0, 0.0, 0.0, 0.0, 0.0, 0.0, 0.0, 0.0, 1.6635925700915172E9, 0.0, 2022-09-19 18:02:50.091
114.0, 10096.215915228835, 20447.91226958183, -73427.5815996625, -17146.91724144426, -56959.86681698165, -187500.02235174447, -39538.89483677087, -25061.602897835124, 0.498, -0.864, 0.186, 192.0, 0.0, 0.0, 0.0, 0.0, 0.0, 0.0, 0.0, 0.0, 0.0, 1.66359257009454E9, 0.0, 2022-09-19 18:02:50.094
115.0, 10161.237139849323, 20483.116267098936, -73458.5387657331, -17190.056108243003, -56993.57324762026, -187500.02235174447, -39496.58298451698, -25093.096505772653, 0.498, -0.864, 0.186, 192.0, 0.0, 0.0, 0.0, 0.0, 0.0, 0.0, 0.0, 0.0, 0.0, 1.663592570097528E9, 0.0, 2022-09-19 18:02:50.097
116.0, 10402.211296821988, 20608.487201748754, -73598.01365113421, -17309.973217245726, -57085.84124873177, -187500.02235174447, -39661.963541741796, -25210.13023974064, 0.498, -0.864, 0.186, 192.0, 0.0, 0.0, 0.0, 0.0, 0.0, 0.0, 0.0, 0.0, 0.0, 1.663592570101548E9, 0.0, 2022-09-19 18:02:50.101
117.0, 10509.969056841024, 20668.747504800263, -73652.82012853863, -17405.906904447904, -57129.24833646397, -187500.02235174447, -39750.610560251545, -25278.660688240612, 0.498, -0.864, 0.186, 192.0, 0.0, 0.0, 0.0, 0.0, 0.0, 0.0, 0.0, 0.0, 0.0, 1.6635925701065717E9, 0.0, 2022-09-19 18:02:50.106
118.0, 10213.383759663553, 20525.137546674916, -73476.19664385279, -17254.853815418937, -56995.674311599054, -187500.02235174447, -39544.12514497342, -25130.7815469243, 0.498, -0.864, 0.186, 192.0, 0.0, 0.0, 0.0, 0.0, 0.0, 0.0, 0.0, 0.0, 0.0, 1.6635925701106184E9, 0.0, 2022-09-19 18:02:50.110
119.0, 10095.791232084184, 20452.606135917442, -73400.98302376068, -17123.24674406609, -56922.427645019015, -187500.02235174447, -39426.711431349686, -25035.09372891113, 0.494, -0.862, 0.184, 192.0, 15.0, 112.0, 229.0, 16.0, 5.0, 192.0, 0.0, 0.0, 0.0, 1.6635925701146507E9, 0.0, 2022-09-19 18:02:50.114
120.0, 10165.238102106823, 20493.263959081647, -73444.837146382, -17130.91339241426, -56951.37315408864, -187500.02235174447, -39454.561704941, -25055.836147765654, 0.494, -0.862, 0.184, 192.0, 0.0, 0.0, 0.0, 0.0, 0.0, 0.0, 0.0, 0.0, 0.0, 1.6635925701176171E9, 0.0, 2022-09-19 18:02:50.117
121.0, 10412.671913227072, 20615.2150768298, -73576.04188633464, -17237.240640788157, -57058.05803037382, -187500.02235174447, -39595.332991520525, -25161.112864150153, 0.494, -0.862, 0.184, 192.0, 0.0, 0.0, 0.0, 0.0, 0.0, 0.0, 0.0, 0.0, 0.0, 1.6635925701215572E9, 0.0, 2022-09-19 18:02:50.121
122.0, 10513.008894086945, 20662.71253379733, -73640.0349307102, -17342.740874617204, -57097.128879681695, -187500.02235174447, -39745.69317647137, -25232.057301051296, 0.494, -0.862, 0.184, 192.0, 0.0, 0.0, 0.0, 0.0, 0.0, 0.0, 0.0, 0.0, 0.0, 1.6635925701255815E9, 0.0, 2022-09-19 18:02:50.125
123.0, 10248.565405436208, 20531.619552566954, -73495.75442025119, -17240.213422800713, -56978.93285500203, -187500.02235174447, -39614.17551209635, -25119.605674696646, 0.494, -0.862, 0.184, 192.0, 0.0, 0.0, 0.0, 0.0, 0.0, 0.0, 0.0, 0.0, 0.0, 1.663592570129576E9, 0.0, 2022-09-19 18:02:50.129
124.0, 10125.653162676474, 20458.39523773137, -73419.7808408476, -17153.1980816362, -56930.42956953402, -187500.02235174447, -39449.86783860539, -25055.925554743477, 0.494, -0.862, 0.184, 192.0, 0.0, 0.0, 0.0, 0.0, 0.0, 0.0, 0.0, 0.0, 0.0, 1.6635925701346E9, 0.0, 2022-09-19 18:02:50.134
125.0, 10228.135911004056, 20498.717784728742, -73468.32882980452, -17169.917186488772, -56972.78612527682, -187500.02235174447, -39462.7647951561, -25093.87881682859, 0.494, -0.862, 0.184, 192.0, 0.0, 0.0, 0.0, 0.0, 0.0, 0.0, 0.0, 0.0, 0.0, 1.6635925701386209E9, 0.0, 2022-09-19 18:02:50.138
126.0, 10460.236425427966, 20622.099414122036, -73571.14685429893, -17272.779914472096, -57081.95204519654, -187500.02235174447, -39507.69180151127, -25197.322690167748, 0.494, -0.862, 0.184, 192.0, 0.0, 0.0, 0.0, 0.0, 0.0, 0.0, 0.0, 0.0, 0.0, 1.6635925701425216E9, 0.0, 2022-09-19 18:02:50.142
127.0, 10485.873876318203, 20640.874879464493, -73591.97868013129, -17303.71472879824, -57089.61869354471, -187500.02235174447, -39594.23775604222, -25215.71817585447, 0.494, -0.862, 0.184, 192.0, 0.0, 0.0, 0.0, 0.0, 0.0, 0.0, 0.0, 0.0, 0.0, 1.663592570145568E9, 0.0, 2022-09-19 18:02:50.145
128.0, 10244.005649567325, 20515.168668647846, -73525.14696420991, -17192.73831757764, -56960.22444489294, -187500.02235174447, -39693.88183282397, -25079.931328288476, 0.494, -0.862, 0.184, 192.0, 0.0, 0.0, 0.0, 0.0, 0.0, 0.0, 0.0, 0.0, 0.0, 1.663592570149718E9, 0.0, 2022-09-19 18:02:50.149
129.0, 10208.533431116752, 20478.802380419063, -73475.52609151913, -17153.488654314122, -56924.43930201999, -187500.02235174447, -39596.60704095448, -25051.209336663407, 0.49, -0.862, 0.182, 192.0, 15.0, 80.0, 229.0, 16.0, 5.0, 176.0, 0.0, 0.0, 0.0, 1.6635925701536229E9, 0.0, 2022-09-19 18:02:50.153
130.0, 10278.784963939783, 20521.762433262164, -73453.80019590858, -17190.681957087752, -56964.38186936163, -187500.02235174447, -39415.26733818857, -25102.81951461071, 0.49, -0.862, 0.182, 192.0, 0.0, 0.0, 0.0, 0.0, 0.0, 0.0, 0.0, 0.0, 0.0, 1.6635925701575856E9, 0.0, 2022-09-19 18:02:50.157
131.0, 10494.613408400228, 20639.064388163613, -73556.52881342516, -17268.153103369845, -57061.276681575386, -187500.02235174447, -39481.62966747638, -25191.399477887095, 0.49, -0.862, 0.182, 192.0, 0.0, 0.0, 0.0, 0.0, 0.0, 0.0, 0.0, 0.0, 0.0, 1.6635925701627328E9, 0.0, 2022-09-19 18:02:50.162
132.0, 10515.51228946594, 20655.872899994007, -73597.9689476453, -17320.90322028437, -57075.55944628233, -187500.02235174447, -39630.022898915166, -25216.7016526105, 0.49, -0.862, 0.182, 192.0, 0.0, 0.0, 0.0, 0.0, 0.0, 0.0, 0.0, 0.0, 0.0, 1.6635925701665952E9, 0.0, 2022-09-19 18:02:50.166
133.0, 10242.172806521989, 20516.196848892792, -73473.76030370717, -17198.102736246914, -56957.81045649177, -187500.02235174447, -39564.509935916656, -25086.234520224873, 0.49, -0.862, 0.182, 192.0, 0.0, 0.0, 0.0, 0.0, 0.0, 0.0, 0.0, 0.0, 0.0, 1.663592570170592E9, 0.0, 2022-09-19 18:02:50.170
134.0, 10192.39547162002, 20474.712011183743, -73462.78559717961, -17136.188404105713, -56929.04376137779, -187500.02235174447, -39549.78013632061, -25045.33082787166, 0.49, -0.862, 0.182, 192.0, 0.0, 0.0, 0.0, 0.0, 0.0, 0.0, 0.0, 0.0, 0.0, 1.6635925701736023E9, 0.0, 2022-09-19 18:02:50.173
135.0, 10299.259161860844, 20524.556401319078, -73494.45801907277, -17175.326308646956, -56977.07766021224, -187500.02235174447, -39513.682069025286, -25098.259758741828, 0.49, -0.862, 0.182, 192.0, 0.0, 0.0, 0.0, 0.0, 0.0, 0.0, 0.0, 0.0, 0.0, 1.6635925701777241E9, 0.0, 2022-09-19 18:02:50.177
136.0, 10538.020496132434, 20648.340362112565, -73581.07102883709, -17252.238661317668, -57081.90734170763, -187500.02235174447, -39524.790886019575, -25174.702724778977, 0.49, -0.862, 0.182, 192.0, 0.0, 0.0, 0.0, 0.0, 0.0, 0.0, 0.0, 0.0, 0.0, 1.6635925701816716E9, 0.0, 2022-09-19 18:02:50.181
137.0, 10528.722170439027, 20639.84669921955, -73580.69104918135, -17274.523350539606, -57076.20764687153, -187500.02235174447, -39585.83350012702, -25171.148797410584, 0.49, -0.862, 0.182, 192.0, 0.0, 0.0, 0.0, 0.0, 0.0, 0.0, 0.0, 0.0, 0.0, 1.6635925701856751E9, 0.0, 2022-09-19 18:02:50.185
138.0, 10266.849132400648, 20495.789706205094, -73469.91580366086, -17188.469134386676, -56959.66565128156, -187500.02235174447, -39541.28647342759, -25076.377400920082, 0.49, -0.862, 0.182, 192.0, 0.0, 0.0, 0.0, 0.0, 0.0, 0.0, 0.0, 0.0, 0.0, 1.6635925701906676E9, 0.0, 2022-09-19 18:02:50.190
139.0, 10222.257402212312, 20466.888900624384, -73453.44256799729, -17165.513892831077, -56927.322677054726, -187500.02235174447, -39517.57127256051, -25058.63011582257, 0.492, -0.864, 0.186, 192.0, 15.0, 96.0, 229.0, 0.0, 5.0, 208.0, 0.0, 0.0, 0.0, 1.6635925701946425E9, 0.0, 2022-09-19 18:02:50.194
140.0, 10342.353325170676, 20531.127814188938, -73520.40839438539, -17235.966591354205, -56978.86579976867, -187500.02235174447, -39576.2893052446, -25123.517229976325, 0.492, -0.864, 0.186, 192.0, 0.0, 0.0, 0.0, 0.0, 0.0, 0.0, 0.0, 0.0, 0.0, 1.6635925701986918E9, 0.0, 2022-09-19 18:02:50.198
141.0, 10586.881409511734, 20663.89717625346, -73636.41394810843, -17336.594144891995, -57089.10460342224, -187500.02235174447, -39668.0655679781, -25230.671492895068, 0.492, -0.864, 0.186, 192.0, 0.0, 0.0, 0.0, 0.0, 0.0, 0.0, 0.0, 0.0, 0.0, 1.6635925702016888E9, 0.0, 2022-09-19 18:02:50.201
142.0, 10594.078671226343, 20657.70574303934, -73632.21182015084, -17315.58350510401, -57072.519609036404, -187500.02235174447, -39731.70098444235, -25196.78624830082, 0.492, -0.864, 0.186, 192.0, 0.0, 0.0, 0.0, 0.0, 0.0, 0.0, 0.0, 0.0, 0.0, 1.6635925702056818E9, 0.0, 2022-09-19 18:02:50.205
143.0, 10331.959763998957, 20511.14535464589, -73479.81762645455, -17180.377802893854, -56941.51603478385, -187500.02235174447, -39571.10370053097, -25074.142226474552, 0.492, -0.864, 0.186, 192.0, 0.0, 0.0, 0.0, 0.0, 0.0, 0.0, 0.0, 0.0, 0.0, 1.6635925702097988E9, 0.0, 2022-09-19 18:02:50.209
144.0, 10231.600431394629, 20459.512824954134, -73419.1326402584, -17127.515927257053, -56905.865002377635, -187500.02235174447, -39406.81837878447, -25040.458147580404, 0.492, -0.864, 0.186, 192.0, 0.0, 0.0, 0.0, 0.0, 0.0, 0.0, 0.0, 0.0, 0.0, 1.6635925702137187E9, 0.0, 2022-09-19 18:02:50.213
145.0, 10336.296002423287, 20517.984988449214, -73475.90607117488, -17166.810294009483, -56946.187549375005, -187500.02235174447, -39440.480105934155, -25077.78556082077, 0.492, -0.864, 0.186, 192.0, 0.0, 0.0, 0.0, 0.0, 0.0, 0.0, 0.0, 0.0, 0.0, 1.6635925702176924E9, 0.0, 2022-09-19 18:02:50.217
146.0, 10585.629711822237, 20656.610507561032, -73586.03311610618, -17258.720667209705, -57050.34667853674, -187500.02235174447, -39521.34871737346, -25192.204140687485, 0.492, -0.864, 0.186, 192.0, 0.0, 0.0, 0.0, 0.0, 0.0, 0.0, 0.0, 0.0, 0.0, 1.6635925702227557E9, 0.0, 2022-09-19 18:02:50.222
147.0, 10549.129313126721, 20635.46575730631, -73574.96900260079, -17251.21048107272, -57024.351599735215, -187500.02235174447, -39596.674096187846, -25167.863090975654, 0.492, -0.864, 0.186, 192.0, 0.0, 0.0, 0.0, 0.0, 0.0, 0.0, 0.0, 0.0, 0.0, 1.6635925702267177E9, 0.0, 2022-09-19 18:02:50.226
148.0, 10317.14055742509, 20500.841200451996, -73482.7457049782, -17162.2505381406, -56897.952484840454, -187500.02235174447, -39605.972421881255, -25053.019827964286, 0.492, -0.864, 0.186, 192.0, 0.0, 0.0, 0.0, 0.0, 0.0, 0.0, 0.0, 0.0, 0.0, 1.6635925702297108E9, 0.0, 2022-09-19 18:02:50.229
149.0, 10313.497223078874, 20481.238720564692, -73477.6942107313, -17160.462398584175, -56895.180868528, -187500.02235174447, -39560.82189808153, -25059.68064781197, 0.49, -0.866, 0.184, 192.0, 15.0, 80.0, 228.0, 240.0, 5.0, 192.0, 0.0, 0.0, 0.0, 1.6635925702337537E9, 0.0, 2022-09-19 18:02:50.233
150.0, 10416.136433617645, 20544.717674817763, -73511.62415881445, -17216.67703588927, -56956.268186124355, -187500.02235174447, -39514.39732484786, -25130.110994590643, 0.49, -0.866, 0.184, 192.0, 0.0, 0.0, 0.0, 0.0, 0.0, 0.0, 0.0, 0.0, 0.0, 1.663592570237776E9, 0.0, 2022-09-19 18:02:50.237
151.0, 10638.066904314388, 20669.70862981184, -73649.80264303717, -17329.37453143293, -57063.31069032082, -187500.02235174447, -39678.8167570611, -25243.255525023407, 0.49, -0.866, 0.184, 192.0, 0.0, 0.0, 0.0, 0.0, 0.0, 0.0, 0.0, 0.0, 0.0, 1.6635925702417655E9, 0.0, 2022-09-19 18:02:50.241
152.0, 10606.841517310324, 20651.044923191657, -73620.23128512279, -17324.770072075138, -57027.771416636875, -187500.02235174447, -39731.29865304216, -25203.782344315332, 0.49, -0.866, 0.184, 192.0, 0.0, 0.0, 0.0, 0.0, 0.0, 0.0, 0.0, 0.0, 0.0, 1.6635925702457323E9, 0.0, 2022-09-19 18:02:50.245
153.0, 10318.548717325773, 20502.651691752875, -73436.70111140027, -17150.359410090376, -56903.87569712111, -187500.02235174447, -39477.740463941154, -25056.327886143674, 0.49, -0.866, 0.184, 192.0, 0.0, 0.0, 0.0, 0.0, 0.0, 0.0, 0.0, 0.0, 0.0, 1.6635925702507923E9, 0.0, 2022-09-19 18:02:50.250
154.0, 10292.71010073544, 20472.678002438308, -73426.35225371746, -17099.442136221187, -56892.096327793166, -187500.02235174447, -39440.94949256772, -25029.550496286214, 0.49, -0.866, 0.184, 192.0, 0.0, 0.0, 0.0, 0.0, 0.0, 0.0, 0.0, 0.0, 0.0, 1.6635925702537994E9, 0.0, 2022-09-19 18:02:50.253
155.0, 10431.268564613887, 20543.86830852846, -73486.41139106886, -17159.411866594775, -56965.074773439745, -187500.02235174447, -39456.72982415317, -25086.39098243606, 0.49, -0.866, 0.184, 192.0, 0.0, 0.0, 0.0, 0.0, 0.0, 0.0, 0.0, 0.0, 0.0, 1.663592570256945E9, 0.0, 2022-09-19 18:02:50.256
156.0, 10648.974555608578, 20666.221757676813, -73584.31203178312, -17246.51661473711, -57071.0220421579, -187500.02235174447, -39506.5742142885, -25171.17114915504, 0.49, -0.866, 0.184, 192.0, 0.0, 0.0, 0.0, 0.0, 0.0, 0.0, 0.0, 0.0, 0.0, 1.6635925702617996E9, 0.0, 2022-09-19 18:02:50.261
157.0, 10543.876653179725, 20610.118879093992, -73572.26444152171, -17232.74794015264, -57028.48667245945, -187500.02235174447, -39615.471913274756, -25132.50263124736, 0.49, -0.866, 0.184, 192.0, 0.0, 0.0, 0.0, 0.0, 0.0, 0.0, 0.0, 0.0, 0.0, 1.6635925702658522E9, 0.0, 2022-09-19 18:02:50.265
158.0, 10317.922868481026, 20482.333956043, -73509.23252215773, -17180.48956161613, -56921.39946477407, -187500.02235174447, -39693.09952176804, -25073.695191585448, 0.49, -0.866, 0.184, 192.0, 0.0, 0.0, 0.0, 0.0, 0.0, 0.0, 0.0, 0.0, 0.0, 1.6635925702697504E9, 0.0, 2022-09-19 18:02:50.269
159.0, 10320.314505137743, 20478.46710425223, -73465.2889925586, -17181.607148838895, -56918.80666241726, -187500.02235174447, -39557.91617130234, -25080.15484573303, 0.492, -0.868, 0.182, 192.0, 15.0, 96.0, 228.0, 224.0, 5.0, 176.0, 0.0, 0.0, 0.0, 1.6635925702738736E9, 0.0, 2022-09-19 18:02:50.273
160.0, 10431.961468692001, 20533.675913056843, -73488.13247539193, -17204.249465972123, -56974.730727044436, -187500.02235174447, -39487.17290010129, -25122.10907007564, 0.492, -0.868, 0.182, 192.0, 0.0, 0.0, 0.0, 0.0, 0.0, 0.0, 0.0, 0.0, 0.0, 1.6635925702788556E9, 0.0, 2022-09-19 18:02:50.278
161.0, 10672.421535542195, 20663.13721694198, -73586.1672265729, -17283.866379721927, -57069.90445493513, -187500.02235174447, -39551.568275877034, -25218.8027165893, 0.492, -0.868, 0.182, 192.0, 0.0, 0.0, 0.0, 0.0, 0.0, 0.0, 0.0, 0.0, 0.0, 1.663592570281839E9, 0.0, 2022-09-19 18:02:50.281
162.0, 10601.72296783006, 20626.70387347983, -73554.31599072409, -17267.616661502918, -57011.23112573995, -187500.02235174447, -39632.19101812733, -25174.881538734622, 0.492, -0.868, 0.182, 192.0, 0.0, 0.0, 0.0, 0.0, 0.0, 0.0, 0.0, 0.0, 0.0, 1.6635925702858207E9, 0.0, 2022-09-19 18:02:50.285
163.0, 10351.584595630717, 20491.05113638057, -73445.82062313803, -17199.041509514038, -56896.81254587323, -187500.02235174447, -39542.3817089059, -25094.661127884523, 0.492, -0.868, 0.182, 192.0, 0.0, 0.0, 0.0, 0.0, 0.0, 0.0, 0.0, 0.0, 0.0, 1.663592570289821E9, 0.0, 2022-09-19 18:02:50.289
164.0, 10334.150234955578, 20481.10461009796, -73426.64282639537, -17123.425558021732, -56864.8719030466, -187500.02235174447, -39467.615123702904, -25047.63305755056, 0.492, -0.868, 0.182, 192.0, 0.0, 0.0, 0.0, 0.0, 0.0, 0.0, 0.0, 0.0, 0.0, 1.6635925702937825E9, 0.0, 2022-09-19 18:02:50.293
165.0, 10485.31508270682, 20553.457206899788, -73505.79035351162, -17152.72869500264, -56929.80372068927, -187500.02235174447, -39525.39438311987, -25097.67861338599, 0.492, -0.868, 0.182, 192.0, 0.0, 0.0, 0.0, 0.0, 0.0, 0.0, 0.0, 0.0, 0.0, 1.663592570297802E9, 0.0, 2022-09-19 18:02:50.297
166.0, 10723.159995455742, 20675.341269414577, -73628.83670673809, -17260.352344554944, -57034.499291717926, -187500.02235174447, -39659.25898066271, -25204.31878618226, 0.492, -0.868, 0.182, 192.0, 0.0, 0.0, 0.0, 0.0, 0.0, 0.0, 0.0, 0.0, 0.0, 1.6635925703019092E9, 0.0, 2022-09-19 18:02:50.301
167.0, 10598.14668871721, 20610.163582582903, -73581.89804338194, -17239.252297789135, -56975.781259033836, -187500.02235174447, -39703.38132421748, -25149.825233200223, 0.492, -0.868, 0.182, 192.0, 0.0, 0.0, 0.0, 0.0, 0.0, 0.0, 0.0, 0.0, 0.0, 1.6635925703059092E9, 0.0, 2022-09-19 18:02:50.305
168.0, 10339.782874558316, 20470.3310692705, -73474.43085604082, -17209.658588130307, -56879.177019498, -187500.02235174447, -39590.77323565164, -25093.00709879483, 0.492, -0.868, 0.182, 192.0, 0.0, 0.0, 0.0, 0.0, 0.0, 0.0, 0.0, 0.0, 0.0, 1.6635925703098447E9, 0.0, 2022-09-19 18:02:50.309
169.0, 10347.38246767312, 20485.016165377638, -73511.28888264763, -17219.64981790183, -56879.48994392037, -187500.02235174447, -39653.53693408215, -25096.471619185402, 0.492, -0.872, 0.18, 192.0, 15.0, 96.0, 228.0, 192.0, 5.0, 160.0, 0.0, 0.0, 0.0, 1.6635925703128695E9, 0.0, 2022-09-19 18:02:50.312
170.0, 10550.626880005228, 20585.710774148796, -73559.03220880416, -17213.100756776425, -56934.60934574716, -187500.02235174447, -39621.350422066505, -25123.606636954148, 0.492, -0.872, 0.18, 192.0, 0.0, 0.0, 0.0, 0.0, 0.0, 0.0, 0.0, 0.0, 0.0, 1.663592570318006E9, 0.0, 2022-09-19 18:02:50.318
171.0, 10736.235765962098, 20671.94380425737, -73595.15262784394, -17252.238661317668, -57018.92012583258, -187500.02235174447, -39527.92013024332, -25192.45000987649, 0.492, -0.872, 0.18, 192.0, 0.0, 0.0, 0.0, 0.0, 0.0, 0.0, 0.0, 0.0, 0.0, 1.663592570321854E9, 0.0, 2022-09-19 18:02:50.321
172.0, 10545.575385758328, 20566.912957061882, -73491.93227194934, -17187.865637286384, -56933.22353759093, -187500.02235174447, -39463.703568423225, -25116.342320006173, 0.492, -0.872, 0.18, 192.0, 0.0, 0.0, 0.0, 0.0, 0.0, 0.0, 0.0, 0.0, 0.0, 1.6635925703259315E9, 0.0, 2022-09-19 18:02:50.325
173.0, 10293.782984469293, 20447.733455626185, -73379.90532873933, -17144.704418743186, -56833.981792209364, -187500.02235174447, -39336.34332851688, -25043.989723204344, 0.492, -0.872, 0.18, 192.0, 0.0, 0.0, 0.0, 0.0, 0.0, 0.0, 0.0, 0.0, 0.0, 1.6635925703299465E9, 0.0, 2022-09-19 18:02:50.329
174.0, 10302.522516551318, 20460.071618565515, -73403.21819820622, -17113.210810805656, -56835.54641432124, -187500.02235174447, -39365.13237537532, -25023.582580516646, 0.492, -0.872, 0.18, 192.0, 0.0, 0.0, 0.0, 0.0, 0.0, 0.0, 0.0, 0.0, 0.0, 1.6635925703340073E9, 0.0, 2022-09-19 18:02:50.334
175.0, 10487.974940297001, 20547.15401496339, -73491.48523706022, -17151.812273479973, -56911.654104191555, -187500.02235174447, -39452.304178751016, -25087.6203283811, 0.492, -0.872, 0.18, 192.0, 0.0, 0.0, 0.0, 0.0, 0.0, 0.0, 0.0, 0.0, 0.0, 1.6635925703379366E9, 0.0, 2022-09-19 18:02:50.337
176.0, 10695.823811986902, 20651.491958080765, -73602.08166862508, -17257.826597431493, -57015.52266067537, -187500.02235174447, -39577.02691281163, -25207.09040249472, 0.492, -0.872, 0.18, 192.0, 0.0, 0.0, 0.0, 0.0, 0.0, 0.0, 0.0, 0.0, 0.0, 1.6635925703409584E9, 0.0, 2022-09-19 18:02:50.340
177.0, 10543.56372875735, 20581.620404913476, -73543.47539466327, -17228.746977895138, -56942.54421502879, -187500.02235174447, -39634.85087571751, -25138.090567361185, 0.492, -0.872, 0.18, 192.0, 0.0, 0.0, 0.0, 0.0, 0.0, 0.0, 0.0, 0.0, 0.0, 1.6635925703459387E9, 0.0, 2022-09-19 18:02:50.345
178.0, 10372.617587163162, 20494.76152596015, -73463.00911462416, -17150.985258935125, -56843.68244930297, -187500.02235174447, -39615.807189441584, -25043.609743548604, 0.492, -0.872, 0.18, 192.0, 0.0, 0.0, 0.0, 0.0, 0.0, 0.0, 0.0, 0.0, 0.0, 1.663592570349954E9, 0.0, 2022-09-19 18:02:50.349
179.0, 10414.974142905969, 20514.85574422547, -73477.18012060883, -17181.54009360553, -56855.39476339755, -187500.02235174447, -39603.06669510206, -25072.979935762876, 0.494, -0.862, 0.176, 192.0, 15.0, 112.0, 229.0, 16.0, 5.0, 128.0, 0.0, 0.0, 0.0, 1.6635925703539612E9, 0.0, 2022-09-19 18:02:50.353
180.0, 10581.852267009292, 20609.22480931578, -73522.71062406429, -17225.215402271202, -56931.435398034504, -187500.02235174447, -39544.2816071846, -25149.64641924458, 0.494, -0.862, 0.176, 192.0, 0.0, 0.0, 0.0, 0.0, 0.0, 0.0, 0.0, 0.0, 0.0, 1.6635925703579679E9, 0.0, 2022-09-19 18:02:50.357
181.0, 10738.627402618815, 20694.988452790793, -73570.02926707617, -17253.982097385182, -56991.31572143027, -187500.02235174447, -39519.001784205655, -25203.80469605979, 0.494, -0.862, 0.176, 192.0, 0.0, 0.0, 0.0, 0.0, 0.0, 0.0, 0.0, 0.0, 0.0, 1.6635925703619428E9, 0.0, 2022-09-19 18:02:50.361
182.0, 10537.349943798774, 20588.728259650263, -73487.81955096955, -17192.73831757764, -56893.83976386068, -187500.02235174447, -39523.71800228572, -25109.525037947304, 0.494, -0.862, 0.176, 192.0, 0.0, 0.0, 0.0, 0.0, 0.0, 0.0, 0.0, 0.0, 0.0, 1.6635925703660703E9, 0.0, 2022-09-19 18:02:50.366
183.0, 10343.068580993246, 20480.210540319746, -73413.0306140221, -17124.096110355393, -56802.64464648302, -187500.02235174447, -39479.93093489778, -25033.32794109916, 0.494, -0.862, 0.176, 192.0, 0.0, 0.0, 0.0, 0.0, 0.0, 0.0, 0.0, 0.0, 0.0, 1.6635925703690364E9, 0.0, 2022-09-19 18:02:50.369
184.0, 10373.846933108203, 20492.571055003533, -73426.5310676731, -17124.25257256658, -56812.50176578781, -187500.02235174447, -39447.29738799303, -25054.38328437606, 0.494, -0.862, 0.176, 192.0, 0.0, 0.0, 0.0, 0.0, 0.0, 0.0, 0.0, 0.0, 0.0, 1.6635925703729887E9, 0.0, 2022-09-19 18:02:50.372
185.0, 10554.04669690689, 20590.002309084215, -73503.8010482551, -17177.919111003772, -56881.99333929936, -187500.02235174447, -39480.42267327579, -25129.663959701535, 0.494, -0.862, 0.176, 192.0, 0.0, 0.0, 0.0, 0.0, 0.0, 0.0, 0.0, 0.0, 0.0, 1.6635925703781023E9, 0.0, 2022-09-19 18:02:50.378
186.0, 10743.209510232153, 20691.65804286695, -73637.2856661422, -17274.45629530624, -56959.37507860364, -187500.02235174447, -39721.374478504, -25213.684167109033, 0.494, -0.862, 0.176, 192.0, 0.0, 0.0, 0.0, 0.0, 0.0, 0.0, 0.0, 0.0, 0.0, 1.6635925703821394E9, 0.0, 2022-09-19 18:02:50.382
187.0, 10605.656874854192, 20614.477469262776, -73575.17016830089, -17235.206632042722, -56886.21781900142, -187500.02235174447, -39780.69600828839, -25148.752349466366, 0.494, -0.862, 0.176, 192.0, 0.0, 0.0, 0.0, 0.0, 0.0, 0.0, 0.0, 0.0, 0.0, 1.6635925703860457E9, 0.0, 2022-09-19 18:02:50.386
188.0, 10361.978156802435, 20501.087069641002, -73403.73228832868, -17136.97071516165, -56804.209268594896, -187500.02235174447, -39444.43636470275, -25075.34922067514, 0.494, -0.862, 0.176, 192.0, 0.0, 0.0, 0.0, 0.0, 0.0, 0.0, 0.0, 0.0, 0.0, 1.6635925703900173E9, 0.0, 2022-09-19 18:02:50.390
189.0, 10354.020935776345, 20505.847991209983, -73397.13852371437, -17112.540258472, -56812.72528323237, -187500.02235174447, -39371.279105100526, -25066.67674382648, 0.494, -0.862, 0.176, 192.0, 0.0, 0.0, 0.0, 0.0, 0.0, 0.0, 0.0, 0.0, 0.0, 1.6635925703930252E9, 0.0, 2022-09-19 18:02:50.393
190.0, 10550.112789882754, 20602.586341212555, -73502.86227498797, -17173.895797001816, -56899.561810441235, -187500.02235174447, -39460.75313815512, -25138.984637139398, 0.498, -0.86, 0.17400000000000002, 192.0, 15.0, 144.0, 229.0, 32.0, 5.0, 112.0, 0.0, 0.0, 0.0, 1.6635925703971102E9, 0.0, 2022-09-19 18:02:50.397
191.0, 10735.02877176151, 20696.95540630286, -73602.61811049201, -17295.17636241631, -56992.29919818631, -187500.02235174447, -39587.30871526107, -25244.127243057163, 0.498, -0.86, 0.17400000000000002, 192.0, 0.0, 0.0, 0.0, 0.0, 0.0, 0.0, 0.0, 0.0, 0.0, 1.663592570401044E9, 0.0, 2022-09-19 18:02:50.401
192.0, 10532.56667048534, 20595.65730043141, -73520.9001327634, -17252.439827017766, -56898.9806650854, -187500.02235174447, -39612.253262073194, -25147.970038410433, 0.498, -0.86, 0.17400000000000002, 192.0, 0.0, 0.0, 0.0, 0.0, 0.0, 0.0, 0.0, 0.0, 0.0, 1.6635925704060357E9, 0.0, 2022-09-19 18:02:50.406
193.0, 10356.52433115534, 20502.20465686377, -73444.74773940418, -17126.599505734386, -56807.494975029826, -187500.02235174447, -39561.96183704875, -25038.446490579427, 0.498, -0.86, 0.17400000000000002, 192.0, 0.0, 0.0, 0.0, 0.0, 0.0, 0.0, 0.0, 0.0, 0.0, 1.6635925704101179E9, 0.0, 2022-09-19 18:02:50.410
194.0, 10391.884790883636, 20512.218238379748, -73462.20445182377, -17127.180651090224, -56834.67469628748, -187500.02235174447, -39533.84334252398, -25059.05479896722, 0.498, -0.86, 0.17400000000000002, 192.0, 0.0, 0.0, 0.0, 0.0, 0.0, 0.0, 0.0, 0.0, 0.0, 1.6635925704140956E9, 0.0, 2022-09-19 18:02:50.414
195.0, 10590.547095602406, 20621.540620510652, -73528.16444971139, -17192.291282688533, -56926.897993910075, -187500.02235174447, -39514.3302696145, -25143.723206963925, 0.498, -0.86, 0.17400000000000002, 192.0, 0.0, 0.0, 0.0, 0.0, 0.0, 0.0, 0.0, 0.0, 0.0, 1.6635925704181304E9, 0.0, 2022-09-19 18:02:50.418
196.0, 10747.433989934205, 20706.1866767629, -73593.29743305415, -17242.761521668617, -56998.42357616706, -187500.02235174447, -39580.0443983131, -25200.496637880402, 0.498, -0.86, 0.17400000000000002, 192.0, 0.0, 0.0, 0.0, 0.0, 0.0, 0.0, 0.0, 0.0, 0.0, 1.6635925704210975E9, 0.0, 2022-09-19 18:02:50.421
197.0, 10509.790242885381, 20584.816704370583, -73489.4959318037, -17166.49736958711, -56899.561810441235, -187500.02235174447, -39560.2854562146, -25102.73010763289, 0.498, -0.86, 0.17400000000000002, 192.0, 0.0, 0.0, 0.0, 0.0, 0.0, 0.0, 0.0, 0.0, 0.0, 1.6635925704250839E9, 0.0, 2022-09-19 18:02:50.425
198.0, 10320.76154002685, 20480.188188575292, -73402.94997727276, -17105.365348501844, -56826.00221943882, -187500.02235174447, -39449.353748482914, -25055.903202999023, 0.498, -0.86, 0.17400000000000002, 192.0, 0.0, 0.0, 0.0, 0.0, 0.0, 0.0, 0.0, 0.0, 0.0, 1.6635925704291391E9, 0.0, 2022-09-19 18:02:50.429
199.0, 10360.86056957967, 20492.25813058116, -73429.79442236357, -17129.57228774694, -56852.69020231846, -187500.02235174447, -39435.585073898445, -25096.53867441877, 0.498, -0.86, 0.17400000000000002, 192.0, 0.0, 0.0, 0.0, 0.0, 0.0, 0.0, 0.0, 0.0, 0.0, 1.6635925704341514E9, 0.0, 2022-09-19 18:02:50.434
200.0, 10594.078671226343, 20626.90503917993, -73514.73105129374, -17201.477849659666, -56938.297383582285, -187500.02235174447, -39483.57426924399, -25167.21489038645, 0.496, -0.87, 0.17200000000000001, 192.0, 15.0, 128.0, 228.0, 208.0, 5.0, 96.0, 0.0, 0.0, 0.0, 1.663592570438066E9, 0.0, 2022-09-19 18:02:50.438
201.0, 10741.823702075924, 20720.312979258655, -73589.117656841, -17253.64682121835, -56990.8016313078, -187500.02235174447, -39600.20567181178, -25214.354719442694, 0.496, -0.87, 0.17200000000000001, 192.0, 0.0, 0.0, 0.0, 0.0, 0.0, 0.0, 0.0, 0.0, 0.0, 1.663592570442135E9, 0.0, 2022-09-19 18:02:50.442
202.0, 10519.1332720677, 20603.88274239096, -73511.82532451455, -17168.799599266007, -56875.91366480752, -187500.02235174447, -39659.84012601854, -25105.50172394535, 0.496, -0.87, 0.17200000000000001, 192.0, 0.0, 0.0, 0.0, 0.0, 0.0, 0.0, 0.0, 0.0, 0.0, 1.6635925704461827E9, 0.0, 2022-09-19 18:02:50.446
203.0, 10370.091840039711, 20518.901409971884, -73443.76426264814, -17099.10686005436, -56808.79137620823, -187500.02235174447, -39585.07354081554, -25036.27837136726, 0.496, -0.87, 0.17200000000000001, 192.0, 0.0, 0.0, 0.0, 0.0, 0.0, 0.0, 0.0, 0.0, 0.0, 1.6635925704491394E9, 0.0, 2022-09-19 18:02:50.449
204.0, 10428.116968645689, 20549.344485920014, -73438.15397478986, -17105.991197346593, -56826.5610130502, -187500.02235174447, -39490.79388270305, -25071.370610162096, 0.496, -0.87, 0.17200000000000001, 192.0, 0.0, 0.0, 0.0, 0.0, 0.0, 0.0, 0.0, 0.0, 0.0, 1.6635925704531744E9, 0.0, 2022-09-19 18:02:50.453
205.0, 10644.68302067316, 20666.288812910178, -73533.68533059185, -17218.778099868072, -56916.21386006044, -187500.02235174447, -39537.28551117009, -25185.49861735089, 0.496, -0.87, 0.17200000000000001, 192.0, 0.0, 0.0, 0.0, 0.0, 0.0, 0.0, 0.0, 0.0, 0.0, 1.6635925704571366E9, 0.0, 2022-09-19 18:02:50.457
206.0, 10756.8887778388, 20740.429549268432, -73590.23524406376, -17300.09374619648, -56969.27690139734, -187500.02235174447, -39613.12498010695, -25237.622885420667, 0.496, -0.87, 0.17200000000000001, 192.0, 0.0, 0.0, 0.0, 0.0, 0.0, 0.0, 0.0, 0.0, 0.0, 1.663592570462165E9, 0.0, 2022-09-19 18:02:50.462
207.0, 10499.530792180394, 20594.22678878627, -73482.7457049782, -17148.68302925623, -56844.889443503555, -187500.02235174447, -39601.9491078793, -25098.282110486285, 0.496, -0.87, 0.17200000000000001, 192.0, 0.0, 0.0, 0.0, 0.0, 0.0, 0.0, 0.0, 0.0, 0.0, 1.663592570466162E9, 0.0, 2022-09-19 18:02:50.466
208.0, 10328.025856974824, 20498.29310158409, -73425.12290777241, -17092.937778584692, -56780.89639912801, -187500.02235174447, -39529.03771746608, -25042.983894703855, 0.496, -0.87, 0.17200000000000001, 192.0, 0.0, 0.0, 0.0, 0.0, 0.0, 0.0, 0.0, 0.0, 0.0, 1.6635925704701629E9, 0.0, 2022-09-19 18:02:50.470
209.0, 10402.300703799809, 20538.280372414636, -73468.4405885268, -17139.116482629357, -56808.72432097487, -187500.02235174447, -39543.72281357322, -25083.95464229043, 0.496, -0.87, 0.17200000000000001, 192.0, 0.0, 0.0, 0.0, 0.0, 0.0, 0.0, 0.0, 0.0, 0.0, 1.6635925704742503E9, 0.0, 2022-09-19 18:02:50.474
210.0, 10611.58008713485, 20668.501635611254, -73504.24808314421, -17219.091024290447, -56901.88639186459, -187500.02235174447, -39411.31107941998, -25172.020515444343, 0.494, -0.868, 0.17200000000000001, 192.0, 15.0, 112.0, 228.0, 224.0, 5.0, 96.0, 0.0, 0.0, 0.0, 1.6635925704771328E9, 0.0, 2022-09-19 18:02:50.477
211.0, 10687.531314793983, 20714.635636167008, -73551.58907790054, -17214.84419284394, -56937.179796359516, -187500.02235174447, -39491.2185658477, -25184.805713272777, 0.494, -0.868, 0.17200000000000001, 192.0, 0.0, 0.0, 0.0, 0.0, 0.0, 0.0, 0.0, 0.0, 0.0, 1.6635925704811475E9, 0.0, 2022-09-19 18:02:50.481
212.0, 10439.78457925136, 20577.17240776687, -73452.86142264145, -17125.43721502271, -56816.368617578584, -187500.02235174447, -39493.02905714858, -25082.05474401173, 0.494, -0.868, 0.17200000000000001, 192.0, 0.0, 0.0, 0.0, 0.0, 0.0, 0.0, 0.0, 0.0, 0.0, 1.6635925704851816E9, 0.0, 2022-09-19 18:02:50.485
213.0, 10339.268784435842, 20511.055947668072, -73396.11034346942, -17069.781371328994, -56753.180236003434, -187500.02235174447, -39442.46941119068, -25020.542743270726, 0.494, -0.868, 0.17200000000000001, 192.0, 0.0, 0.0, 0.0, 0.0, 0.0, 0.0, 0.0, 0.0, 0.0, 1.6635925704902785E9, 0.0, 2022-09-19 18:02:50.490
214.0, 10439.426951340074, 20554.328924933547, -73452.57084996354, -17099.464487965644, -56781.410489250484, -187500.02235174447, -39529.10477269945, -25047.543650572738, 0.494, -0.868, 0.17200000000000001, 192.0, 0.0, 0.0, 0.0, 0.0, 0.0, 0.0, 0.0, 0.0, 0.0, 1.6635925704952426E9, 0.0, 2022-09-19 18:02:50.495
215.0, 10694.326245108396, 20678.246996193768, -73574.20904328932, -17190.078459987457, -56886.62015040161, -187500.02235174447, -39617.05888713108, -25157.469529803937, 0.494, -0.868, 0.17200000000000001, 192.0, 0.0, 0.0, 0.0, 0.0, 0.0, 0.0, 0.0, 0.0, 0.0, 1.6635925704982169E9, 0.0, 2022-09-19 18:02:50.498
216.0, 10762.141437785798, 20714.166249533446, -73571.52683395467, -17234.60313494243, -56915.52095598233, -187500.02235174447, -39557.82676432452, -25200.56369311377, 0.494, -0.868, 0.17200000000000001, 192.0, 0.0, 0.0, 0.0, 0.0, 0.0, 0.0, 0.0, 0.0, 0.0, 1.6635925705022647E9, 0.0, 2022-09-19 18:02:50.502
217.0, 10474.69800409055, 20580.12283803497, -73437.32696024502, -17164.128084674845, -56784.47267824086, -187500.02235174447, -39480.467376764704, -25102.05955529923, 0.494, -0.868, 0.17200000000000001, 192.0, 0.0, 0.0, 0.0, 0.0, 0.0, 0.0, 0.0, 0.0, 0.0, 1.6635925705052028E9, 0.0, 2022-09-19 18:02:50.505
218.0, 10359.988851545913, 20527.1939071648, -73406.90623604134, -17126.554802245475, -56742.11612249805, -187500.02235174447, -39465.156431812815, -25061.737008301858, 0.494, -0.868, 0.17200000000000001, 192.0, 0.0, 0.0, 0.0, 0.0, 0.0, 0.0, 0.0, 0.0, 0.0, 1.6635925705092387E9, 0.0, 2022-09-19 18:02:50.509
219.0, 10438.10819841721, 20564.78954133863, -73452.99553310819, -17129.460529024665, -56776.873085126055, -187500.02235174447, -39499.77928397409, -25091.710697616425, 0.494, -0.868, 0.17200000000000001, 192.0, 0.0, 0.0, 0.0, 0.0, 0.0, 0.0, 0.0, 0.0, 0.0, 1.6635925705132396E9, 0.0, 2022-09-19 18:02:50.513
220.0, 10669.292291318452, 20675.877711281504, -73544.30240920812, -17181.78596279454, -56871.331557194186, -187500.02235174447, -39534.55859834654, -25165.31499210775, 0.49, -0.866, 0.17200000000000001, 192.0, 15.0, 80.0, 228.0, 240.0, 5.0, 96.0, 0.0, 0.0, 0.0, 1.6635925705172591E9, 0.0, 2022-09-19 18:02:50.517
221.0, 10725.506928623548, 20706.968987818836, -73580.31106952562, -17222.421434214288, -56901.953447097956, -187500.02235174447, -39626.111343635486, -25195.13221921113, 0.49, -0.866, 0.17200000000000001, 192.0, 0.0, 0.0, 0.0, 0.0, 0.0, 0.0, 0.0, 0.0, 0.0, 1.6635925705222487E9, 0.0, 2022-09-19 18:02:50.522
222.0, 10471.88168428918, 20578.558215923098, -73484.93617593482, -17156.05910492648, -56790.06061435469, -187500.02235174447, -39641.534047309644, -25087.352107447638, 0.49, -0.866, 0.17200000000000001, 192.0, 0.0, 0.0, 0.0, 0.0, 0.0, 0.0, 0.0, 0.0, 0.0, 1.6635925705262148E9, 0.0, 2022-09-19 18:02:50.526
223.0, 10366.940244071513, 20523.327055374033, -73422.7312711157, -17105.700624668672, -56744.68657311041, -187500.02235174447, -39525.59554881997, -25042.603915048116, 0.49, -0.866, 0.17200000000000001, 192.0, 0.0, 0.0, 0.0, 0.0, 0.0, 0.0, 0.0, 0.0, 0.0, 1.6635925705302444E9, 0.0, 2022-09-19 18:02:50.530
224.0, 10437.884680972658, 20558.64281161342, -73450.3803790069, -17129.505232513577, -56779.77881190525, -187500.02235174447, -39501.500368297144, -25083.172331234495, 0.49, -0.866, 0.17200000000000001, 192.0, 0.0, 0.0, 0.0, 0.0, 0.0, 0.0, 0.0, 0.0, 0.0, 1.6635925705332904E9, 0.0, 2022-09-19 18:02:50.533
225.0, 10658.272881301986, 20683.790228818685, -73526.71158632179, -17213.234867243154, -56880.69693812096, -187500.02235174447, -39483.08253086598, -25182.7940562718, 0.49, -0.866, 0.17200000000000001, 192.0, 0.0, 0.0, 0.0, 0.0, 0.0, 0.0, 0.0, 0.0, 0.0, 1.66359257053729E9, 0.0, 2022-09-19 18:02:50.537
226.0, 10678.747079223047, 20705.76199361825, -73540.56966788408, -17222.175565025278, -56891.69399639297, -187500.02235174447, -39536.65966232534, -25186.54914934029, 0.49, -0.866, 0.17200000000000001, 192.0, 0.0, 0.0, 0.0, 0.0, 0.0, 0.0, 0.0, 0.0, 0.0, 1.663592570541295E9, 0.0, 2022-09-19 18:02:50.541
227.0, 10415.331770817253, 20560.11802674747, -73461.33273379001, -17165.580948064442, -56771.061631567674, -187500.02235174447, -39618.73526796523, -25091.218959238406, 0.49, -0.866, 0.17200000000000001, 192.0, 0.0, 0.0, 0.0, 0.0, 0.0, 0.0, 0.0, 0.0, 0.0, 1.663592570545236E9, 0.0, 2022-09-19 18:02:50.545
228.0, 10355.585557888218, 20523.86349724096, -73436.00820732216, -17132.43331103722, -56744.32894519913, -187500.02235174447, -39571.86365984246, -25061.737008301858, 0.49, -0.866, 0.17200000000000001, 192.0, 0.0, 0.0, 0.0, 0.0, 0.0, 0.0, 0.0, 0.0, 0.0, 1.6635925705503237E9, 0.0, 2022-09-19 18:02:50.550
229.0, 10411.241401581932, 20548.606878352988, -73447.45230048327, -17112.29438928299, -56779.93527411643, -187500.02235174447, -39483.39545528835, -25065.402694392527, 0.49, -0.866, 0.17200000000000001, 192.0, 0.0, 0.0, 0.0, 0.0, 0.0, 0.0, 0.0, 0.0, 0.0, 1.6635925705542707E9, 0.0, 2022-09-19 18:02:50.554
230.0, 10641.464369471594, 20663.71836229782, -73526.42101364386, -17178.4555528707, -56877.344176452665, -187500.02235174447, -39469.69383593724, -25151.97100066793, 0.49, -0.868, 0.168, 192.0, 15.0, 80.0, 228.0, 224.0, 5.0, 64.0, 0.0, 0.0, 0.0, 1.663592570558283E9, 0.0, 2022-09-19 18:02:50.558
231.0, 10671.594520997349, 20680.77274331722, -73535.49582189272, -17207.289303218044, -56882.55213291075, -187500.02235174447, -39528.09894419896, -25178.346059125193, 0.49, -0.868, 0.168, 192.0, 0.0, 0.0, 0.0, 0.0, 0.0, 0.0, 0.0, 0.0, 0.0, 1.6635925705622895E9, 0.0, 2022-09-19 18:02:50.562
232.0, 10409.095634114223, 20542.281334672134, -73422.44069843779, -17133.68500872672, -56759.5951866621, -187500.02235174447, -39504.69666775426, -25072.82347355169, 0.49, -0.868, 0.168, 192.0, 0.0, 0.0, 0.0, 0.0, 0.0, 0.0, 0.0, 0.0, 0.0, 1.6635925705652812E9, 0.0, 2022-09-19 18:02:50.565
233.0, 10336.273650678831, 20504.19396212029, -73395.21627369121, -17098.57041818743, -56718.915011753445, -187500.02235174447, -39474.5665162285, -25026.711824740392, 0.49, -0.868, 0.168, 192.0, 0.0, 0.0, 0.0, 0.0, 0.0, 0.0, 0.0, 0.0, 0.0, 1.6635925705693748E9, 0.0, 2022-09-19 18:02:50.569
234.0, 10453.910881747113, 20570.64569838592, -73454.35898951995, -17137.216584350655, -56758.768172117256, -187500.02235174447, -39529.37299363292, -25066.699095570933, 0.49, -0.868, 0.168, 192.0, 0.0, 0.0, 0.0, 0.0, 0.0, 0.0, 0.0, 0.0, 0.0, 1.6635925705732822E9, 0.0, 2022-09-19 18:02:50.573
235.0, 10691.64403577376, 20699.771726104227, -73559.0098570597, -17252.551585740042, -56885.659025390036, -187500.02235174447, -39558.20674398026, -25197.83678029022, 0.49, -0.868, 0.168, 192.0, 0.0, 0.0, 0.0, 0.0, 0.0, 0.0, 0.0, 0.0, 0.0, 1.6635925705773585E9, 0.0, 2022-09-19 18:02:50.577
236.0, 10683.150372880742, 20704.554999417665, -73559.30042973762, -17288.42613559081, -56898.243057518375, -187500.02235174447, -39606.307698048084, -25206.50925713888, 0.49, -0.868, 0.168, 192.0, 0.0, 0.0, 0.0, 0.0, 0.0, 0.0, 0.0, 0.0, 0.0, 1.663592570582408E9, 0.0, 2022-09-19 18:02:50.582
237.0, 10428.564003534795, 20569.55046290761, -73448.25696328365, -17173.11348594588, -56784.18210556294, -187500.02235174447, -39561.24658122618, -25099.15382852004, 0.49, -0.868, 0.168, 192.0, 0.0, 0.0, 0.0, 0.0, 0.0, 0.0, 0.0, 0.0, 0.0, 1.6635925705863547E9, 0.0, 2022-09-19 18:02:50.586
238.0, 10356.412572433064, 20526.053968197582, -73389.40482013284, -17079.124400511315, -56738.67395385194, -187500.02235174447, -39450.24781826113, -25041.039292936242, 0.49, -0.868, 0.168, 192.0, 0.0, 0.0, 0.0, 0.0, 0.0, 0.0, 0.0, 0.0, 0.0, 1.663592570589357E9, 0.0, 2022-09-19 18:02:50.589
239.0, 10442.846768241736, 20573.327907720555, -73415.71282335673, -17093.13894428479, -56782.08104158414, -187500.02235174447, -39409.56764335247, -25062.429912379972, 0.49, -0.868, 0.168, 192.0, 0.0, 0.0, 0.0, 0.0, 0.0, 0.0, 0.0, 0.0, 0.0, 1.663592570593396E9, 0.0, 2022-09-19 18:02:50.593
240.0, 10671.929797164179, 20694.29554871268, -73540.50261265071, -17201.92488454877, -56894.532667938794, -187500.02235174447, -39508.2729468671, -25177.183768413517, 0.494, -0.864, 0.168, 192.0, 15.0, 112.0, 229.0, 0.0, 5.0, 64.0, 0.0, 0.0, 0.0, 1.6635925705973887E9, 0.0, 2022-09-19 18:02:50.597
241.0, 10664.844294171846, 20697.223627236322, -73544.52592665267, -17219.35924522391, -56879.31112996473, -187500.02235174447, -39615.15898885238, -25174.97094571244, 0.494, -0.864, 0.168, 192.0, 0.0, 0.0, 0.0, 0.0, 0.0, 0.0, 0.0, 0.0, 0.0, 1.6635925706013784E9, 0.0, 2022-09-19 18:02:50.601
242.0, 10409.34150330323, 20561.459131414787, -73412.91885529982, -17124.900773155783, -56760.48925644032, -187500.02235174447, -39520.49935108416, -25066.63204033757, 0.494, -0.864, 0.168, 192.0, 0.0, 0.0, 0.0, 0.0, 0.0, 0.0, 0.0, 0.0, 0.0, 1.6635925706053965E9, 0.0, 2022-09-19 18:02:50.605
243.0, 10332.272688421332, 20524.422290852344, -73383.41455261881, -17092.51309544004, -56741.93730854241, -187500.02235174447, -39442.916446079784, -25047.297781383728, 0.494, -0.864, 0.168, 192.0, 0.0, 0.0, 0.0, 0.0, 0.0, 0.0, 0.0, 0.0, 0.0, 1.6635925706103823E9, 0.0, 2022-09-19 18:02:50.610
244.0, 10454.469675358496, 20587.431858471857, -73462.83030066852, -17134.19909884919, -56795.58149523515, -187500.02235174447, -39537.106697214454, -25083.172331234495, 0.494, -0.864, 0.168, 192.0, 0.0, 0.0, 0.0, 0.0, 0.0, 0.0, 0.0, 0.0, 0.0, 1.663592570614389E9, 0.0, 2022-09-19 18:02:50.614
245.0, 10702.395224856762, 20719.463612969354, -73569.33636299806, -17221.572067924986, -56903.98745584339, -187500.02235174447, -39615.91894816386, -25186.526797595838, 0.494, -0.864, 0.168, 192.0, 0.0, 0.0, 0.0, 0.0, 0.0, 0.0, 0.0, 0.0, 0.0, 1.6635925706173513E9, 0.0, 2022-09-19 18:02:50.617
246.0, 10663.525541248982, 20708.24303725279, -73556.52881342516, -17238.000600099636, -56890.95638882594, -187500.02235174447, -39685.723446097785, -25186.862073762666, 0.494, -0.864, 0.168, 192.0, 0.0, 0.0, 0.0, 0.0, 0.0, 0.0, 0.0, 0.0, 0.0, 1.663592570621447E9, 0.0, 2022-09-19 18:02:50.621
247.0, 10376.998529076402, 20566.30945996159, -73409.52139014262, -17153.3992473363, -56797.81666968068, -187500.02235174447, -39497.119426383906, -25085.675726613492, 0.494, -0.864, 0.168, 192.0, 0.0, 0.0, 0.0, 0.0, 0.0, 0.0, 0.0, 0.0, 0.0, 1.663592570625415E9, 0.0, 2022-09-19 18:02:50.625
248.0, 10299.214458371933, 20527.68564554282, -73370.58465130147, -17092.557798928952, -56782.17044856196, -187500.02235174447, -39390.0992739319, -25049.264734895794, 0.494, -0.864, 0.168, 192.0, 0.0, 0.0, 0.0, 0.0, 0.0, 0.0, 0.0, 0.0, 0.0, 1.663592570629388E9, 0.0, 2022-09-19 18:02:50.629
249.0, 10413.923610916569, 20587.253044516212, -73429.14622177437, -17117.1894213187, -56831.3666381081, -187500.02235174447, -39424.94564353772, -25095.085811029174, 0.494, -0.864, 0.168, 192.0, 0.0, 0.0, 0.0, 0.0, 0.0, 0.0, 0.0, 0.0, 0.0, 1.6635925706333902E9, 0.0, 2022-09-19 18:02:50.633
250.0, 10663.68200346017, 20719.977703091827, -73545.15177549742, -17213.056053287513, -56938.18562486001, -187500.02235174447, -39521.03579295109, -25198.50733262388, 0.502, -0.866, 0.162, 192.0, 15.0, 176.0, 228.0, 240.0, 5.0, 16.0, 0.0, 0.0, 0.0, 1.6635925706375651E9, 0.0, 2022-09-19 18:02:50.637
251.0, 10603.779328319946, 20693.155609745456, -73540.63672311744, -17239.833443144973, -56922.87467990812, -187500.02235174447, -39615.89659641941, -25191.08655346472, 0.502, -0.866, 0.162, 192.0, 0.0, 0.0, 0.0, 0.0, 0.0, 0.0, 0.0, 0.0, 0.0, 1.6635925706424277E9, 0.0, 2022-09-19 18:02:50.642
252.0, 10367.566092916262, 20570.355125708, -73454.11312033095, -17151.76756999106, -56821.9118502035, -187500.02235174447, -39608.45346551579, -25088.424991181495, 0.502, -0.866, 0.162, 192.0, 0.0, 0.0, 0.0, 0.0, 0.0, 0.0, 0.0, 0.0, 0.0, 1.6635925706454413E9, 0.0, 2022-09-19 18:02:50.645
253.0, 10332.04917097678, 20543.24245968371, -73411.71186109923, -17077.93975805518, -56809.23841109734, -187500.02235174447, -39473.67244645029, -25057.132548944064, 0.502, -0.866, 0.162, 192.0, 0.0, 0.0, 0.0, 0.0, 0.0, 0.0, 0.0, 0.0, 0.0, 1.663592570649457E9, 0.0, 2022-09-19 18:02:50.649
254.0, 10442.198567652533, 20599.568855711088, -73445.53005046012, -17095.977615830616, -56852.53374010727, -187500.02235174447, -39435.65212913181, -25102.283072743783, 0.502, -0.866, 0.162, 192.0, 0.0, 0.0, 0.0, 0.0, 0.0, 0.0, 0.0, 0.0, 0.0, 1.6635925706534412E9, 0.0, 2022-09-19 18:02:50.653
255.0, 10674.835523943368, 20725.38682525001, -73550.20326974432, -17206.305826462012, -56951.708430255465, -187500.02235174447, -39515.76078125963, -25209.169114729062, 0.502, -0.866, 0.162, 192.0, 0.0, 0.0, 0.0, 0.0, 0.0, 0.0, 0.0, 0.0, 0.0, 1.6635925706574404E9, 0.0, 2022-09-19 18:02:50.657
0.0, 10589.42950837964, 20687.14299048698, -73520.67661531885, -17229.46223371771, -56913.486947236896, -187500.02235174447, -39575.484642444215, -25188.963137741466, 0.502, -0.866, 0.162, 192.0, 0.0, 0.0, 0.0, 0.0, 0.0, 0.0, 0.0, 0.0, 0.0, 1.6635925706614578E9, 0.0, 2022-09-19 18:02:50.661
1.0, 10311.351455611164, 20553.524262133153, -73409.18611397578, -17120.318665542443, -56800.61063773759, -187500.02235174447, -39502.32738284199, -25076.891491042556, 0.502, -0.866, 0.162, 192.0, 0.0, 0.0, 0.0, 0.0, 0.0, 0.0, 0.0, 0.0, 0.0, 1.6635925706654534E9, 0.0, 2022-09-19 18:02:50.665
2.0, 10273.46524875942, 20532.670084556354, -73430.3308642305, -17078.99029004458, -56790.06061435469, -187500.02235174447, -39554.96574103424, -25054.249173909328, 0.502, -0.866, 0.162, 192.0, 0.0, 0.0, 0.0, 0.0, 0.0, 0.0, 0.0, 0.0, 0.0, 1.6635925706704605E9, 0.0, 2022-09-19 18:02:50.670
3.0, 10445.93130897657, 20614.298655307135, -73503.30930987708, -17165.513892831077, -56857.85345528764, -187500.02235174447, -39597.3446485215, -25133.7319771924, 0.502, -0.866, 0.162, 192.0, 0.0, 0.0, 0.0, 0.0, 0.0, 0.0, 0.0, 0.0, 0.0, 1.6635925706734653E9, 0.0, 2022-09-19 18:02:50.673
4.0, 10653.243738799541, 20730.214802052356, -73552.41609244539, -17246.069579848, -56957.76575300286, -187500.02235174447, -39518.68885978328, -25238.494603454426, 0.504, -0.864, 0.162, 192.0, 15.0, 192.0, 229.0, 0.0, 5.0, 16.0, 0.0, 0.0, 0.0, 1.663592570677522E9, 0.0, 2022-09-19 18:02:50.677
5.0, 10516.160490055143, 20662.24314716377, -73509.88072274694, -17206.998730540126, -56907.85430763416, -187500.02235174447, -39549.64602585388, -25203.35766117068, 0.504, -0.864, 0.162, 192.0, 0.0, 0.0, 0.0, 0.0, 0.0, 0.0, 0.0, 0.0, 0.0, 1.6635925706815171E9, 0.0, 2022-09-19 18:02:50.681
6.0, 10258.55663520773, 20518.230857638224, -73419.84789608096, -17085.874627336816, -56798.062538869686, -187500.02235174447, -39517.459513838236, -25086.279223713784, 0.504, -0.864, 0.162, 192.0, 0.0, 0.0, 0.0, 0.0, 0.0, 0.0, 0.0, 0.0, 0.0, 1.6635925706855056E9, 0.0, 2022-09-19 18:02:50.685
7.0, 10277.957949394937, 20517.605008793475, -73422.19482924877, -17072.217711474623, -56795.603846979604, -187500.02235174447, -39484.602449488935, -25084.222863223895, 0.504, -0.864, 0.162, 192.0, 0.0, 0.0, 0.0, 0.0, 0.0, 0.0, 0.0, 0.0, 0.0, 1.6635925706895568E9, 0.0, 2022-09-19 18:02:50.689
8.0, 10436.007134438412, 20595.74670740923, -73467.18889083731, -17129.840508680405, -56858.23343494337, -187500.02235174447, -39458.026225331574, -25155.368465825137, 0.504, -0.864, 0.162, 192.0, 0.0, 0.0, 0.0, 0.0, 0.0, 0.0, 0.0, 0.0, 0.0, 1.663592570693548E9, 0.0, 2022-09-19 18:02:50.693
9.0, 10694.773279997502, 20731.622961953042, -73598.10305811204, -17230.803338385027, -56964.22540715044, -187500.02235174447, -39615.807189441584, -25254.409045506603, 0.504, -0.864, 0.162, 192.0, 0.0, 0.0, 0.0, 0.0, 0.0, 0.0, 0.0, 0.0, 0.0, 1.6635925706985753E9, 0.0, 2022-09-19 18:02:50.698
10.0, 10606.282723698941, 20684.147856729967, -73578.16530205791, -17247.544794982052, -56918.47138625043, -187500.02235174447, -39735.4784292553, -25233.04077780733, 0.504, -0.864, 0.162, 192.0, 0.0, 0.0, 0.0, 0.0, 0.0, 0.0, 0.0, 0.0, 0.0, 1.6635925707015336E9, 0.0, 2022-09-19 18:02:50.701
11.0, 10377.646729665605, 20577.887663589438, -73497.14022840741, -17183.328233161956, -56830.360809607606, -187500.02235174447, -39703.4707311953, -25152.015704156842, 0.504, -0.864, 0.162, 192.0, 0.0, 0.0, 0.0, 0.0, 0.0, 0.0, 0.0, 0.0, 0.0, 1.6635925707055273E9, 0.0, 2022-09-19 18:02:50.705
12.0, 10358.0442497783, 20560.565061636575, -73436.25407651116, -17081.918368568226, -56835.36760036559, -187500.02235174447, -39470.36438827091, -25095.711659873923, 0.504, -0.864, 0.162, 192.0, 0.0, 0.0, 0.0, 0.0, 0.0, 0.0, 0.0, 0.0, 0.0, 1.6635925707095587E9, 0.0, 2022-09-19 18:02:50.709
13.0, 10462.40454464013, 20614.857448918516, -73454.96248662025, -17100.246799021577, -56902.221668031416, -187500.02235174447, -39358.270389827536, -25150.764006467343, 0.504, -0.864, 0.162, 192.0, 0.0, 0.0, 0.0, 0.0, 0.0, 0.0, 0.0, 0.0, 0.0, 1.6635925707136376E9, 0.0, 2022-09-19 18:02:50.713
14.0, 10682.30100659144, 20726.57146770614, -73570.90098510993, -17212.45255618722, -57002.402186680105, -187500.02235174447, -39487.35171405694, -25272.133978859663, 0.5, -0.864, 0.166, 192.0, 15.0, 160.0, 229.0, 0.0, 5.0, 48.0, 0.0, 0.0, 0.0, 1.6635925707177148E9, 0.0, 2022-09-19 18:02:50.717
15.0, 10552.839702706302, 20664.56772858712, -73533.61827535847, -17210.485602675155, -56942.72302898444, -187500.02235174447, -39571.46132844226, -25212.588931630726, 0.5, -0.864, 0.166, 192.0, 0.0, 0.0, 0.0, 0.0, 0.0, 0.0, 0.0, 0.0, 0.0, 1.6635925707216125E9, 0.0, 2022-09-19 18:02:50.721
16.0, 10334.977249500424, 20552.853709799496, -73457.80115816607, -17115.222467806634, -56838.318030633694, -187500.02235174447, -39558.36320619145, -25102.841866355167, 0.5, -0.864, 0.166, 192.0, 0.0, 0.0, 0.0, 0.0, 0.0, 0.0, 0.0, 0.0, 0.0, 1.6635925707266264E9, 0.0, 2022-09-19 18:02:50.726
17.0, 10358.893616067602, 20555.78178832314, -73477.35893456447, -17119.268133553047, -56844.330649892174, -187500.02235174447, -39559.056110269565, -25125.43947999948, 0.5, -0.864, 0.166, 192.0, 0.0, 0.0, 0.0, 0.0, 0.0, 0.0, 0.0, 0.0, 0.0, 1.6635925707305713E9, 0.0, 2022-09-19 18:02:50.730
18.0, 10519.692065679083, 20641.165452142413, -73548.52688891017, -17194.392346667333, -56912.52582222532, -187500.02235174447, -39576.378712222424, -25211.963082785976, 0.5, -0.864, 0.166, 192.0, 0.0, 0.0, 0.0, 0.0, 0.0, 0.0, 0.0, 0.0, 0.0, 1.6635925707346265E9, 0.0, 2022-09-19 18:02:50.734
19.0, 10734.64879210577, 20760.367305322565, -73636.41394810843, -17263.727457967696, -57005.30791345929, -187500.02235174447, -39639.12005890847, -25292.921101203097, 0.5, -0.864, 0.166, 192.0, 0.0, 0.0, 0.0, 0.0, 0.0, 0.0, 0.0, 0.0, 0.0, 1.6635925707376137E9, 0.0, 2022-09-19 18:02:50.737
20.0, 10546.447103792085, 20675.676545581406, -73521.41422288588, -17188.31267217549, -56936.10691262566, -187500.02235174447, -39540.14653446037, -25210.55492288529, 0.5, -0.864, 0.166, 192.0, 0.0, 0.0, 0.0, 0.0, 0.0, 0.0, 0.0, 0.0, 0.0, 1.6635925707416313E9, 0.0, 2022-09-19 18:02:50.741
21.0, 10297.448670559963, 20546.237593440725, -73406.90623604134, -17075.70458360965, -56847.77281853829, -187500.02235174447, -39414.976765510655, -25100.33847097617, 0.5, -0.864, 0.166, 192.0, 0.0, 0.0, 0.0, 0.0, 0.0, 0.0, 0.0, 0.0, 0.0, 1.6635925707456217E9, 0.0, 2022-09-19 18:02:50.745
22.0, 10309.51861256583, 20550.931459776337, -73432.00724506465, -17068.507321895042, -56868.49288564836, -187500.02235174447, -39421.77169582507, -25098.52797967529, 0.5, -0.864, 0.166, 192.0, 0.0, 0.0, 0.0, 0.0, 0.0, 0.0, 0.0, 0.0, 0.0, 1.6635925707497392E9, 0.0, 2022-09-19 18:02:50.749
23.0, 10471.814629055814, 20640.204327130836, -73526.62217934396, -17142.67040999775, -56941.91836618404, -187500.02235174447, -39507.78120848909, -25179.843626003698, 0.5, -0.864, 0.166, 192.0, 0.0, 0.0, 0.0, 0.0, 0.0, 0.0, 0.0, 0.0, 0.0, 1.66359257075461E9, 0.0, 2022-09-19 18:02:50.754
24.0, 10683.999739170044, 20756.992191909816, -73635.40811960795, -17259.391219543366, -57026.318553247285, -187500.02235174447, -39663.59521908703, -25286.975537177987, 0.5, -0.864, 0.168, 192.0, 15.0, 160.0, 229.0, 0.0, 5.0, 64.0, 0.0, 0.0, 0.0, 1.6635925707576132E9, 0.0, 2022-09-19 18:02:50.757
25.0, 10546.245938091986, 20690.965138788837, -73561.08856929405, -17248.774140927093, -56957.251662880386, -187500.02235174447, -39661.42709987487, -25230.33621672824, 0.5, -0.864, 0.168, 192.0, 0.0, 0.0, 0.0, 0.0, 0.0, 0.0, 0.0, 0.0, 0.0, 1.6635925707616675E9, 0.0, 2022-09-19 18:02:50.761
26.0, 10356.90431081108, 20589.93525385085, -73452.01205635215, -17135.406093049776, -56866.79415306976, -187500.02235174447, -39533.597473334965, -25132.793203925277, 0.5, -0.864, 0.168, 192.0, 0.0, 0.0, 0.0, 0.0, 0.0, 0.0, 0.0, 0.0, 0.0, 1.6635925707657685E9, 0.0, 2022-09-19 18:02:50.765
27.0, 10380.999491333901, 20597.445439987834, -73458.04702735509, -17075.682231865198, -56860.91564427801, -187500.02235174447, -39530.28941515558, -25102.081907043685, 0.5, -0.864, 0.168, 192.0, 0.0, 0.0, 0.0, 0.0, 0.0, 0.0, 0.0, 0.0, 0.0, 1.6635925707696624E9, 0.0, 2022-09-19 18:02:50.769
28.0, 10554.113752140254, 20693.803810334663, -73541.64255161793, -17148.839491467417, -56946.209901119466, -187500.02235174447, -39579.48560470172, -25186.07976270673, 0.5, -0.864, 0.168, 192.0, 0.0, 0.0, 0.0, 0.0, 0.0, 0.0, 0.0, 0.0, 0.0, 1.663592570773634E9, 0.0, 2022-09-19 18:02:50.773
29.0, 10730.625478103815, 20790.139828937034, -73621.90766595694, -17234.580783197973, -57031.52650970537, -187500.02235174447, -39632.235721616235, -25272.178682348575, 0.5, -0.864, 0.168, 192.0, 0.0, 0.0, 0.0, 0.0, 0.0, 0.0, 0.0, 0.0, 0.0, 1.6635925707777383E9, 0.0, 2022-09-19 18:02:50.777
30.0, 10536.545280998384, 20685.600720119564, -73512.00413847019, -17176.3544888919, -56943.59474701819, -187500.02235174447, -39552.01531076614, -25186.12446619564, 0.5, -0.864, 0.168, 192.0, 0.0, 0.0, 0.0, 0.0, 0.0, 0.0, 0.0, 0.0, 0.0, 1.6635925707818437E9, 0.0, 2022-09-19 18:02:50.781
31.0, 10314.078368434712, 20580.435762457342, -73390.05302072204, -17094.703566396664, -56846.83404527117, -187500.02235174447, -39384.26546862906, -25112.631930426593, 0.5, -0.864, 0.168, 192.0, 0.0, 0.0, 0.0, 0.0, 0.0, 0.0, 0.0, 0.0, 0.0, 1.6635925707847767E9, 0.0, 2022-09-19 18:02:50.784
32.0, 10349.684697352017, 20597.5124952212, -73435.98585557769, -17099.419784476733, -56866.3247664362, -187500.02235174447, -39448.37027172688, -25117.86223862913, 0.5, -0.864, 0.168, 192.0, 0.0, 0.0, 0.0, 0.0, 0.0, 0.0, 0.0, 0.0, 0.0, 1.6635925707886648E9, 0.0, 2022-09-19 18:02:50.788
33.0, 10556.37127833024, 20710.612322165052, -73551.70083662283, -17162.2505381406, -56935.16813935854, -187500.02235174447, -39614.10845686298, -25192.360602898672, 0.5, -0.864, 0.168, 192.0, 0.0, 0.0, 0.0, 0.0, 0.0, 0.0, 0.0, 0.0, 0.0, 1.6635925707936792E9, 0.0, 2022-09-19 18:02:50.793
34.0, 10746.808141089457, 20810.949303024925, -73609.23422685078, -17235.65366693183, -57016.95317232051, -187500.02235174447, -39610.33101205004, -25263.103874099717, 0.5, -0.864, 0.168, 192.0, 0.0, 0.0, 0.0, 0.0, 0.0, 0.0, 0.0, 0.0, 0.0, 1.6635925707977164E9, 0.0, 2022-09-19 18:02:50.797
35.0, 10498.815536357824, 20687.545321887177, -73483.25979510068, -17138.356523317878, -56907.27316227832, -187500.02235174447, -39497.34294382846, -25157.670695504035, 0.498, -0.866, 0.168, 192.0, 15.0, 144.0, 228.0, 240.0, 5.0, 64.0, 0.0, 0.0, 0.0, 1.6635925708016803E9, 0.0, 2022-09-19 18:02:50.801
36.0, 10306.210554386444, 20586.515436949187, -73420.40668969235, -17082.633624390797, -56821.48716705885, -187500.02235174447, -39470.02911210407, -25091.643642383056, 0.498, -0.866, 0.168, 192.0, 0.0, 0.0, 0.0, 0.0, 0.0, 0.0, 0.0, 0.0, 0.0, 1.6635925708056831E9, 0.0, 2022-09-19 18:02:50.805
37.0, 10364.660366137072, 20624.356940312024, -73457.01884711014, -17100.850296121873, -56834.339420120654, -187500.02235174447, -39512.34096435797, -25112.11784030412, 0.498, -0.866, 0.168, 192.0, 0.0, 0.0, 0.0, 0.0, 0.0, 0.0, 0.0, 0.0, 0.0, 1.663592570810783E9, 0.0, 2022-09-19 18:02:50.810
38.0, 10581.919322242657, 20733.76872942075, -73524.54346710962, -17154.092151414414, -56909.86596463514, -187500.02235174447, -39506.17188288831, -25185.096285950698, 0.498, -0.866, 0.168, 192.0, 0.0, 0.0, 0.0, 0.0, 0.0, 0.0, 0.0, 0.0, 0.0, 1.6635925708147545E9, 0.0, 2022-09-19 18:02:50.814
39.0, 10747.411638189751, 20826.2155444879, -73600.4276395354, -17217.74991962313, -56979.29048291332, -187500.02235174447, -39602.64201195741, -25251.548022216324, 0.498, -0.866, 0.168, 192.0, 0.0, 0.0, 0.0, 0.0, 0.0, 0.0, 0.0, 0.0, 0.0, 1.6635925708178315E9, 0.0, 2022-09-19 18:02:50.817
40.0, 10520.161452312643, 20712.82514486613, -73536.07696724856, -17134.95905816067, -56875.667795618516, -187500.02235174447, -39696.564042158614, -25151.79218671229, 0.498, -0.866, 0.168, 192.0, 0.0, 0.0, 0.0, 0.0, 0.0, 0.0, 0.0, 0.0, 0.0, 1.663592570821767E9, 0.0, 2022-09-19 18:02:50.821
41.0, 10381.200657034, 20626.94974266884, -73457.7341029327, -17105.320645012933, -56810.087777386645, -187500.02235174447, -39583.28540125911, -25098.52797967529, 0.498, -0.866, 0.168, 192.0, 0.0, 0.0, 0.0, 0.0, 0.0, 0.0, 0.0, 0.0, 0.0, 1.66359257082575E9, 0.0, 2022-09-19 18:02:50.825
42.0, 10383.905218113092, 20637.61152477402, -73408.85083780895, -17114.753081173072, -56830.696085774434, -187500.02235174447, -39368.328674832424, -25116.856410128643, 0.498, -0.866, 0.168, 192.0, 0.0, 0.0, 0.0, 0.0, 0.0, 0.0, 0.0, 0.0, 0.0, 1.6635925708298004E9, 0.0, 2022-09-19 18:02:50.829
43.0, 10543.519025268439, 20728.650179940483, -73502.23642614322, -17149.10771240088, -56916.616191460635, -187500.02235174447, -39437.395565199324, -25198.820257046256, 0.498, -0.866, 0.168, 192.0, 0.0, 0.0, 0.0, 0.0, 0.0, 0.0, 0.0, 0.0, 0.0, 1.6635925708337882E9, 0.0, 2022-09-19 18:02:50.833
44.0, 10733.039466504988, 20823.309817708712, -73644.48292785679, -17213.436032943253, -56986.42068939456, -187500.02235174447, -39747.0789846276, -25249.871641382175, 0.498, -0.866, 0.168, 192.0, 0.0, 0.0, 0.0, 0.0, 0.0, 0.0, 0.0, 0.0, 0.0, 1.663592570837816E9, 0.0, 2022-09-19 18:02:50.837
45.0, 10528.766873927936, 20712.44516521039, -73515.93804549433, -17149.24182286761, -56890.01761555882, -187500.02235174447, -39645.602064800514, -25149.55701226676, 0.496, -0.864, 0.166, 192.0, 15.0, 128.0, 229.0, 0.0, 5.0, 48.0, 0.0, 0.0, 0.0, 1.6635925708408873E9, 0.0, 2022-09-19 18:02:50.840
46.0, 10347.114246739657, 20620.33362631007, -73415.73517510119, -17075.548121398464, -56820.14606239153, -187500.02235174447, -39476.60052497393, -25076.623270109092, 0.496, -0.864, 0.166, 192.0, 0.0, 0.0, 0.0, 0.0, 0.0, 0.0, 0.0, 0.0, 0.0, 1.6635925708448288E9, 0.0, 2022-09-19 18:02:50.844
47.0, 10401.96542763298, 20651.648420291953, -73440.92559110232, -17104.91831361274, -56851.08087671768, -187500.02235174447, -39454.606408429914, -25111.201418781453, 0.496, -0.864, 0.166, 192.0, 0.0, 0.0, 0.0, 0.0, 0.0, 0.0, 0.0, 0.0, 0.0, 1.663592570849804E9, 0.0, 2022-09-19 18:02:50.849
48.0, 10611.513031901482, 20766.69284900342, -73506.46090584528, -17163.658698041287, -56932.441226535, -187500.02235174447, -39431.248835474114, -25184.917471995053, 0.496, -0.864, 0.166, 192.0, 0.0, 0.0, 0.0, 0.0, 0.0, 0.0, 0.0, 0.0, 0.0, 1.6635925708538225E9, 0.0, 2022-09-19 18:02:50.853
49.0, 10716.365065141328, 20824.092128764645, -73542.17899348486, -17189.027927998057, -56975.46833461146, -187500.02235174447, -39456.12632705287, -25223.69774862501, 0.496, -0.864, 0.166, 192.0, 0.0, 0.0, 0.0, 0.0, 0.0, 0.0, 0.0, 0.0, 0.0, 1.663592570857891E9, 0.0, 2022-09-19 18:02:50.857
50.0, 10474.563893623817, 20693.66969986793, -73449.70982667325, -17105.85708687986, -56862.48026638988, -187500.02235174447, -39476.064083107005, -25118.175163051506, 0.496, -0.864, 0.166, 192.0, 0.0, 0.0, 0.0, 0.0, 0.0, 0.0, 0.0, 0.0, 0.0, 1.663592570861804E9, 0.0, 2022-09-19 18:02:50.861
51.0, 10343.76148507136, 20624.200478100836, -73410.08018375399, -17072.128304496804, -56800.90121041551, -187500.02235174447, -39458.9649985987, -25075.885662542067, 0.496, -0.864, 0.166, 192.0, 0.0, 0.0, 0.0, 0.0, 0.0, 0.0, 0.0, 0.0, 0.0, 1.663592570865898E9, 0.0, 2022-09-19 18:02:50.865
52.0, 10420.62913425316, 20667.294641410666, -73461.4891960012, -17099.933874599206, -56829.667905529495, -187500.02235174447, -39506.35069684395, -25101.724279132402, 0.496, -0.864, 0.166, 192.0, 0.0, 0.0, 0.0, 0.0, 0.0, 0.0, 0.0, 0.0, 0.0, 1.6635925708688753E9, 0.0, 2022-09-19 18:02:50.868
53.0, 10652.416724254696, 20785.02127945677, -73561.5132524387, -17187.887989030838, -56936.24102309239, -187500.02235174447, -39545.44389789628, -25200.206065202485, 0.496, -0.864, 0.166, 192.0, 0.0, 0.0, 0.0, 0.0, 0.0, 0.0, 0.0, 0.0, 0.0, 1.663592570872878E9, 0.0, 2022-09-19 18:02:50.872
54.0, 10744.908242810756, 20834.038655047258, -73628.81435499364, -17240.638105945363, -56992.835640053236, -187500.02235174447, -39656.48736435024, -25258.29824904183, 0.496, -0.864, 0.166, 192.0, 0.0, 0.0, 0.0, 0.0, 0.0, 0.0, 0.0, 0.0, 0.0, 1.663592570876818E9, 0.0, 2022-09-19 18:02:50.876
55.0, 10522.284868035898, 20714.00978732226, -73545.57645864207, -17185.02696574056, -56886.32957772369, -187500.02235174447, -39695.28999272466, -25164.689143263, 0.492, -0.866, 0.164, 192.0, 15.0, 96.0, 228.0, 240.0, 5.0, 32.0, 0.0, 0.0, 0.0, 1.6635925708818223E9, 0.0, 2022-09-19 18:02:50.881
56.0, 10433.30257335932, 20655.47056859381, -73467.16653909285, -17143.273907098046, -56824.07996941567, -187500.02235174447, -39562.63238938241, -25115.40354673905, 0.492, -0.866, 0.164, 192.0, 0.0, 0.0, 0.0, 0.0, 0.0, 0.0, 0.0, 0.0, 0.0, 1.6635925708858583E9, 0.0, 2022-09-19 18:02:50.885
57.0, 10487.617312385717, 20688.23822596529, -73479.839978199, -17147.38662807782, -56846.9681557379, -187500.02235174447, -39520.09701968396, -25123.137250320586, 0.492, -0.866, 0.164, 192.0, 0.0, 0.0, 0.0, 0.0, 0.0, 0.0, 0.0, 0.0, 0.0, 1.6635925708899062E9, 0.0, 2022-09-19 18:02:50.889
58.0, 10707.491422592571, 20815.41965191599, -73557.0652552921, -17196.225189712666, -56942.56656677325, -187500.02235174447, -39535.005633235654, -25191.399477887095, 0.492, -0.866, 0.164, 192.0, 0.0, 0.0, 0.0, 0.0, 0.0, 0.0, 0.0, 0.0, 0.0, 1.6635925708928425E9, 0.0, 2022-09-19 18:02:50.892
59.0, 10759.638042406803, 20852.1212163116, -73549.9126970664, -17194.92878853426, -56975.80361077829, -187500.02235174447, -39477.0699116075, -25216.388728188125, 0.492, -0.866, 0.164, 192.0, 0.0, 0.0, 0.0, 0.0, 0.0, 0.0, 0.0, 0.0, 0.0, 1.6635925708969352E9, 0.0, 2022-09-19 18:02:50.896
60.0, 10490.0760042758, 20709.96412157585, -73434.95767533276, -17086.925159326216, -56849.985641239364, -187500.02235174447, -39455.321664252486, -25106.887532101577, 0.492, -0.866, 0.164, 192.0, 0.0, 0.0, 0.0, 0.0, 0.0, 0.0, 0.0, 0.0, 0.0, 1.663592570900925E9, 0.0, 2022-09-19 18:02:50.900
61.0, 10375.635072664629, 20646.999257445248, -73392.60111958995, -17045.060341961427, -56790.70881494389, -187500.02235174447, -39420.56470162448, -25053.891545998045, 0.492, -0.866, 0.164, 192.0, 0.0, 0.0, 0.0, 0.0, 0.0, 0.0, 0.0, 0.0, 0.0, 1.6635925709048636E9, 0.0, 2022-09-19 18:02:50.904
62.0, 10462.270434173399, 20690.47340041082, -73429.95088457476, -17095.79880187497, -56815.00516116681, -187500.02235174447, -39443.13996352434, -25092.001270294342, 0.492, -0.866, 0.164, 192.0, 0.0, 0.0, 0.0, 0.0, 0.0, 0.0, 0.0, 0.0, 0.0, 1.663592570909952E9, 0.0, 2022-09-19 18:02:50.909
63.0, 10712.006474972544, 20813.631512359563, -73527.851525289, -17159.322459616957, -56909.64244719058, -187500.02235174447, -39500.85216770794, -25191.17596044254, 0.492, -0.866, 0.164, 192.0, 0.0, 0.0, 0.0, 0.0, 0.0, 0.0, 0.0, 0.0, 0.0, 1.663592570913983E9, 0.0, 2022-09-19 18:02:50.913
64.0, 10800.720548715657, 20860.61487920462, -73585.98841261725, -17224.768367382094, -56936.37513355913, -187500.02235174447, -39657.135564939446, -25227.631655649147, 0.492, -0.866, 0.164, 192.0, 0.0, 0.0, 0.0, 0.0, 0.0, 0.0, 0.0, 0.0, 0.0, 1.6635925709179187E9, 0.0, 2022-09-19 18:02:50.917
65.0, 10568.485923825017, 20739.021389367746, -73481.06932414405, -17150.649982768296, -56813.7087599884, -187500.02235174447, -39652.68756779284, -25131.742671935877, 0.492, -0.868, 0.16, 192.0, 15.0, 96.0, 228.0, 224.0, 5.0, 0.0, 0.0, 0.0, 0.0, 1.6635925709209037E9, 0.0, 2022-09-19 18:02:50.920
66.0, 10435.761265249404, 20670.736810056784, -73398.85960803743, -17050.648278075252, -56758.58935816162, -187500.02235174447, -39473.38187377237, -25057.221955921887, 0.492, -0.868, 0.16, 192.0, 0.0, 0.0, 0.0, 0.0, 0.0, 0.0, 0.0, 0.0, 0.0, 1.6635925709249623E9, 0.0, 2022-09-19 18:02:50.924
67.0, 10519.468548234528, 20712.221647765833, -73432.54368693157, -17063.478179392598, -56792.116974844575, -187500.02235174447, -39472.59956271644, -25077.78556082077, 0.492, -0.868, 0.16, 192.0, 0.0, 0.0, 0.0, 0.0, 0.0, 0.0, 0.0, 0.0, 0.0, 1.66359257092896E9, 0.0, 2022-09-19 18:02:50.928
68.0, 10766.924711099233, 20839.78305337227, -73531.13723172394, -17170.54303533352, -56896.61138017313, -187500.02235174447, -39515.13493241488, -25186.996184229396, 0.492, -0.868, 0.16, 192.0, 0.0, 0.0, 0.0, 0.0, 0.0, 0.0, 0.0, 0.0, 0.0, 1.6635925709329736E9, 0.0, 2022-09-19 18:02:50.932
69.0, 10809.035397653031, 20860.324306526698, -73552.28198197865, -17207.758689851606, -56926.00392413187, -187500.02235174447, -39558.87729631392, -25215.27114096536, 0.492, -0.868, 0.16, 192.0, 0.0, 0.0, 0.0, 0.0, 0.0, 0.0, 0.0, 0.0, 0.0, 1.6635925709379613E9, 0.0, 2022-09-19 18:02:50.937
70.0, 10535.584155986806, 20714.43447046691, -73453.06258834155, -17130.354598802878, -56804.566896506185, -187500.02235174447, -39562.185354493304, -25102.707755888434, 0.492, -0.868, 0.16, 192.0, 0.0, 0.0, 0.0, 0.0, 0.0, 0.0, 0.0, 0.0, 0.0, 1.6635925709420164E9, 0.0, 2022-09-19 18:02:50.942
71.0, 10464.170332452099, 20673.530778113698, -73422.55245716005, -17096.37994723081, -56761.53978842971, -187500.02235174447, -39525.7296592867, -25066.229708937375, 0.492, -0.868, 0.16, 192.0, 0.0, 0.0, 0.0, 0.0, 0.0, 0.0, 0.0, 0.0, 0.0, 1.663592570946056E9, 0.0, 2022-09-19 18:02:50.946
72.0, 10569.201179647587, 20735.892145144004, -73451.94500111879, -17106.10295606887, -56800.364768548585, -187500.02235174447, -39497.29824033955, -25098.282110486285, 0.492, -0.868, 0.16, 192.0, 0.0, 0.0, 0.0, 0.0, 0.0, 0.0, 0.0, 0.0, 0.0, 1.6635925709492235E9, 0.0, 2022-09-19 18:02:50.949
73.0, 10787.801240420491, 20860.03373384878, -73511.66886230337, -17167.39143936532, -56893.37037722712, -187500.02235174447, -39442.62587340187, -25182.570538827247, 0.492, -0.868, 0.16, 192.0, 0.0, 0.0, 0.0, 0.0, 0.0, 0.0, 0.0, 0.0, 0.0, 1.663592570952966E9, 0.0, 2022-09-19 18:02:50.952
74.0, 10811.114109887376, 20863.967640872914, -73524.2528944317, -17176.332137147445, -56900.09825230816, -187500.02235174447, -39496.001839161145, -25191.51123660937, 0.492, -0.868, 0.16, 192.0, 0.0, 0.0, 0.0, 0.0, 0.0, 0.0, 0.0, 0.0, 0.0, 1.6635925709569955E9, 0.0, 2022-09-19 18:02:50.956
75.0, 10550.716286983048, 20725.20801129437, -73439.07039631253, -17111.132098571314, -56783.53390497374, -187500.02235174447, -39528.367165132426, -25099.086773286675, 0.494, -0.862, 0.166, 192.0, 15.0, 112.0, 229.0, 16.0, 5.0, 48.0, 0.0, 0.0, 0.0, 1.663592570961085E9, 0.0, 2022-09-19 18:02:50.961
76.0, 10486.83500132978, 20687.746487587272, -73432.05194855356, -17085.360537214343, -56749.44749467939, -187500.02235174447, -39557.13386024641, -25060.641772823546, 0.494, -0.862, 0.166, 192.0, 0.0, 0.0, 0.0, 0.0, 0.0, 0.0, 0.0, 0.0, 0.0, 1.6635925709660072E9, 0.0, 2022-09-19 18:02:50.966
77.0, 10609.993113278522, 20741.837709169115, -73479.7952747101, -17113.993121861593, -56803.11403311659, -187500.02235174447, -39573.58474416551, -25095.68930812947, 0.494, -0.862, 0.166, 192.0, 0.0, 0.0, 0.0, 0.0, 0.0, 0.0, 0.0, 0.0, 0.0, 1.663592570970018E9, 0.0, 2022-09-19 18:02:50.970
78.0, 10834.851662498912, 20861.061914093723, -73530.42197590136, -17188.871465786873, -56906.915534367035, -187500.02235174447, -39477.5169464966, -25190.88538776462, 0.494, -0.862, 0.166, 192.0, 0.0, 0.0, 0.0, 0.0, 0.0, 0.0, 0.0, 0.0, 0.0, 1.6635925709740355E9, 0.0, 2022-09-19 18:02:50.974
79.0, 10816.746749490112, 20859.899623382047, -73522.12947870845, -17178.92493950426, -56902.48988896488, -187500.02235174447, -39497.611164761925, -25182.056448704774, 0.494, -0.862, 0.166, 192.0, 0.0, 0.0, 0.0, 0.0, 0.0, 0.0, 0.0, 0.0, 0.0, 1.6635925709781575E9, 0.0, 2022-09-19 18:02:50.978
80.0, 10549.41988580464, 20712.556923932665, -73425.01114905014, -17092.736612884597, -56785.702024185906, -187500.02235174447, -39488.312839068516, -25068.755456060822, 0.494, -0.862, 0.166, 192.0, 0.0, 0.0, 0.0, 0.0, 0.0, 0.0, 0.0, 0.0, 0.0, 1.6635925709811091E9, 0.0, 2022-09-19 18:02:50.981
81.0, 10501.922428837113, 20692.596816134075, -73425.10055602796, -17076.71041211014, -56748.53107315673, -187500.02235174447, -39528.16599943233, -25047.901278484023, 0.494, -0.862, 0.166, 192.0, 0.0, 0.0, 0.0, 0.0, 0.0, 0.0, 0.0, 0.0, 0.0, 1.6635925709850683E9, 0.0, 2022-09-19 18:02:50.985
82.0, 10646.359401507307, 20759.58499426663, -73490.21118762626, -17128.76762494655, -56801.86233542709, -187500.02235174447, -39572.84713659849, -25107.379270479592, 0.494, -0.862, 0.166, 192.0, 0.0, 0.0, 0.0, 0.0, 0.0, 0.0, 0.0, 0.0, 0.0, 1.663592570989042E9, 0.0, 2022-09-19 18:02:50.989
83.0, 10871.687337361258, 20883.883045182592, -73550.87382207798, -17227.517631950097, -56917.174985072015, -187500.02235174447, -39501.7238857417, -25220.009710789887, 0.494, -0.862, 0.166, 192.0, 0.0, 0.0, 0.0, 0.0, 0.0, 0.0, 0.0, 0.0, 0.0, 1.6635925709940784E9, 0.0, 2022-09-19 18:02:50.994
84.0, 10836.058656699499, 20859.56434721522, -73527.24802818871, -17191.77719256606, -56908.41310124554, -187500.02235174447, -39507.6247462779, -25181.944689982498, 0.494, -0.862, 0.166, 192.0, 0.0, 0.0, 0.0, 0.0, 0.0, 0.0, 0.0, 0.0, 0.0, 1.6635925709981992E9, 0.0, 2022-09-19 18:02:50.998
85.0, 10557.019478919445, 20704.57735116212, -73403.06173599503, -17061.243004947068, -56776.314291514675, -187500.02235174447, -39450.58309442796, -25044.10148192662, 0.498, -0.862, 0.168, 192.0, 15.0, 144.0, 229.0, 16.0, 5.0, 64.0, 0.0, 0.0, 0.0, 1.6635925710010695E9, 0.0, 2022-09-19 18:02:51.001
86.0, 10502.280056748397, 20672.122618213012, -73382.05109620704, -17035.4714435901, -56743.85955856557, -187500.02235174447, -39424.27509120406, -25018.28521708074, 0.498, -0.862, 0.168, 192.0, 0.0, 0.0, 0.0, 0.0, 0.0, 0.0, 0.0, 0.0, 0.0, 1.6635925710050948E9, 0.0, 2022-09-19 18:02:51.005
87.0, 10620.811357594892, 20735.892145144004, -73439.56213469054, -17089.29444423848, -56787.847791653614, -187500.02235174447, -39463.36829225639, -25078.67963059898, 0.498, -0.862, 0.168, 192.0, 0.0, 0.0, 0.0, 0.0, 0.0, 0.0, 0.0, 0.0, 0.0, 1.6635925710100312E9, 0.0, 2022-09-19 18:02:51.010
88.0, 10873.34136645095, 20864.70524843994, -73552.43844418984, -17181.96477675018, -56899.04772031876, -187500.02235174447, -39542.02408099462, -25193.07585872124, 0.498, -0.862, 0.168, 192.0, 0.0, 0.0, 0.0, 0.0, 0.0, 0.0, 0.0, 0.0, 0.0, 1.6635925710142417E9, 0.0, 2022-09-19 18:02:51.014
89.0, 10835.075179943464, 20853.752893656838, -73545.73292085325, -17197.275721702066, -56885.39080445657, -187500.02235174447, -39630.849913460006, -25195.288681422317, 0.498, -0.862, 0.168, 192.0, 0.0, 0.0, 0.0, 0.0, 0.0, 0.0, 0.0, 0.0, 0.0, 1.6635925710181508E9, 0.0, 2022-09-19 18:02:51.018
90.0, 10598.414909650674, 20729.968932863347, -73436.6340561669, -17106.438232235698, -56768.33471874413, -187500.02235174447, -39580.02204656864, -25078.232595709873, 0.498, -0.862, 0.168, 192.0, 0.0, 0.0, 0.0, 0.0, 0.0, 0.0, 0.0, 0.0, 0.0, 1.663592571021065E9, 0.0, 2022-09-19 18:02:51.021
91.0, 10533.997182130479, 20696.39661269148, -73387.1249421984, -17048.3236966519, -56745.13360799952, -187500.02235174447, -39431.114725007385, -25038.558249301703, 0.498, -0.862, 0.168, 192.0, 0.0, 0.0, 0.0, 0.0, 0.0, 0.0, 0.0, 0.0, 0.0, 1.6635925710250576E9, 0.0, 2022-09-19 18:02:51.025
92.0, 10622.800662851414, 20747.693866216407, -73423.826506594, -17078.498551666566, -56792.92163764497, -187500.02235174447, -39403.10798920489, -25085.429857424482, 0.498, -0.862, 0.168, 192.0, 0.0, 0.0, 0.0, 0.0, 0.0, 0.0, 0.0, 0.0, 0.0, 1.6635925710291264E9, 0.0, 2022-09-19 18:02:51.029
93.0, 10865.205331469218, 20877.535149757285, -73528.58913285604, -17173.11348594588, -56888.229476002394, -187500.02235174447, -39480.57913548698, -25178.12254168064, 0.498, -0.862, 0.168, 192.0, 0.0, 0.0, 0.0, 0.0, 0.0, 0.0, 0.0, 0.0, 0.0, 1.6635925710331564E9, 0.0, 2022-09-19 18:02:51.033
94.0, 10809.281266842041, 20857.396228003054, -73535.54052538163, -17181.607148838895, -56869.990452526865, -187500.02235174447, -39598.43988399981, -25158.9894484269, 0.498, -0.862, 0.168, 192.0, 0.0, 0.0, 0.0, 0.0, 0.0, 0.0, 0.0, 0.0, 0.0, 1.663592571038138E9, 0.0, 2022-09-19 18:02:51.038
95.0, 10557.265348108453, 20718.43543272441, -73454.87307964244, -17082.365403457334, -56758.03056455023, -187500.02235174447, -39632.41453557188, -25052.28222039726, 0.502, -0.86, 0.17200000000000001, 192.0, 15.0, 176.0, 229.0, 32.0, 5.0, 96.0, 0.0, 0.0, 0.0, 1.6635925710421624E9, 0.0, 2022-09-19 18:02:51.042
96.0, 10555.700725996581, 20704.107964528557, -73457.4435302548, -17093.876551851816, -56751.772076102745, -187500.02235174447, -39627.83242795854, -25056.707865799413, 0.502, -0.86, 0.17200000000000001, 192.0, 0.0, 0.0, 0.0, 0.0, 0.0, 0.0, 0.0, 0.0, 0.0, 1.663592571046147E9, 0.0, 2022-09-19 18:02:51.046
97.0, 10653.735477177559, 20764.34591583561, -73458.85169015547, -17147.38662807782, -56810.89244018703, -187500.02235174447, -39470.61025745991, -25126.981750366896, 0.502, -0.86, 0.17200000000000001, 192.0, 0.0, 0.0, 0.0, 0.0, 0.0, 0.0, 0.0, 0.0, 0.0, 1.6635925710492272E9, 0.0, 2022-09-19 18:02:51.049
98.0, 10837.28800264454, 20889.336870829688, -73526.82334504406, -17224.298980748532, -56916.616191460635, -187500.02235174447, -39432.96991979718, -25226.111737026185, 0.502, -0.86, 0.17200000000000001, 192.0, 0.0, 0.0, 0.0, 0.0, 0.0, 0.0, 0.0, 0.0, 0.0, 1.66359257105314E9, 0.0, 2022-09-19 18:02:51.053
99.0, 10750.719696369135, 20843.292277251756, -73489.13830389241, -17173.985203979635, -56874.259635717826, -187500.02235174447, -39478.50042325263, -25165.963192696952, 0.502, -0.86, 0.17200000000000001, 192.0, 0.0, 0.0, 0.0, 0.0, 0.0, 0.0, 0.0, 0.0, 0.0, 1.663592571057132E9, 0.0, 2022-09-19 18:02:51.057
100.0, 10521.323743024319, 20725.744453161296, -73395.39508764686, -17045.127397194792, -56751.61561389156, -187500.02235174447, -39479.349789541935, -25030.824545720166, 0.502, -0.86, 0.17200000000000001, 192.0, 0.0, 0.0, 0.0, 0.0, 0.0, 0.0, 0.0, 0.0, 0.0, 1.6635925710611548E9, 0.0, 2022-09-19 18:02:51.061
101.0, 10540.345077555785, 20725.29741827219, -73401.76533481662, -17024.027350428983, -56747.592299889606, -187500.02235174447, -39490.749179214145, -25029.28227535275, 0.502, -0.86, 0.17200000000000001, 192.0, 0.0, 0.0, 0.0, 0.0, 0.0, 0.0, 0.0, 0.0, 0.0, 1.6635925710652015E9, 0.0, 2022-09-19 18:02:51.065
102.0, 10695.98027419809, 20797.091221462637, -73437.95280908977, -17079.079697022404, -56810.87008844258, -187500.02235174447, -39442.08943153494, -25103.49006694437, 0.502, -0.86, 0.17200000000000001, 192.0, 0.0, 0.0, 0.0, 0.0, 0.0, 0.0, 0.0, 0.0, 0.0, 1.663592571070206E9, 0.0, 2022-09-19 18:02:51.070
103.0, 10905.952561611242, 20910.414565851042, -73542.13428999594, -17173.426410368254, -56915.40919726005, -187500.02235174447, -39492.8725949374, -25202.41888790356, 0.502, -0.86, 0.17200000000000001, 192.0, 0.0, 0.0, 0.0, 0.0, 0.0, 0.0, 0.0, 0.0, 0.0, 1.6635925710731862E9, 0.0, 2022-09-19 18:02:51.073
104.0, 10789.365862532362, 20853.79759714575, -73511.93708323683, -17159.009535194582, -56861.34032742266, -187500.02235174447, -39561.38069169292, -25148.327666321715, 0.502, -0.86, 0.17200000000000001, 192.0, 0.0, 0.0, 0.0, 0.0, 0.0, 0.0, 0.0, 0.0, 0.0, 1.663592571077234E9, 0.0, 2022-09-19 18:02:51.077
105.0, 10547.56469101485, 20729.29838052969, -73421.59133214848, -17074.81051383144, -56743.3454684431, -187500.02235174447, -39556.195086979285, -25051.455205852417, 0.498, -0.858, 0.176, 192.0, 15.0, 144.0, 229.0, 48.0, 5.0, 128.0, 0.0, 0.0, 0.0, 1.6635925710812116E9, 0.0, 2022-09-19 18:02:51.081
106.0, 10547.028249147923, 20728.560772962664, -73423.67004438282, -17070.56368238493, -56744.28424171022, -187500.02235174447, -39535.47501986921, -25051.611668063604, 0.498, -0.858, 0.176, 192.0, 0.0, 0.0, 0.0, 0.0, 0.0, 0.0, 0.0, 0.0, 0.0, 1.6635925710851808E9, 0.0, 2022-09-19 18:02:51.085
107.0, 10697.947227710156, 20803.528523865763, -73477.73891422022, -17106.371177002333, -56804.18691685044, -187500.02235174447, -39537.91136001484, -25102.43953495497, 0.498, -0.858, 0.176, 192.0, 0.0, 0.0, 0.0, 0.0, 0.0, 0.0, 0.0, 0.0, 0.0, 1.6635925710893016E9, 0.0, 2022-09-19 18:02:51.089
108.0, 10922.314038552528, 20924.496164857886, -73567.34705774153, -17202.34956769342, -56906.60260994466, -187500.02235174447, -39560.44191842579, -25215.71817585447, 0.498, -0.858, 0.176, 192.0, 0.0, 0.0, 0.0, 0.0, 0.0, 0.0, 0.0, 0.0, 0.0, 1.6635925710931928E9, 0.0, 2022-09-19 18:02:51.093
109.0, 10789.365862532362, 20860.100789082146, -73523.38117639795, -17184.669337829273, -56846.20819642642, -187500.02235174447, -39608.72168644925, -25165.873785719134, 0.498, -0.858, 0.176, 192.0, 0.0, 0.0, 0.0, 0.0, 0.0, 0.0, 0.0, 0.0, 0.0, 1.6635925710981848E9, 0.0, 2022-09-19 18:02:51.098
110.0, 10567.033060435422, 20743.894069659003, -73431.336692731, -17091.57432217292, -56735.81293056166, -187500.02235174447, -39573.40593020987, -25049.44354885144, 0.498, -0.858, 0.176, 192.0, 0.0, 0.0, 0.0, 0.0, 0.0, 0.0, 0.0, 0.0, 0.0, 1.6635925711012266E9, 0.0, 2022-09-19 18:02:51.101
111.0, 10536.679391465115, 20724.001017093782, -73390.65651782234, -17048.100179207348, -56736.46113115086, -187500.02235174447, -39413.21097769868, -25031.76331898729, 0.498, -0.858, 0.176, 192.0, 0.0, 0.0, 0.0, 0.0, 0.0, 0.0, 0.0, 0.0, 0.0, 1.6635925711052396E9, 0.0, 2022-09-19 18:02:51.105
112.0, 10661.625642970283, 20793.939625494437, -73427.93922757379, -17072.463580663632, -56797.2578760693, -187500.02235174447, -39357.93511366071, -25083.552310890238, 0.498, -0.858, 0.176, 192.0, 0.0, 0.0, 0.0, 0.0, 0.0, 0.0, 0.0, 0.0, 0.0, 1.66359257110928E9, 0.0, 2022-09-19 18:02:51.109
113.0, 10864.601834368925, 20901.183295391, -73533.01477825818, -17153.309840358477, -56897.12547029561, -187500.02235174447, -39456.57336194198, -25178.636631803114, 0.498, -0.858, 0.176, 192.0, 0.0, 0.0, 0.0, 0.0, 0.0, 0.0, 0.0, 0.0, 0.0, 1.6635925711132393E9, 0.0, 2022-09-19 18:02:51.113
114.0, 10741.421370675727, 20835.60327715913, -73524.81168804309, -17143.698590242697, -56841.3131643907, -187500.02235174447, -39618.690564476325, -25137.196497582972, 0.498, -0.858, 0.176, 192.0, 0.0, 0.0, 0.0, 0.0, 0.0, 0.0, 0.0, 0.0, 0.0, 1.663592571117259E9, 0.0, 2022-09-19 18:02:51.117
115.0, 10549.285775337908, 20727.95727586237, -73438.82452712352, -17103.018415334038, -56744.06072426566, -187500.02235174447, -39572.86948834294, -25064.463921125403, 0.498, -0.86, 0.176, 192.0, 15.0, 144.0, 229.0, 32.0, 5.0, 128.0, 0.0, 0.0, 0.0, 1.663592571121276E9, 0.0, 2022-09-19 18:02:51.121
116.0, 10544.681315980115, 20733.835784654115, -73404.91693078482, -17112.272037538532, -56747.74876210079, -187500.02235174447, -39441.79885885702, -25053.735083786858, 0.498, -0.86, 0.176, 192.0, 0.0, 0.0, 0.0, 0.0, 0.0, 0.0, 0.0, 0.0, 0.0, 1.6635925711262648E9, 0.0, 2022-09-19 18:02:51.126
117.0, 10682.345710080352, 20809.83171580216, -73464.6407919694, -17113.68019743922, -56813.9099256885, -187500.02235174447, -39447.967940326685, -25102.171314021507, 0.498, -0.86, 0.176, 192.0, 0.0, 0.0, 0.0, 0.0, 0.0, 0.0, 0.0, 0.0, 0.0, 1.6635925711292892E9, 0.0, 2022-09-19 18:02:51.129
118.0, 10896.229552773184, 20927.513650359353, -73575.75131365673, -17192.380689666355, -56903.49571746537, -187500.02235174447, -39586.86168037196, -25213.594760131215, 0.498, -0.86, 0.176, 192.0, 0.0, 0.0, 0.0, 0.0, 0.0, 0.0, 0.0, 0.0, 0.0, 1.6635925711333027E9, 0.0, 2022-09-19 18:02:51.133
119.0, 10752.709001625659, 20856.300992524742, -73492.8933969609, -17115.088357339904, -56827.09745491713, -187500.02235174447, -39572.40010170938, -25131.474451002414, 0.498, -0.86, 0.176, 192.0, 0.0, 0.0, 0.0, 0.0, 0.0, 0.0, 0.0, 0.0, 0.0, 1.6635925711372592E9, 0.0, 2022-09-19 18:02:51.137
120.0, 10516.94280111108, 20737.92615388944, -73389.80715153304, -16990.097402345826, -56712.54476458368, -187500.02235174447, -39502.79676947556, -24996.201693558898, 0.498, -0.86, 0.176, 192.0, 0.0, 0.0, 0.0, 0.0, 0.0, 0.0, 0.0, 0.0, 0.0, 1.6635925711413722E9, 0.0, 2022-09-19 18:02:51.141
121.0, 10537.975792643523, 20738.931982389928, -73413.94703554476, -17009.208143855114, -56729.979125258826, -187500.02235174447, -39512.11744691342, -25011.780859444247, 0.498, -0.86, 0.176, 192.0, 0.0, 0.0, 0.0, 0.0, 0.0, 0.0, 0.0, 0.0, 0.0, 1.6635925711452804E9, 0.0, 2022-09-19 18:02:51.145
122.0, 10709.368969126817, 20830.2165067454, -73457.35412327696, -17095.82115361943, -56803.96339940589, -187500.02235174447, -39454.44994621872, -25093.83411333968, 0.498, -0.86, 0.176, 192.0, 0.0, 0.0, 0.0, 0.0, 0.0, 0.0, 0.0, 0.0, 0.0, 1.663592571149362E9, 0.0, 2022-09-19 18:02:51.149
123.0, 10899.314093508017, 20936.90138303058, -73538.42390041637, -17173.31465164598, -56890.7775748703, -187500.02235174447, -39507.08830441097, -25181.56471032676, 0.498, -0.86, 0.176, 192.0, 0.0, 0.0, 0.0, 0.0, 0.0, 0.0, 0.0, 0.0, 0.0, 1.6635925711543913E9, 0.0, 2022-09-19 18:02:51.154
124.0, 10710.039521460476, 20830.46237593441, -73463.16557683535, -17142.178671619735, -56816.70389374541, -187500.02235174447, -39503.556728787036, -25117.348148506662, 0.498, -0.86, 0.176, 192.0, 0.0, 0.0, 0.0, 0.0, 0.0, 0.0, 0.0, 0.0, 0.0, 1.6635925711573567E9, 0.0, 2022-09-19 18:02:51.157
125.0, 10504.425824216107, 20733.96989512085, -73382.9228142408, -17077.068040021426, -56726.961639757355, -187500.02235174447, -39456.95334159772, -25033.57381028817, 0.498, -0.864, 0.17400000000000002, 192.0, 15.0, 144.0, 229.0, 0.0, 5.0, 112.0, 0.0, 0.0, 0.0, 1.6635925711603608E9, 0.0, 2022-09-19 18:02:51.160
126.0, 10499.866068347224, 20754.891127931016, -73387.72843929869, -17066.47331314961, -56744.55246264368, -187500.02235174447, -39413.076867231954, -25037.73123475686, 0.498, -0.864, 0.17400000000000002, 192.0, 0.0, 0.0, 0.0, 0.0, 0.0, 0.0, 0.0, 0.0, 0.0, 1.6635925711653657E9, 0.0, 2022-09-19 18:02:51.165
127.0, 10681.87632344679, 20847.114425553613, -73471.25690832817, -17105.76767990204, -56818.134405390556, -187500.02235174447, -39465.42465274628, -25103.937101833475, 0.498, -0.864, 0.17400000000000002, 192.0, 0.0, 0.0, 0.0, 0.0, 0.0, 0.0, 0.0, 0.0, 0.0, 1.66359257116936E9, 0.0, 2022-09-19 18:02:51.169
128.0, 10894.039081816565, 20950.334781448222, -73589.5646917301, -17178.43320112624, -56905.30620876625, -187500.02235174447, -39635.83435247354, -25189.678393564034, 0.498, -0.864, 0.17400000000000002, 192.0, 0.0, 0.0, 0.0, 0.0, 0.0, 0.0, 0.0, 0.0, 0.0, 1.6635925711734097E9, 0.0, 2022-09-19 18:02:51.173
129.0, 10732.614783360337, 20861.955983871936, -73499.48716157522, -17132.701531970684, -56822.38123683706, -187500.02235174447, -39615.91894816386, -25113.615407182624, 0.498, -0.864, 0.17400000000000002, 192.0, 0.0, 0.0, 0.0, 0.0, 0.0, 0.0, 0.0, 0.0, 0.0, 1.6635925711774356E9, 0.0, 2022-09-19 18:02:51.177
130.0, 10527.246955304976, 20755.673438986953, -73392.33289865647, -17049.776560041497, -56730.22499444783, -187500.02235174447, -39488.53635651307, -25022.643807249526, 0.498, -0.864, 0.17400000000000002, 192.0, 0.0, 0.0, 0.0, 0.0, 0.0, 0.0, 0.0, 0.0, 0.0, 1.663592571182376E9, 0.0, 2022-09-19 18:02:51.182
131.0, 10541.842644434291, 20761.596651267606, -73388.06371546551, -17045.619135572808, -56747.07820976713, -187500.02235174447, -39401.63277407084, -25038.51354581279, 0.498, -0.864, 0.17400000000000002, 192.0, 0.0, 0.0, 0.0, 0.0, 0.0, 0.0, 0.0, 0.0, 0.0, 1.663592571185383E9, 0.0, 2022-09-19 18:02:51.185
132.0, 10691.576980540392, 20844.36516098561, -73469.98285889422, -17122.710302199164, -56835.25584164332, -187500.02235174447, -39421.01173651359, -25122.7796224093, 0.498, -0.864, 0.17400000000000002, 192.0, 0.0, 0.0, 0.0, 0.0, 0.0, 0.0, 0.0, 0.0, 0.0, 1.6635925711883848E9, 0.0, 2022-09-19 18:02:51.188
133.0, 10868.848665815434, 20941.99758076639, -73578.16530205791, -17200.427317670266, -56912.16819431403, -187500.02235174447, -39592.85194788599, -25188.851379019186, 0.498, -0.864, 0.17400000000000002, 192.0, 0.0, 0.0, 0.0, 0.0, 0.0, 0.0, 0.0, 0.0, 0.0, 1.6635925711933632E9, 0.0, 2022-09-19 18:02:51.193
134.0, 10665.581901738871, 20841.12415803959, -73503.08579243252, -17124.610200477862, -56821.08483565865, -187500.02235174447, -39631.74398323822, -25089.654337126536, 0.498, -0.864, 0.17400000000000002, 192.0, 0.0, 0.0, 0.0, 0.0, 0.0, 0.0, 0.0, 0.0, 0.0, 1.6635925711974027E9, 0.0, 2022-09-19 18:02:51.197
135.0, 10471.457001144528, 20739.379017279032, -73389.89655851085, -17037.3713418688, -56733.42129390494, -187500.02235174447, -39474.99119937315, -25004.583597729637, 0.496, -0.862, 0.17400000000000002, 192.0, 15.0, 128.0, 229.0, 16.0, 5.0, 112.0, 0.0, 0.0, 0.0, 1.6635925712014349E9, 0.0, 2022-09-19 18:02:51.201
136.0, 10469.73591682147, 20751.42660754044, -73383.01222121861, -17030.4199493432, -56747.860520823066, -187500.02235174447, -39384.46663432916, -25034.266714366284, 0.496, -0.862, 0.17400000000000002, 192.0, 0.0, 0.0, 0.0, 0.0, 0.0, 0.0, 0.0, 0.0, 0.0, 1.6635925712073867E9, 0.0, 2022-09-19 18:02:51.207
137.0, 10633.998886823521, 20844.678085407984, -73487.03723991361, -17093.898903596273, -56834.07119918719, -187500.02235174447, -39483.88719366636, -25104.361784978126, 0.496, -0.862, 0.17400000000000002, 192.0, 0.0, 0.0, 0.0, 0.0, 0.0, 0.0, 0.0, 0.0, 0.0, 1.6635925712104492E9, 0.0, 2022-09-19 18:02:51.210
138.0, 10843.814712025489, 20946.95966803547, -73606.68612798287, -17179.48373311564, -56912.21289780294, -187500.02235174447, -39707.20347251934, -25182.570538827247, 0.496, -0.862, 0.17400000000000002, 192.0, 0.0, 0.0, 0.0, 0.0, 0.0, 0.0, 0.0, 0.0, 0.0, 1.663592571213421E9, 0.0, 2022-09-19 18:02:51.213
139.0, 10652.550834721427, 20847.44970172044, -73461.57860297902, -17113.657845694765, -56809.88661168655, -187500.02235174447, -39563.57116264953, -25104.808819867234, 0.496, -0.862, 0.17400000000000002, 192.0, 0.0, 0.0, 0.0, 0.0, 0.0, 0.0, 0.0, 0.0, 0.0, 1.6635925712184172E9, 0.0, 2022-09-19 18:02:51.218
140.0, 10433.771959992882, 20737.948505633893, -73353.28440109306, -17043.965106483116, -56731.74491307079, -187500.02235174447, -39386.47829133014, -25029.95282768641, 0.496, -0.862, 0.17400000000000002, 192.0, 0.0, 0.0, 0.0, 0.0, 0.0, 0.0, 0.0, 0.0, 0.0, 1.663592571221414E9, 0.0, 2022-09-19 18:02:51.221
141.0, 10462.940986507057, 20754.10881687508, -73395.79741904706, -17063.18760671468, -56762.07623029664, -187500.02235174447, -39414.90971027729, -25056.23847916585, 0.496, -0.862, 0.17400000000000002, 192.0, 0.0, 0.0, 0.0, 0.0, 0.0, 0.0, 0.0, 0.0, 0.0, 1.6635925712254913E9, 0.0, 2022-09-19 18:02:51.225
142.0, 10670.454582030128, 20862.47007399441, -73522.39769964191, -17134.19909884919, -56861.183865211475, -187500.02235174447, -39555.703348601266, -25146.293657576283, 0.496, -0.862, 0.17400000000000002, 192.0, 0.0, 0.0, 0.0, 0.0, 0.0, 0.0, 0.0, 0.0, 0.0, 1.6635925712294421E9, 0.0, 2022-09-19 18:02:51.229
143.0, 10822.938182704233, 20943.38338892262, -73571.68329616587, -17179.43902962673, -56924.12637759762, -187500.02235174447, -39580.223212268735, -25184.98452722842, 0.496, -0.862, 0.17400000000000002, 192.0, 0.0, 0.0, 0.0, 0.0, 0.0, 0.0, 0.0, 0.0, 0.0, 1.6635925712334392E9, 0.0, 2022-09-19 18:02:51.233
144.0, 10561.556883043871, 20813.430346659465, -73439.89741085737, -17097.76575538704, -56808.47845178586, -187500.02235174447, -39487.463472779214, -25075.43862765296, 0.496, -0.862, 0.17400000000000002, 192.0, 0.0, 0.0, 0.0, 0.0, 0.0, 0.0, 0.0, 0.0, 0.0, 1.663592571239472E9, 0.0, 2022-09-19 18:02:51.239
145.0, 10399.77495667636, 20733.835784654115, -73374.67502053679, -17029.65999003172, -56738.56219512966, -187500.02235174447, -39445.33043448096, -25011.020900132764, 0.496, -0.862, 0.17400000000000002, 192.0, 0.0, 0.0, 0.0, 0.0, 0.0, 0.0, 0.0, 0.0, 0.0, 1.6635925712424762E9, 0.0, 2022-09-19 18:02:51.242
