%OpenBCI Raw EEG Data
%Number of channels = 8
%Sample Rate = 250 Hz
%Board = OpenBCI_GUI$BoardCytonSerial
Sample Index, EXG Channel 0, EXG Channel 1, EXG Channel 2, EXG Channel 3, EXG Channel 4, EXG Channel 5, EXG Channel 6, EXG Channel 7, Accel Channel 0, Accel Channel 1, Accel Channel 2, Other, Other, Other, Other, Other, Other, Other, Analog Channel 0, Analog Channel 1, Analog Channel 2, Timestamp, Other, Timestamp (Formatted)
9.0, -36491.726218667776, -30374.031409505777, -38974.37917880764, -36263.00081765662, -53420.26691678369, 187500.0, -36946.24894216644, -38463.19478311477, 0.76, -0.676, 0.088, 192.0, 23.0, 192.0, 234.0, 224.0, 2.0, 192.0, 0.0, 0.0, 0.0, 1.6635919225455694E9, 0.0, 2022-09-19 17:52:02.545
10.0, -36480.50564295121, -30359.52512735428, -38957.50361174389, -36259.64805598832, -53409.403968978404, 187500.0, -36890.07900835026, -38459.19382085727, 0.76, -0.676, 0.088, 192.0, 0.0, 0.0, 0.0, 0.0, 0.0, 0.0, 0.0, 0.0, 0.0, 1.663591922545608E9, 0.0, 2022-09-19 17:52:02.545
11.0, -36461.81958458657, -30358.00520873132, -38945.36661450465, -36272.43325381676, -53409.269858511674, 187500.0, -36757.175535819, -38479.48920482268, 0.76, -0.676, 0.088, 192.0, 0.0, 0.0, 0.0, 0.0, 0.0, 0.0, 0.0, 0.0, 0.0, 1.6635919225456264E9, 0.0, 2022-09-19 17:52:02.545
0.0, 0.0, 0.0, 0.0, 0.0, 0.0, 0.0, 0.0, 0.0, 0.76, -0.676, 0.088, 192.0, 0.0, 0.0, 0.0, 0.0, 0.0, 0.0, 0.0, 0.0, 0.0, 1.6635919226123276E9, 0.0, 2022-09-19 17:52:02.612
1.0, -35460.282619033176, -29881.734237877637, -38403.35916320791, -35717.484142480396, -53499.392092155475, 187500.0, -36714.34959344263, -38127.40452616269, 0.764, -0.668, 0.092, 192.0, 23.0, 224.0, 235.0, 32.0, 2.0, 224.0, 0.0, 0.0, 0.0, 1.6635919226293907E9, 0.0, 2022-09-19 17:52:02.629
2.0, -35442.0659473021, -29869.731351105136, -38378.74989256262, -35712.25383427785, -53479.253170401236, 187500.0, -36723.02207029129, -38120.54254061491, 0.764, -0.668, 0.092, 192.0, 0.0, 0.0, 0.0, 0.0, 0.0, 0.0, 0.0, 0.0, 0.0, 1.6635919226323788E9, 0.0, 2022-09-19 17:52:02.632
3.0, -35427.1126302615, -29868.546708649006, -38366.814061023484, -35727.184799573995, -53478.60496981203, 187500.0, -36597.49467343029, -38137.529866400946, 0.764, -0.668, 0.092, 192.0, 0.0, 0.0, 0.0, 0.0, 0.0, 0.0, 0.0, 0.0, 0.0, 1.6635919226363735E9, 0.0, 2022-09-19 17:52:02.636
4.0, -35422.99990928172, -29876.928612819745, -38364.78005227805, -35757.29259935529, -53497.559249110134, 187500.0, -36397.2900983441, -38172.35388426231, 0.764, -0.668, 0.092, 192.0, 0.0, 0.0, 0.0, 0.0, 0.0, 0.0, 0.0, 0.0, 0.0, 1.6635919226403668E9, 0.0, 2022-09-19 17:52:02.640
5.0, -35454.82879338608, -29894.92176710627, -38399.5146631616, -35767.172070404544, -53522.83907208909, 187500.0, -36461.81958458657, -38181.27223029998, 0.764, -0.668, 0.092, 192.0, 0.0, 0.0, 0.0, 0.0, 0.0, 0.0, 0.0, 0.0, 0.0, 1.6635919226433628E9, 0.0, 2022-09-19 17:52:02.643
6.0, -35469.64799995995, -29887.121008291368, -38410.04233480005, -35736.79604968978, -53507.37166492602, 187500.0, -36728.09591628265, -38153.64547415322, 0.764, -0.668, 0.092, 192.0, 0.0, 0.0, 0.0, 0.0, 0.0, 0.0, 0.0, 0.0, 0.0, 1.6635919226474037E9, 0.0, 2022-09-19 17:52:02.647
7.0, -35451.00664508422, -29871.363028450374, -38389.83635781245, -35721.373346015615, -53487.702129805344, 187500.0, -36728.431192449476, -38132.277206453946, 0.764, -0.668, 0.092, 192.0, 0.0, 0.0, 0.0, 0.0, 0.0, 0.0, 0.0, 0.0, 0.0, 1.6635919226513638E9, 0.0, 2022-09-19 17:52:02.651
8.0, -35432.655862886415, -29866.356237692387, -38377.0064564951, -35725.66488095104, -53482.96355998082, 187500.0, -36594.03015303971, -38134.93706404413, 0.774, -0.664, 0.096, 192.0, 24.0, 48.0, 235.0, 64.0, 3.0, 0.0, 0.0, 0.0, 0.0, 1.663591922655372E9, 0.0, 2022-09-19 17:52:02.655
9.0, -35420.47416215827, -29869.708999360682, -38367.171688934766, -35748.91069518455, -53491.3231124071, 187500.0, -36380.52629000262, -38170.588096450345, 0.774, -0.664, 0.096, 192.0, 0.0, 0.0, 0.0, 0.0, 0.0, 0.0, 0.0, 0.0, 0.0, 1.663591922659367E9, 0.0, 2022-09-19 17:52:02.659
10.0, -35451.36427299551, -29889.937328092736, -38395.15607299281, -35754.655093509566, -53515.84297607458, 187500.0, -36452.83418331554, -38179.17116632118, 0.774, -0.664, 0.096, 192.0, 0.0, 0.0, 0.0, 0.0, 0.0, 0.0, 0.0, 0.0, 0.0, 1.6635919226644385E9, 0.0, 2022-09-19 17:52:02.664
11.0, -35468.91039239292, -29884.48350244564, -38403.940308563746, -35722.781505916304, -53500.86730728952, 187500.0, -36722.73149761337, -38141.21790423607, 0.774, -0.664, 0.096, 192.0, 0.0, 0.0, 0.0, 0.0, 0.0, 0.0, 0.0, 0.0, 0.0, 1.663591922668373E9, 0.0, 2022-09-19 17:52:02.668
12.0, -35451.99012184025, -29870.737179605625, -38379.755721063106, -35708.56579644272, -53479.879019245986, 187500.0, -36716.42830567698, -38112.83118877783, 0.774, -0.664, 0.096, 192.0, 0.0, 0.0, 0.0, 0.0, 0.0, 0.0, 0.0, 0.0, 0.0, 1.663591922671384E9, 0.0, 2022-09-19 17:52:02.671
13.0, -35442.04359555765, -29872.97235405116, -38365.85293601191, -35721.46275299344, -53478.49321108976, 187500.0, -36587.50344365877, -38130.69023259762, 0.774, -0.664, 0.096, 192.0, 0.0, 0.0, 0.0, 0.0, 0.0, 0.0, 0.0, 0.0, 0.0, 1.6635919226754062E9, 0.0, 2022-09-19 17:52:02.675
14.0, -35434.64516814294, -29884.639964656828, -38359.99677896462, -35752.55402953077, -53493.670045574916, 187500.0, -36383.32025805953, -38173.806747651906, 0.774, -0.664, 0.096, 192.0, 0.0, 0.0, 0.0, 0.0, 0.0, 0.0, 0.0, 0.0, 0.0, 1.663591922679459E9, 0.0, 2022-09-19 17:52:02.679
15.0, -35465.35646502453, -29905.58354921145, -38398.86646257239, -35760.55595404577, -53522.6826098779, 187500.0, -36457.34923569551, -38173.73969241854, 0.774, -0.664, 0.096, 192.0, 0.0, 0.0, 0.0, 0.0, 0.0, 0.0, 0.0, 0.0, 0.0, 1.6635919226834316E9, 0.0, 2022-09-19 17:52:02.683
16.0, -35475.81708142961, -29894.92176710627, -38407.449532443236, -35724.815514661736, -53506.365836425524, 187500.0, -36724.83256159217, -38132.54542738741, 0.774, -0.664, 0.096, 192.0, 0.0, 0.0, 0.0, 0.0, 0.0, 0.0, 0.0, 0.0, 0.0, 1.6635919226874468E9, 0.0, 2022-09-19 17:52:02.687
17.0, -35448.86087761651, -29872.257098228587, -38378.72754081816, -35709.906901110044, -53479.34257737906, 187500.0, -36718.55172140023, -38122.84477029381, 0.774, -0.664, 0.096, 192.0, 0.0, 0.0, 0.0, 0.0, 0.0, 0.0, 0.0, 0.0, 0.0, 1.663591922691432E9, 0.0, 2022-09-19 17:52:02.691
18.0, -35438.62377865598, -29875.140473263324, -38369.29510465802, -35731.74455544288, -53485.623417571005, 187500.0, -36587.25757446975, -38148.437517695136, 0.78, -0.656, 0.088, 192.0, 24.0, 96.0, 235.0, 128.0, 2.0, 192.0, 0.0, 0.0, 0.0, 1.6635919226964946E9, 0.0, 2022-09-19 17:52:02.696
19.0, -35438.22144725579, -29882.650659400304, -38364.46712785568, -35762.344093602194, -53501.49315613427, 187500.0, -36377.30763880106, -38180.82519541087, 0.78, -0.656, 0.088, 192.0, 0.0, 0.0, 0.0, 0.0, 0.0, 0.0, 0.0, 0.0, 0.0, 1.6635919226994576E9, 0.0, 2022-09-19 17:52:02.699
20.0, -35455.164069552906, -29893.357144994396, -38392.965602036194, -35763.21581163595, -53520.40273194346, 187500.0, -36454.33175019405, -38178.344151776335, 0.78, -0.656, 0.088, 192.0, 0.0, 0.0, 0.0, 0.0, 0.0, 0.0, 0.0, 0.0, 0.0, 1.6635919227034798E9, 0.0, 2022-09-19 17:52:02.703
21.0, -35464.10476733503, -29882.0024588111, -38406.68957313175, -35725.240197806386, -53503.84008930208, 187500.0, -36729.30291048323, -38133.327738443346, 0.78, -0.656, 0.088, 192.0, 0.0, 0.0, 0.0, 0.0, 0.0, 0.0, 0.0, 0.0, 0.0, 1.6635919227075813E9, 0.0, 2022-09-19 17:52:02.707
22.0, -35446.20102002633, -29863.76343533557, -38384.20371820971, -35714.55606395675, -53485.84693501556, 187500.0, -36724.38552670307, -38127.73980232952, 0.78, -0.656, 0.088, 192.0, 0.0, 0.0, 0.0, 0.0, 0.0, 0.0, 0.0, 0.0, 0.0, 1.6635919227115693E9, 0.0, 2022-09-19 17:52:02.711
23.0, -35437.64030189995, -29861.707074845683, -38364.3553691334, -35724.61434896164, -53486.025748971195, 187500.0, -36588.330458203614, -38143.56483740388, 0.78, -0.656, 0.088, 192.0, 0.0, 0.0, 0.0, 0.0, 0.0, 0.0, 0.0, 0.0, 0.0, 1.6635919227155108E9, 0.0, 2022-09-19 17:52:02.715
24.0, -35434.600464654024, -29873.665258129273, -38362.88015399935, -35753.89513419809, -53506.76816782572, 187500.0, -36377.50880450116, -38175.8631081418, 0.78, -0.656, 0.088, 192.0, 0.0, 0.0, 0.0, 0.0, 0.0, 0.0, 0.0, 0.0, 0.0, 1.6635919227195847E9, 0.0, 2022-09-19 17:52:02.719
25.0, -35448.525601449684, -29893.73712465014, -38398.6652968723, -35757.18084063302, -53532.651487904965, 187500.0, -36458.46682291828, -38173.73969241854, 0.78, -0.656, 0.088, 192.0, 0.0, 0.0, 0.0, 0.0, 0.0, 0.0, 0.0, 0.0, 0.0, 1.6635919227245204E9, 0.0, 2022-09-19 17:52:02.724
26.0, -35462.13781382296, -29883.187101267235, -38402.330982962965, -35718.087639580684, -53509.74094983828, 187500.0, -36722.10564876862, -38127.650395351695, 0.78, -0.656, 0.088, 192.0, 0.0, 0.0, 0.0, 0.0, 0.0, 0.0, 0.0, 0.0, 0.0, 1.6635919227275217E9, 0.0, 2022-09-19 17:52:02.727
27.0, -35444.03290081416, -29870.066627271968, -38376.62647683937, -35710.9797848439, -53489.177344939395, 187500.0, -36710.57214862968, -38123.537674371924, 0.78, -0.656, 0.088, 192.0, 0.0, 0.0, 0.0, 0.0, 0.0, 0.0, 0.0, 0.0, 0.0, 1.6635919227316327E9, 0.0, 2022-09-19 17:52:02.731
28.0, -35429.88424657396, -29867.473824915152, -38360.22029640917, -35722.557988471744, -53488.52914435019, 187500.0, -36574.49472838578, -38140.92733155815, 0.782, -0.656, 0.09, 192.0, 24.0, 112.0, 235.0, 128.0, 2.0, 208.0, 0.0, 0.0, 0.0, 1.663591922735536E9, 0.0, 2022-09-19 17:52:02.735
29.0, -35425.14567674943, -29877.643868642317, -38359.415633608776, -35754.588038276204, -53506.857574803544, 187500.0, -36364.07540608352, -38180.713436688595, 0.782, -0.656, 0.09, 192.0, 0.0, 0.0, 0.0, 0.0, 0.0, 0.0, 0.0, 0.0, 0.0, 1.663591922739533E9, 0.0, 2022-09-19 17:52:02.739
30.0, -35457.48865097626, -29895.257043273097, -38396.385418937854, -35759.08073891172, -53531.39979021547, 187500.0, -36454.5552676386, -38173.940858118636, 0.782, -0.656, 0.09, 192.0, 0.0, 0.0, 0.0, 0.0, 0.0, 0.0, 0.0, 0.0, 0.0, 1.6635919227435668E9, 0.0, 2022-09-19 17:52:02.743
31.0, -35473.0231133727, -29886.204586768697, -38399.06762827249, -35721.06042159324, -53508.51160389324, 187500.0, -36723.402049947035, -38125.97401451755, 0.782, -0.656, 0.09, 192.0, 0.0, 0.0, 0.0, 0.0, 0.0, 0.0, 0.0, 0.0, 0.0, 1.663591922747596E9, 0.0, 2022-09-19 17:52:02.747
32.0, -35452.97359859629, -29868.949040049203, -38373.96661924918, -35710.756267399345, -53487.076280960595, 187500.0, -36710.035706762756, -38114.999307989994, 0.782, -0.656, 0.09, 192.0, 0.0, 0.0, 0.0, 0.0, 0.0, 0.0, 0.0, 0.0, 0.0, 1.663591922752568E9, 0.0, 2022-09-19 17:52:02.752
33.0, -35439.49549668974, -29864.81396732497, -38363.662465055284, -35725.441363506485, -53490.6749118179, 187500.0, -36573.80182430766, -38135.96524428907, 0.782, -0.656, 0.09, 192.0, 0.0, 0.0, 0.0, 0.0, 0.0, 0.0, 0.0, 0.0, 0.0, 1.6635919227555597E9, 0.0, 2022-09-19 17:52:02.755
34.0, -35434.42165069839, -29872.681781373238, -38358.700377786205, -35754.9903696764, -53506.92463003691, 187500.0, -36365.64002819539, -38176.98069536456, 0.782, -0.656, 0.09, 192.0, 0.0, 0.0, 0.0, 0.0, 0.0, 0.0, 0.0, 0.0, 0.0, 1.663591922758576E9, 0.0, 2022-09-19 17:52:02.758
35.0, -35466.25053480274, -29890.049086815012, -38396.29601196003, -35761.025340679334, -53534.17140652793, 187500.0, -36464.43473868784, -38178.187689565144, 0.782, -0.656, 0.09, 192.0, 0.0, 0.0, 0.0, 0.0, 0.0, 0.0, 0.0, 0.0, 0.0, 1.6635919227635927E9, 0.0, 2022-09-19 17:52:02.763
36.0, -35480.198023342855, -29883.321211733964, -38407.40482895432, -35732.19159033198, -53521.72148486632, 187500.0, -36730.97929131738, -38139.966206546575, 0.782, -0.656, 0.09, 192.0, 0.0, 0.0, 0.0, 0.0, 0.0, 0.0, 0.0, 0.0, 0.0, 1.6635919227676485E9, 0.0, 2022-09-19 17:52:02.767
37.0, -35449.39731948344, -29862.95877253518, -38379.12987221836, -35720.8816076376, -53499.57090611111, 187500.0, -36708.3146224397, -38127.89626454071, 0.782, -0.656, 0.09, 192.0, 0.0, 0.0, 0.0, 0.0, 0.0, 0.0, 0.0, 0.0, 0.0, 1.6635919227716184E9, 0.0, 2022-09-19 17:52:02.771
38.0, -35428.11845876199, -29863.048179513, -38364.46712785568, -35734.113840355145, -53503.05777824614, 187500.0, -36572.61718185153, -38144.59301764882, 0.778, -0.66, 0.09, 192.0, 24.0, 80.0, 235.0, 96.0, 2.0, 208.0, 0.0, 0.0, 0.0, 1.6635919227756343E9, 0.0, 2022-09-19 17:52:02.775
39.0, -35431.113592518996, -29881.39896171081, -38364.62359006686, -35771.35184661768, -53526.080075035105, 187500.0, -36371.5855922205, -38190.10116935983, 0.778, -0.66, 0.09, 192.0, 0.0, 0.0, 0.0, 0.0, 0.0, 0.0, 0.0, 0.0, 0.0, 1.6635919227796197E9, 0.0, 2022-09-19 17:52:02.779
40.0, -35473.000761628246, -29903.236616043643, -38403.672087630286, -35775.486919341914, -53553.52801722623, 187500.0, -36479.03042781716, -38189.05063737043, 0.778, -0.66, 0.09, 192.0, 0.0, 0.0, 0.0, 0.0, 0.0, 0.0, 0.0, 0.0, 0.0, 1.6635919227836602E9, 0.0, 2022-09-19 17:52:02.783
41.0, -35490.70334323685, -29890.138493792834, -38410.087038288955, -35735.09731711118, -53529.388133214496, 187500.0, -36744.39033799057, -38139.27330246846, 0.778, -0.66, 0.09, 192.0, 0.0, 0.0, 0.0, 0.0, 0.0, 0.0, 0.0, 0.0, 0.0, 1.6635919227876348E9, 0.0, 2022-09-19 17:52:02.787
42.0, -35466.11642433601, -29873.732313362638, -38383.242593198134, -35725.10608733965, -53504.17536546891, 187500.0, -36724.787858103264, -38132.277206453946, 0.778, -0.66, 0.09, 192.0, 0.0, 0.0, 0.0, 0.0, 0.0, 0.0, 0.0, 0.0, 0.0, 1.6635919227916014E9, 0.0, 2022-09-19 17:52:02.791
43.0, -35429.2136942403, -29862.981124279635, -38355.12409867336, -35732.50451475436, -53498.6768363329, 187500.0, -36571.678408584405, -38149.84567759582, 0.778, -0.66, 0.09, 192.0, 0.0, 0.0, 0.0, 0.0, 0.0, 0.0, 0.0, 0.0, 0.0, 1.6635919227956755E9, 0.0, 2022-09-19 17:52:02.795
44.0, -35418.954243535314, -29867.607935381882, -38348.06094742548, -35760.600657534684, -53514.79244408518, 187500.0, -36360.18620254829, -38184.9602681351, 0.778, -0.66, 0.09, 192.0, 0.0, 0.0, 0.0, 0.0, 0.0, 0.0, 0.0, 0.0, 0.0, 1.6635919227987075E9, 0.0, 2022-09-19 17:52:02.798
45.0, -35458.0697963321, -29887.836264113936, -38395.066666014995, -35765.003951192375, -53541.90511010947, 187500.0, -36464.43473868784, -38181.27223029998, 0.778, -0.66, 0.09, 192.0, 0.0, 0.0, 0.0, 0.0, 0.0, 0.0, 0.0, 0.0, 0.0, 1.6635919228036754E9, 0.0, 2022-09-19 17:52:02.803
46.0, -35469.73740693777, -29882.471845444663, -38408.276546988076, -35734.113840355145, -53524.694266878876, 187500.0, -36732.09687854015, -38137.82043907886, 0.778, -0.66, 0.09, 192.0, 0.0, 0.0, 0.0, 0.0, 0.0, 0.0, 0.0, 0.0, 0.0, 1.663591922807628E9, 0.0, 2022-09-19 17:52:02.807
47.0, -35450.40314798393, -29868.457301671184, -38381.58856410844, -35725.7319361844, -53506.388188169985, 187500.0, -36717.34472719964, -38135.4511541666, 0.778, -0.66, 0.09, 192.0, 0.0, 0.0, 0.0, 0.0, 0.0, 0.0, 0.0, 0.0, 0.0, 1.6635919228116431E9, 0.0, 2022-09-19 17:52:02.811
48.0, -35445.48576420376, -29870.513662161073, -38372.78197679305, -35740.64054973609, -53509.2268597158, 187500.0, -36574.45002489687, -38151.34324447432, 0.784, -0.662, 0.09, 192.0, 24.0, 128.0, 235.0, 80.0, 2.0, 208.0, 0.0, 0.0, 0.0, 1.6635919228156416E9, 0.0, 2022-09-19 17:52:02.815
49.0, -35441.70831939081, -29880.57194716596, -38370.524450603065, -35768.64728553859, -53523.643734889476, 187500.0, -36362.57783920501, -38188.00010538103, 0.784, -0.662, 0.09, 192.0, 0.0, 0.0, 0.0, 0.0, 0.0, 0.0, 0.0, 0.0, 0.0, 1.6635919228197014E9, 0.0, 2022-09-19 17:52:02.819
50.0, -35472.285505805674, -29898.43099098575, -38405.817855097994, -35771.441253595505, -53548.65533693497, 187500.0, -36479.969201084285, -38180.288753543944, 0.784, -0.662, 0.09, 192.0, 0.0, 0.0, 0.0, 0.0, 0.0, 0.0, 0.0, 0.0, 0.0, 1.6635919228237E9, 0.0, 2022-09-19 17:52:02.823
51.0, -35479.30395356464, -29884.66231640128, -38409.036506299555, -35734.7843926888, -53527.5329384247, 187500.0, -36738.66829141001, -38133.10422099879, 0.784, -0.662, 0.09, 192.0, 0.0, 0.0, 0.0, 0.0, 0.0, 0.0, 0.0, 0.0, 0.0, 1.6635919228267064E9, 0.0, 2022-09-19 17:52:02.826
52.0, -35457.93568586537, -29865.618630125362, -38381.83443329745, -35724.50259023936, -53504.46593814682, 187500.0, -36709.99100327385, -38129.17031397466, 0.784, -0.662, 0.09, 192.0, 0.0, 0.0, 0.0, 0.0, 0.0, 0.0, 0.0, 0.0, 0.0, 1.6635919228307178E9, 0.0, 2022-09-19 17:52:02.830
53.0, -35433.75109836472, -29864.76926383606, -38369.16099419129, -35740.64054973609, -53509.8303568161, 187500.0, -36564.65996082544, -38151.767927618974, 0.784, -0.662, 0.09, 192.0, 0.0, 0.0, 0.0, 0.0, 0.0, 0.0, 0.0, 0.0, 0.0, 1.6635919228357246E9, 0.0, 2022-09-19 17:52:02.835
54.0, -35425.14567674943, -29876.19100525272, -38366.43408136774, -35771.150680917584, -53527.30942098015, 187500.0, -36359.225077536714, -38189.765893193, 0.784, -0.662, 0.09, 192.0, 0.0, 0.0, 0.0, 0.0, 0.0, 0.0, 0.0, 0.0, 0.0, 1.6635919228397527E9, 0.0, 2022-09-19 17:52:02.839
55.0, -35465.60233421354, -29899.906206119802, -38406.9130905763, -35773.967000718956, -53544.475560721825, 187500.0, -36485.98182034276, -38181.09341634434, 0.784, -0.662, 0.09, 192.0, 0.0, 0.0, 0.0, 0.0, 0.0, 0.0, 0.0, 0.0, 0.0, 1.663591922843774E9, 0.0, 2022-09-19 17:52:02.843
56.0, -35481.40501754344, -29890.183197281745, -38415.07147730249, -35737.71247121244, -53518.25696447575, 187500.0, -36743.13864030107, -38136.59109313382, 0.784, -0.662, 0.09, 192.0, 0.0, 0.0, 0.0, 0.0, 0.0, 0.0, 0.0, 0.0, 0.0, 1.6635919228477507E9, 0.0, 2022-09-19 17:52:02.847
57.0, -35452.861839874015, -29865.685685358727, -38386.64005835534, -35725.39666001757, -53493.96061825283, 187500.0, -36707.12997998357, -38128.18683721863, 0.784, -0.662, 0.09, 192.0, 0.0, 0.0, 0.0, 0.0, 0.0, 0.0, 0.0, 0.0, 0.0, 1.6635919228517728E9, 0.0, 2022-09-19 17:52:02.851
58.0, -35433.0134907977, -29860.05304575599, -38364.578886577954, -35738.83005843521, -53492.44069962987, 187500.0, -36558.133251444495, -38147.90107582821, 0.788, -0.666, 0.096, 192.0, 24.0, 160.0, 235.0, 48.0, 3.0, 0.0, 0.0, 0.0, 0.0, 1.663591922854751E9, 0.0, 2022-09-19 17:52:02.854
59.0, -35426.0620982721, -29870.29014471652, -38360.89084874283, -35768.46847158295, -53506.097615492065, 187500.0, -36350.3290832435, -38181.96513437809, 0.788, -0.666, 0.096, 192.0, 0.0, 0.0, 0.0, 0.0, 0.0, 0.0, 0.0, 0.0, 0.0, 1.6635919228587785E9, 0.0, 2022-09-19 17:52:02.858
60.0, -35463.769491168205, -29888.797389125513, -38404.05206728602, -35768.82609949423, -53532.02563906022, 187500.0, -36480.14801503992, -38182.188651822646, 0.788, -0.666, 0.096, 192.0, 0.0, 0.0, 0.0, 0.0, 0.0, 0.0, 0.0, 0.0, 0.0, 1.6635919228637352E9, 0.0, 2022-09-19 17:52:02.863
61.0, -35477.38170354148, -29875.475749430152, -38407.38247720987, -35731.990424631884, -53509.53978413818, 187500.0, -36736.23195126438, -38135.004119277495, 0.788, -0.666, 0.096, 192.0, 0.0, 0.0, 0.0, 0.0, 0.0, 0.0, 0.0, 0.0, 0.0, 1.6635919228677638E9, 0.0, 2022-09-19 17:52:02.867
62.0, -35452.794784640646, -29859.047217255502, -38376.71588381718, -35719.94283437048, -53483.41059486993, 187500.0, -36703.01725900379, -38119.87198828125, 0.788, -0.666, 0.096, 192.0, 0.0, 0.0, 0.0, 0.0, 0.0, 0.0, 0.0, 0.0, 0.0, 1.6635919228717544E9, 0.0, 2022-09-19 17:52:02.871
63.0, -35442.937665335856, -29861.90824054578, -38363.05896795499, -35739.09827936868, -53486.025748971195, 187500.0, -36557.485050855284, -38144.28009322644, 0.788, -0.666, 0.096, 192.0, 0.0, 0.0, 0.0, 0.0, 0.0, 0.0, 0.0, 0.0, 0.0, 1.6635919228757865E9, 0.0, 2022-09-19 17:52:02.875
64.0, -35447.00568282672, -29880.281374488044, -38367.75283429061, -35776.58215482022, -53511.86436556153, 187500.0, -36356.14053680188, -38190.34703854883, 0.788, -0.666, 0.096, 192.0, 0.0, 0.0, 0.0, 0.0, 0.0, 0.0, 0.0, 0.0, 0.0, 1.6635919228798492E9, 0.0, 2022-09-19 17:52:02.879
65.0, -35482.41084604393, -29904.15303756631, -38410.712887133704, -35781.767759533854, -53545.50374096677, 187500.0, -36486.09357906504, -38190.83877692685, 0.788, -0.666, 0.096, 192.0, 0.0, 0.0, 0.0, 0.0, 0.0, 0.0, 0.0, 0.0, 0.0, 1.6635919228828263E9, 0.0, 2022-09-19 17:52:02.882
66.0, -35478.61104948653, -29884.48350244564, -38411.27168074509, -35741.087584625195, -53521.43091218841, 187500.0, -36736.79074487576, -38145.44238393812, 0.788, -0.666, 0.096, 192.0, 0.0, 0.0, 0.0, 0.0, 0.0, 0.0, 0.0, 0.0, 0.0, 1.6635919228869064E9, 0.0, 2022-09-19 17:52:02.886
67.0, -35446.53629619316, -29858.935458533226, -38378.99576175163, -35726.558950729246, -53495.50288862025, 187500.0, -36699.21746244639, -38135.294691955416, 0.788, -0.666, 0.096, 192.0, 0.0, 0.0, 0.0, 0.0, 0.0, 0.0, 0.0, 0.0, 0.0, 1.6635919228917744E9, 0.0, 2022-09-19 17:52:02.891
68.0, -35423.02226102618, -29850.553554362483, -38361.2037731652, -35739.612369491144, -53496.68753107638, 187500.0, -36541.25768438073, -38154.07015729787, 0.786, -0.654, 0.094, 192.0, 24.0, 144.0, 235.0, 144.0, 2.0, 240.0, 0.0, 0.0, 0.0, 1.663591922895874E9, 0.0, 2022-09-19 17:52:02.895
69.0, -35416.45084815632, -29858.488423644118, -38363.61776156638, -35767.95438146048, -53514.36776094053, 187500.0, -36332.78296384608, -38189.676486215176, 0.786, -0.654, 0.094, 192.0, 0.0, 0.0, 0.0, 0.0, 0.0, 0.0, 0.0, 0.0, 0.0, 1.6635919228998752E9, 0.0, 2022-09-19 17:52:02.899
70.0, -35457.622761442995, -29884.43879895673, -38408.67887838827, -35773.877593741134, -53544.207339788365, 187500.0, -36480.75151214022, -38187.016628624995, 0.786, -0.654, 0.094, 192.0, 0.0, 0.0, 0.0, 0.0, 0.0, 0.0, 0.0, 0.0, 0.0, 1.6635919229038017E9, 0.0, 2022-09-19 17:52:02.903
71.0, -35470.74323543826, -29872.637077884327, -38404.52145391959, -35737.69011946799, -53520.38038019901, 187500.0, -36733.54974192974, -38144.011872292984, 0.786, -0.654, 0.094, 192.0, 0.0, 0.0, 0.0, 0.0, 0.0, 0.0, 0.0, 0.0, 0.0, 1.663591922907814E9, 0.0, 2022-09-19 17:52:02.907
72.0, -35459.9696946108, -29862.04235101251, -38381.45445364171, -35738.45007877947, -53506.4775951478, 187500.0, -36696.80347404521, -38150.6056369073, 0.786, -0.654, 0.094, 192.0, 0.0, 0.0, 0.0, 0.0, 0.0, 0.0, 0.0, 0.0, 0.0, 1.6635919229108884E9, 0.0, 2022-09-19 17:52:02.910
73.0, -35444.54699093664, -29863.09288300191, -38373.27371517107, -35759.37131158964, -53517.02761853071, 187500.0, -36544.342225115564, -38179.819366910386, 0.786, -0.654, 0.094, 192.0, 0.0, 0.0, 0.0, 0.0, 0.0, 0.0, 0.0, 0.0, 0.0, 1.6635919229148817E9, 0.0, 2022-09-19 17:52:02.914
74.0, -35436.567418166094, -29872.860595328882, -38374.100729715916, -35787.08747471422, -53538.48529320781, 187500.0, -36341.14251627237, -38218.30907086242, 0.786, -0.654, 0.094, 192.0, 0.0, 0.0, 0.0, 0.0, 0.0, 0.0, 0.0, 0.0, 0.0, 1.6635919229198098E9, 0.0, 2022-09-19 17:52:02.919
75.0, -35464.663560946414, -29886.003421068603, -38416.18906452526, -35781.81246302277, -53562.6922324529, 187500.0, -36484.28308776415, -38206.77557072348, 0.786, -0.654, 0.094, 192.0, 0.0, 0.0, 0.0, 0.0, 0.0, 0.0, 0.0, 0.0, 0.0, 1.6635919229239037E9, 0.0, 2022-09-19 17:52:02.923
76.0, -35470.43031101589, -29874.33581046293, -38421.73229715017, -35749.58124751822, -53548.07419157913, 187500.0, -36734.33205298568, -38169.671674927675, 0.786, -0.654, 0.094, 192.0, 0.0, 0.0, 0.0, 0.0, 0.0, 0.0, 0.0, 0.0, 0.0, 1.6635919229278686E9, 0.0, 2022-09-19 17:52:02.927
77.0, -35458.78505215467, -29863.42815916874, -38403.42621844128, -35754.029244664816, -53539.49112170829, 187500.0, -36698.859834535106, -38177.87476514278, 0.786, -0.654, 0.094, 192.0, 0.0, 0.0, 0.0, 0.0, 0.0, 0.0, 0.0, 0.0, 0.0, 1.663591922931898E9, 0.0, 2022-09-19 17:52:02.931
78.0, -35443.94349383635, -29864.43398766923, -38395.692514859744, -35776.403340864585, -53547.96243285685, 187500.0, -36550.80187926315, -38209.23426261357, 0.786, -0.654, 0.094, 192.0, 0.0, 0.0, 0.0, 0.0, 0.0, 0.0, 0.0, 0.0, 0.0, 1.6635919229358408E9, 0.0, 2022-09-19 17:52:02.935
79.0, -35440.18840076785, -29879.633173898837, -38400.587546895455, -35811.80850408179, -53578.27139833825, 187500.0, -36355.35822574595, -38252.77546081251, 0.784, -0.656, 0.094, 192.0, 24.0, 128.0, 235.0, 128.0, 2.0, 240.0, 0.0, 0.0, 0.0, 1.6635919229388711E9, 0.0, 2022-09-19 17:52:02.938
80.0, -35469.558592982125, -29894.742953150628, -38442.00532937114, -35807.24874821291, -53606.00991320729, 187500.0, -36505.047858363134, -38241.51018160703, 0.784, -0.656, 0.094, 192.0, 0.0, 0.0, 0.0, 0.0, 0.0, 0.0, 0.0, 0.0, 0.0, 1.6635919229429624E9, 0.0, 2022-09-19 17:52:02.942
81.0, -35467.23401155877, -29871.631249383838, -38435.970358368206, -35763.75225350288, -53575.61154074807, 187500.0, -36743.250399023345, -38189.49767225953, 0.784, -0.656, 0.094, 192.0, 0.0, 0.0, 0.0, 0.0, 0.0, 0.0, 0.0, 0.0, 0.0, 1.6635919229479609E9, 0.0, 2022-09-19 17:52:02.947
82.0, -35435.5615896656, -29847.983103750124, -38406.868387087394, -35747.97192191743, -53546.6883834229, 187500.0, -36694.948279255426, -38174.07496858537, 0.784, -0.656, 0.094, 192.0, 0.0, 0.0, 0.0, 0.0, 0.0, 0.0, 0.0, 0.0, 0.0, 1.663591922951857E9, 0.0, 2022-09-19 17:52:02.951
83.0, -35431.113592518996, -29856.54382187651, -38401.4145614403, -35770.77070126185, -53550.979918358316, 187500.0, -36552.21003916384, -38199.95828866462, 0.784, -0.656, 0.094, 192.0, 0.0, 0.0, 0.0, 0.0, 0.0, 0.0, 0.0, 0.0, 0.0, 1.6635919229558291E9, 0.0, 2022-09-19 17:52:02.955
84.0, -35440.07664204558, -29879.29789773201, -38403.96266030821, -35805.50531214539, -53575.05274713669, 187500.0, -36360.16385080384, -38239.34206239487, 0.784, -0.656, 0.094, 192.0, 0.0, 0.0, 0.0, 0.0, 0.0, 0.0, 0.0, 0.0, 0.0, 1.6635919229599392E9, 0.0, 2022-09-19 17:52:02.959
85.0, -35477.538165752674, -29902.320194520977, -38444.061689861024, -35802.130198732644, -53596.84569798061, 187500.0, -36513.385059044966, -38228.5238180785, 0.784, -0.656, 0.094, 192.0, 0.0, 0.0, 0.0, 0.0, 0.0, 0.0, 0.0, 0.0, 0.0, 1.6635919229628477E9, 0.0, 2022-09-19 17:52:02.962
86.0, -35498.19117762938, -29893.647717672317, -38444.24050381667, -35768.13319541612, -53571.69998546839, 187500.0, -36760.19302132047, -38187.97775363657, 0.784, -0.656, 0.094, 192.0, 0.0, 0.0, 0.0, 0.0, 0.0, 0.0, 0.0, 0.0, 0.0, 1.6635919229668472E9, 0.0, 2022-09-19 17:52:02.966
87.0, -35471.92787789439, -29876.48157793064, -38412.121047034394, -35757.20319237747, -53546.33075551162, 187500.0, -36709.32045094019, -38175.617238952786, 0.784, -0.656, 0.094, 192.0, 0.0, 0.0, 0.0, 0.0, 0.0, 0.0, 0.0, 0.0, 0.0, 1.6635919229708445E9, 0.0, 2022-09-19 17:52:02.970
88.0, -35462.76366266771, -29871.251269728098, -38398.84411082794, -35770.41307335056, -53546.66603167845, 187500.0, -36549.41607110692, -38190.436445526655, 0.784, -0.656, 0.094, 192.0, 0.0, 0.0, 0.0, 0.0, 0.0, 0.0, 0.0, 0.0, 0.0, 1.663591922974924E9, 0.0, 2022-09-19 17:52:02.974
89.0, -35451.99012184025, -29880.840168099425, -38401.213395740204, -35801.37023942116, -53566.51438075476, 187500.0, -36355.26881876813, -38229.70846053463, 0.788, -0.668, 0.092, 192.0, 24.0, 160.0, 235.0, 32.0, 2.0, 224.0, 0.0, 0.0, 0.0, 1.6635919229799745E9, 0.0, 2022-09-19 17:52:02.979
90.0, -35463.702435934836, -29884.885833845838, -38431.5223612216, -35785.902832258085, -53573.39871804699, 187500.0, -36503.84086416255, -38211.24591961455, 0.788, -0.668, 0.092, 192.0, 0.0, 0.0, 0.0, 0.0, 0.0, 0.0, 0.0, 0.0, 0.0, 1.6635919229839451E9, 0.0, 2022-09-19 17:52:02.983
91.0, -35472.75489243923, -29866.870327814857, -38429.77892515408, -35746.29554108328, -53541.055743820165, 187500.0, -36743.04923332325, -38151.94674157462, 0.788, -0.668, 0.092, 192.0, 0.0, 0.0, 0.0, 0.0, 0.0, 0.0, 0.0, 0.0, 0.0, 1.6635919229879353E9, 0.0, 2022-09-19 17:52:02.987
92.0, -35440.121345534484, -29849.57007760645, -38399.469959672686, -35740.193514846986, -53521.56502265514, 187500.0, -36699.28451767976, -38147.96813106157, 0.788, -0.668, 0.092, 192.0, 0.0, 0.0, 0.0, 0.0, 0.0, 0.0, 0.0, 0.0, 0.0, 1.6635919229909017E9, 0.0, 2022-09-19 17:52:02.990
93.0, -35423.62575812647, -29849.3465601619, -38386.43889265524, -35756.66675051054, -53522.50379592226, 187500.0, -36539.80482099114, -38167.77177664897, 0.788, -0.668, 0.092, 192.0, 0.0, 0.0, 0.0, 0.0, 0.0, 0.0, 0.0, 0.0, 0.0, 1.6635919229949744E9, 0.0, 2022-09-19 17:52:02.994
94.0, -35427.60436863951, -29864.05400801349, -38392.049180513524, -35787.109826458676, -53543.0897525656, 187500.0, -36345.0764232965, -38202.32757357688, 0.788, -0.668, 0.092, 192.0, 0.0, 0.0, 0.0, 0.0, 0.0, 0.0, 0.0, 0.0, 0.0, 1.663591922998968E9, 0.0, 2022-09-19 17:52:02.998
95.0, -35468.39630227045, -29879.38730470983, -38430.51653272111, -35781.67835255603, -53563.5415987422, 187500.0, -36509.5182072542, -38186.63664896925, 0.788, -0.668, 0.092, 192.0, 0.0, 0.0, 0.0, 0.0, 0.0, 0.0, 0.0, 0.0, 0.0, 1.663591923002984E9, 0.0, 2022-09-19 17:52:03.002
96.0, -35463.88124989048, -29862.06470275697, -38430.04714608755, -35746.40729980556, -53539.42406647492, 187500.0, -36743.675082167996, -38144.90594207119, 0.788, -0.668, 0.092, 192.0, 0.0, 0.0, 0.0, 0.0, 0.0, 0.0, 0.0, 0.0, 0.0, 1.6635919230079987E9, 0.0, 2022-09-19 17:52:03.007
97.0, -35438.668482144894, -29844.13860370381, -38410.0646865445, -35745.02149164933, -53523.19670000037, 187500.0, -36690.254412919814, -38148.99631130652, 0.788, -0.668, 0.092, 192.0, 0.0, 0.0, 0.0, 0.0, 0.0, 0.0, 0.0, 0.0, 0.0, 1.6635919230120246E9, 0.0, 2022-09-19 17:52:03.012
98.0, -35404.44796138382, -29833.633283809817, -38390.7080758462, -35755.146831887585, -53519.01692378723, 187500.0, -36523.13041962748, -38164.12844230276, 0.788, -0.668, 0.092, 192.0, 0.0, 0.0, 0.0, 0.0, 0.0, 0.0, 0.0, 0.0, 0.0, 1.663591923016091E9, 0.0, 2022-09-19 17:52:03.016
99.0, -35396.781313035644, -29844.00449323708, -38389.814006067994, -35779.15260543259, -53535.08782805059, 187500.0, -36331.73243185669, -38189.69883795963, 0.78, -0.664, 0.096, 192.0, 24.0, 96.0, 235.0, 64.0, 3.0, 0.0, 0.0, 0.0, 0.0, 1.6635919230190127E9, 0.0, 2022-09-19 17:52:03.019
100.0, -35438.95905482281, -29867.138548748324, -38430.918864121304, -35774.726960030435, -53552.589243959104, 187500.0, -36506.50072175273, -38178.768834920986, 0.78, -0.664, 0.096, 192.0, 0.0, 0.0, 0.0, 0.0, 0.0, 0.0, 0.0, 0.0, 0.0, 1.6635919230230737E9, 0.0, 2022-09-19 17:52:03.023
101.0, -35447.02803457118, -29851.00058925159, -38426.15794255232, -35736.416070034036, -53521.02858078821, 187500.0, -36741.32814900019, -38131.31608144237, 0.78, -0.664, 0.096, 192.0, 0.0, 0.0, 0.0, 0.0, 0.0, 0.0, 0.0, 0.0, 0.0, 1.663591923026989E9, 0.0, 2022-09-19 17:52:03.026
102.0, -35429.63837738495, -29835.95786523317, -38398.061799772004, -35727.90005539657, -53495.748757809255, 187500.0, -36686.901651251515, -38124.4987993835, 0.78, -0.664, 0.096, 192.0, 0.0, 0.0, 0.0, 0.0, 0.0, 0.0, 0.0, 0.0, 0.0, 1.6635919230310009E9, 0.0, 2022-09-19 17:52:03.031
103.0, -35410.9076155314, -29833.923856487734, -38378.03463674005, -35741.31110206975, -53492.84303103007, 187500.0, -36527.51136154072, -38142.15667750319, 0.78, -0.664, 0.096, 192.0, 0.0, 0.0, 0.0, 0.0, 0.0, 0.0, 0.0, 0.0, 0.0, 1.6635919230351183E9, 0.0, 2022-09-19 17:52:03.035
104.0, -35413.81334231059, -29847.33490316092, -38379.37574140737, -35772.760006518365, -53514.703037107356, 187500.0, -36339.95787381624, -38180.735788433056, 0.78, -0.664, 0.096, 192.0, 0.0, 0.0, 0.0, 0.0, 0.0, 0.0, 0.0, 0.0, 0.0, 1.6635919230400438E9, 0.0, 2022-09-19 17:52:03.040
105.0, -35445.374005481484, -29861.505909145584, -38415.898491847336, -35762.05352092427, -53531.39979021547, 187500.0, -36514.88262592347, -38164.37431149177, 0.78, -0.664, 0.096, 192.0, 0.0, 0.0, 0.0, 0.0, 0.0, 0.0, 0.0, 0.0, 0.0, 1.6635919230440755E9, 0.0, 2022-09-19 17:52:03.044
106.0, -35457.06396783161, -29851.894659029804, -38414.758552880114, -35728.16827633003, -53505.42706315841, 187500.0, -36741.909294356024, -38126.80102906239, 0.78, -0.664, 0.096, 192.0, 0.0, 0.0, 0.0, 0.0, 0.0, 0.0, 0.0, 0.0, 0.0, 1.6635919230469992E9, 0.0, 2022-09-19 17:52:03.046
107.0, -35433.92991232037, -29836.539010589007, -38390.64102061284, -35721.798029160265, -53487.61272282752, 187500.0, -36679.12324418107, -38123.02358424945, 0.78, -0.664, 0.096, 192.0, 0.0, 0.0, 0.0, 0.0, 0.0, 0.0, 0.0, 0.0, 0.0, 1.66359192305111E9, 0.0, 2022-09-19 17:52:03.051
108.0, -35401.966917749276, -29830.99577796409, -38373.27371517107, -35734.60557873316, -53484.12585069249, 187500.0, -36518.1683323584, -38140.7038141136, 0.78, -0.664, 0.096, 192.0, 0.0, 0.0, 0.0, 0.0, 0.0, 0.0, 0.0, 0.0, 0.0, 1.6635919230550604E9, 0.0, 2022-09-19 17:52:03.055
109.0, -35394.121455445464, -29838.774185034537, -38374.48070937165, -35762.25468662437, -53497.44749038786, 187500.0, -36331.21834173422, -38172.84562264033, 0.782, -0.666, 0.094, 192.0, 24.0, 112.0, 235.0, 48.0, 2.0, 240.0, 0.0, 0.0, 0.0, 1.663591923059121E9, 0.0, 2022-09-19 17:52:03.059
110.0, -35429.14663900693, -29848.832470039426, -38409.952927822225, -35748.79893646228, -53509.56213588264, 187500.0, -36509.92053865439, -38152.617293908275, 0.782, -0.666, 0.094, 192.0, 0.0, 0.0, 0.0, 0.0, 0.0, 0.0, 0.0, 0.0, 0.0, 1.663591923064049E9, 0.0, 2022-09-19 17:52:03.064
111.0, -35438.89199958945, -29835.71199604416, -38408.70123013273, -35712.18677904449, -53482.2259524138, 187500.0, -36739.249436765844, -38114.5969765898, 0.782, -0.666, 0.094, 192.0, 0.0, 0.0, 0.0, 0.0, 0.0, 0.0, 0.0, 0.0, 0.0, 1.6635919230680785E9, 0.0, 2022-09-19 17:52:03.068
112.0, -35420.407106924904, -29825.47489708363, -38389.4116746678, -35711.091543566174, -53468.74785050724, 187500.0, -36680.531404081754, -38114.32875565634, 0.782, -0.666, 0.094, 192.0, 0.0, 0.0, 0.0, 0.0, 0.0, 0.0, 0.0, 0.0, 0.0, 1.6635919230721123E9, 0.0, 2022-09-19 17:52:03.072
113.0, -35398.01065898069, -29821.496286570586, -38366.43408136774, -35720.45692449295, -53462.556417293126, 187500.0, -36513.27330032269, -38129.483238397035, 0.782, -0.666, 0.094, 192.0, 0.0, 0.0, 0.0, 0.0, 0.0, 0.0, 0.0, 0.0, 0.0, 1.6635919230750444E9, 0.0, 2022-09-19 17:52:03.075
114.0, -35403.933871261346, -29839.556496090474, -38370.949133747716, -35750.27415159633, -53484.03644371468, 187500.0, -36328.960815544226, -38161.60269517931, 0.782, -0.666, 0.094, 192.0, 0.0, 0.0, 0.0, 0.0, 0.0, 0.0, 0.0, 0.0, 0.0, 1.6635919230790927E9, 0.0, 2022-09-19 17:52:03.079
115.0, -35436.567418166094, -29851.738196818616, -38405.057895786515, -35738.226561334915, -53501.02376950071, 187500.0, -36511.708678210816, -38142.469601925564, 0.782, -0.666, 0.094, 192.0, 0.0, 0.0, 0.0, 0.0, 0.0, 0.0, 0.0, 0.0, 0.0, 1.6635919230831327E9, 0.0, 2022-09-19 17:52:03.083
116.0, -35439.27197924518, -29837.61189432286, -38401.16869225129, -35705.727124896905, -53477.710900033824, 187500.0, -36737.729518142885, -38107.57852883083, 0.782, -0.666, 0.094, 192.0, 0.0, 0.0, 0.0, 0.0, 0.0, 0.0, 0.0, 0.0, 0.0, 1.663591923087136E9, 0.0, 2022-09-19 17:52:03.087
117.0, -35416.8084760676, -29828.492382585096, -38381.2085844527, -35710.823322632714, -53465.70801326133, 187500.0, -36677.89389823603, -38117.234482435524, 0.782, -0.666, 0.094, 192.0, 0.0, 0.0, 0.0, 0.0, 0.0, 0.0, 0.0, 0.0, 0.0, 1.6635919230910957E9, 0.0, 2022-09-19 17:52:03.091
118.0, -35394.14380718992, -29819.0375946805, -38361.06966269847, -35720.83690414869, -53461.774106237186, 187500.0, -36514.39088754546, -38135.428802422146, 0.782, -0.666, 0.094, 192.0, 0.0, 0.0, 0.0, 0.0, 0.0, 0.0, 0.0, 0.0, 0.0, 1.6635919230971472E9, 0.0, 2022-09-19 17:52:03.097
119.0, -35392.02039146666, -29825.452545339176, -38363.21543016618, -35747.56959051724, -53481.60010356905, 187500.0, -36332.246521979156, -38163.56964869137, 0.78, -0.664, 0.096, 192.0, 24.0, 96.0, 235.0, 64.0, 3.0, 0.0, 0.0, 0.0, 0.0, 1.6635919231011732E9, 0.0, 2022-09-19 17:52:03.101
120.0, -35437.17091526639, -29845.166783948756, -38407.02484929858, -35741.22169509193, -53504.82356605811, 187500.0, -36522.83984694956, -38150.248008996015, 0.78, -0.664, 0.096, 192.0, 0.0, 0.0, 0.0, 0.0, 0.0, 0.0, 0.0, 0.0, 0.0, 1.6635919231041489E9, 0.0, 2022-09-19 17:52:03.104
121.0, -35436.366252465996, -29833.09684194289, -38403.113294018905, -35708.63285167609, -53479.20846691233, 187500.0, -36743.116288556615, -38107.06443870836, 0.78, -0.664, 0.096, 192.0, 0.0, 0.0, 0.0, 0.0, 0.0, 0.0, 0.0, 0.0, 0.0, 1.66359192310714E9, 0.0, 2022-09-19 17:52:03.107
122.0, -35413.634528354945, -29816.86947546834, -38375.1065582164, -35705.503607452345, -53463.450487071335, 187500.0, -36678.92207848097, -38107.98086023103, 0.78, -0.664, 0.096, 192.0, 0.0, 0.0, 0.0, 0.0, 0.0, 0.0, 0.0, 0.0, 0.0, 1.6635919231111376E9, 0.0, 2022-09-19 17:52:03.111
123.0, -35397.60832758049, -29815.014280678548, -38359.57209581997, -35722.714450682935, -53465.752716750234, 187500.0, -36510.50168401023, -38133.953587288095, 0.78, -0.664, 0.096, 192.0, 0.0, 0.0, 0.0, 0.0, 0.0, 0.0, 0.0, 0.0, 0.0, 1.6635919231150968E9, 0.0, 2022-09-19 17:52:03.115
124.0, -35395.23904266823, -29829.162934918757, -38367.39520637932, -35750.944703929985, -53488.93147575039, 187500.0, -36322.99289977466, -38167.302390015415, 0.78, -0.664, 0.096, 192.0, 0.0, 0.0, 0.0, 0.0, 0.0, 0.0, 0.0, 0.0, 0.0, 1.6635919231191783E9, 0.0, 2022-09-19 17:52:03.119
125.0, -35426.88911281695, -29844.697397315194, -38405.23670974216, -35740.59584624718, -53507.68458934839, 187500.0, -36513.83209393407, -38149.77862236245, 0.78, -0.664, 0.096, 192.0, 0.0, 0.0, 0.0, 0.0, 0.0, 0.0, 0.0, 0.0, 0.0, 1.6635919231241162E9, 0.0, 2022-09-19 17:52:03.124
126.0, -35428.00670003971, -29827.307740128967, -38399.42525618378, -35704.45307546295, -53475.274559888196, 187500.0, -36727.69358488245, -38104.181063673626, 0.78, -0.664, 0.096, 192.0, 0.0, 0.0, 0.0, 0.0, 0.0, 0.0, 0.0, 0.0, 0.0, 1.6635919231281364E9, 0.0, 2022-09-19 17:52:03.128
127.0, -35404.22444393927, -29811.549760287973, -38379.08516872945, -35703.31313649573, -53457.05788815712, 187500.0, -36662.76176723978, -38106.66210730816, 0.78, -0.664, 0.096, 192.0, 0.0, 0.0, 0.0, 0.0, 0.0, 0.0, 0.0, 0.0, 0.0, 1.6635919231311264E9, 0.0, 2022-09-19 17:52:03.131
128.0, -35400.46935087077, -29819.10464991387, -38367.64107556833, -35731.811610676246, -53467.87613247349, 187500.0, -36504.89139615195, -38140.74851760251, 0.78, -0.664, 0.096, 192.0, 0.0, 0.0, 0.0, 0.0, 0.0, 0.0, 0.0, 0.0, 0.0, 1.6635919231352663E9, 0.0, 2022-09-19 17:52:03.135
129.0, -35408.895958530426, -29834.77322277704, -38371.46322387019, -35764.8921924701, -53489.28910366167, 187500.0, -36324.91514979782, -38178.43355875416, 0.788, -0.664, 0.092, 192.0, 24.0, 160.0, 235.0, 64.0, 2.0, 224.0, 0.0, 0.0, 0.0, 1.6635919231392543E9, 0.0, 2022-09-19 17:52:03.139
130.0, -35444.01054906971, -29850.91118227377, -38412.90335809033, -35755.66092201006, -53510.61266787203, 187500.0, -36522.83984694956, -38160.730977145555, 0.788, -0.664, 0.092, 192.0, 0.0, 0.0, 0.0, 0.0, 0.0, 0.0, 0.0, 0.0, 0.0, 1.6635919231431575E9, 0.0, 2022-09-19 17:52:03.143
131.0, -35436.65682514392, -29831.889847742303, -38410.511721433606, -35720.92631112651, -53488.81971702811, 187500.0, -36733.48268669638, -38123.51532262746, 0.788, -0.664, 0.092, 192.0, 0.0, 0.0, 0.0, 0.0, 0.0, 0.0, 0.0, 0.0, 0.0, 1.6635919231471767E9, 0.0, 2022-09-19 17:52:03.147
132.0, -35412.96397602129, -29814.14256264479, -38384.74016007664, -35711.53857845528, -53468.18905689586, 187500.0, -36661.26420036128, -38119.268491180956, 0.788, -0.664, 0.092, 192.0, 0.0, 0.0, 0.0, 0.0, 0.0, 0.0, 0.0, 0.0, 0.0, 1.6635919231512609E9, 0.0, 2022-09-19 17:52:03.151
133.0, -35410.23706319774, -29817.495324313084, -38370.16682269178, -35726.71541294044, -53469.53016156318, 187500.0, -36499.14699782694, -38134.46767741057, 0.788, -0.664, 0.092, 192.0, 0.0, 0.0, 0.0, 0.0, 0.0, 0.0, 0.0, 0.0, 0.0, 1.663591923156212E9, 0.0, 2022-09-19 17:52:03.156
134.0, -35414.01450801069, -29833.1415454318, -38374.570116349474, -35755.303294098776, -53494.20648744184, 187500.0, -36317.80729506103, -38170.11870981678, 0.788, -0.664, 0.092, 192.0, 0.0, 0.0, 0.0, 0.0, 0.0, 0.0, 0.0, 0.0, 0.0, 1.6635919231595724E9, 0.0, 2022-09-19 17:52:03.159
135.0, -35439.3166827341, -29845.1444322043, -38414.64679415784, -35744.82032594924, -53516.580583641604, 187500.0, -36516.64841373544, -38153.98075032005, 0.788, -0.664, 0.092, 192.0, 0.0, 0.0, 0.0, 0.0, 0.0, 0.0, 0.0, 0.0, 0.0, 1.6635919231632988E9, 0.0, 2022-09-19 17:52:03.163
136.0, -35429.19134249584, -29827.732423273617, -38407.13660802086, -35711.06919182172, -53490.384339139986, 187500.0, -36730.55460817273, -38114.105238211785, 0.788, -0.664, 0.092, 192.0, 0.0, 0.0, 0.0, 0.0, 0.0, 0.0, 0.0, 0.0, 0.0, 1.663591923167205E9, 0.0, 2022-09-19 17:52:03.167
137.0, -35413.76863882168, -29816.75771674606, -38387.98116302266, -35713.0808488227, -53477.06269944462, 187500.0, -36667.29917136421, -38118.77675280294, 0.788, -0.664, 0.092, 192.0, 0.0, 0.0, 0.0, 0.0, 0.0, 0.0, 0.0, 0.0, 0.0, 1.6635919231713352E9, 0.0, 2022-09-19 17:52:03.171
138.0, -35410.32647017556, -29820.222237136633, -38371.73144480365, -35734.82909617771, -53482.114193691516, 187500.0, -36501.02454436118, -38142.71547111458, 0.788, -0.664, 0.092, 192.0, 0.0, 0.0, 0.0, 0.0, 0.0, 0.0, 0.0, 0.0, 0.0, 1.6635919231752467E9, 0.0, 2022-09-19 17:52:03.175
139.0, -35404.358554406, -29832.00160646458, -38377.31938091748, -35763.10405291367, -53504.26477244673, 187500.0, -36323.03760326357, -38174.74552091903, 0.786, -0.66, 0.094, 192.0, 24.0, 144.0, 235.0, 96.0, 2.0, 240.0, 0.0, 0.0, 0.0, 1.6635919231792264E9, 0.0, 2022-09-19 17:52:03.179
140.0, -35438.40026121143, -29847.200792694188, -38419.56417793801, -35751.21292486345, -53522.72731336681, 187500.0, -36524.60563476153, -38154.561895675884, 0.786, -0.66, 0.094, 192.0, 0.0, 0.0, 0.0, 0.0, 0.0, 0.0, 0.0, 0.0, 0.0, 1.6635919231842306E9, 0.0, 2022-09-19 17:52:03.184
141.0, -35435.74040362125, -29831.84514425339, -38409.327078977476, -35716.612424446634, -53492.954789752344, 187500.0, -36727.76064011582, -38113.50174111149, 0.786, -0.66, 0.094, 192.0, 0.0, 0.0, 0.0, 0.0, 0.0, 0.0, 0.0, 0.0, 0.0, 1.6635919231873083E9, 0.0, 2022-09-19 17:52:03.187
142.0, -35407.59955735201, -29818.47880106912, -38383.801386809515, -35718.10999132514, -53476.3697953665, 187500.0, -36658.55963928218, -38120.319023170356, 0.786, -0.66, 0.094, 192.0, 0.0, 0.0, 0.0, 0.0, 0.0, 0.0, 0.0, 0.0, 0.0, 1.6635919231912708E9, 0.0, 2022-09-19 17:52:03.191
143.0, -35402.9056910164, -29822.636225537804, -38370.21152618069, -35739.94764565798, -53482.00243496924, 187500.0, -36489.64750643343, -38150.27036074047, 0.786, -0.66, 0.094, 192.0, 0.0, 0.0, 0.0, 0.0, 0.0, 0.0, 0.0, 0.0, 0.0, 1.6635919231953156E9, 0.0, 2022-09-19 17:52:03.195
144.0, -35411.91344403189, -29841.970484491645, -38373.944267504725, -35766.41211109306, -53503.080129990594, 187500.0, -36319.75189682864, -38181.98748612255, 0.786, -0.66, 0.094, 192.0, 0.0, 0.0, 0.0, 0.0, 0.0, 0.0, 0.0, 0.0, 0.0, 1.6635919231993098E9, 0.0, 2022-09-19 17:52:03.199
145.0, -35444.748156636735, -29858.71194108867, -38411.003459811625, -35750.20709636296, -53516.938211552886, 187500.0, -36531.73584124277, -38153.69017764213, 0.786, -0.66, 0.094, 192.0, 0.0, 0.0, 0.0, 0.0, 0.0, 0.0, 0.0, 0.0, 0.0, 1.6635919232033203E9, 0.0, 2022-09-19 17:52:03.203
146.0, -35447.899752604935, -29843.982141492623, -38405.66139288681, -35718.62408144761, -53491.09959496255, 187500.0, -36734.66732915251, -38117.30153766889, 0.786, -0.66, 0.094, 192.0, 0.0, 0.0, 0.0, 0.0, 0.0, 0.0, 0.0, 0.0, 0.0, 1.6635919232073307E9, 0.0, 2022-09-19 17:52:03.207
147.0, -35425.39154593844, -29827.15127791778, -38380.3592181634, -35713.751401156354, -53476.593312811056, 187500.0, -36658.89491544902, -38118.575587102845, 0.786, -0.66, 0.094, 192.0, 0.0, 0.0, 0.0, 0.0, 0.0, 0.0, 0.0, 0.0, 0.0, 1.663591923212345E9, 0.0, 2022-09-19 17:52:03.212
148.0, -35400.67051657087, -29822.658577282262, -38369.56332559149, -35729.19645657497, -53481.89067624696, 187500.0, -36482.67376216337, -38140.99438679151, 0.786, -0.66, 0.094, 192.0, 0.0, 0.0, 0.0, 0.0, 0.0, 0.0, 0.0, 0.0, 0.0, 1.6635919232153363E9, 0.0, 2022-09-19 17:52:03.215
149.0, -35411.44405739833, -29841.47874611363, -38379.196927451725, -35758.45489006697, -53506.857574803544, 187500.0, -36320.55655962903, -38173.113843573796, 0.786, -0.66, 0.096, 192.0, 24.0, 144.0, 235.0, 96.0, 3.0, 0.0, 0.0, 0.0, 0.0, 1.6635919232194095E9, 0.0, 2022-09-19 17:52:03.219
150.0, -35446.93862759336, -29854.643923597807, -38415.473808702685, -35744.14977361557, -53521.22974648831, 187500.0, -36539.78246924668, -38149.041014795424, 0.786, -0.66, 0.096, 192.0, 0.0, 0.0, 0.0, 0.0, 0.0, 0.0, 0.0, 0.0, 0.0, 1.663591923223412E9, 0.0, 2022-09-19 17:52:03.223
151.0, -35438.176743766875, -29833.186248920712, -38402.21922424069, -35711.15859879954, -53491.3231124071, 187500.0, -36736.47782045339, -38110.99834573249, 0.786, -0.66, 0.096, 192.0, 0.0, 0.0, 0.0, 0.0, 0.0, 0.0, 0.0, 0.0, 0.0, 1.663591923227409E9, 0.0, 2022-09-19 17:52:03.227
152.0, -35404.31385091708, -29811.862684710348, -38374.4583576272, -35701.793217872764, -53470.938321463866, 187500.0, -36654.603380513596, -38108.07026720885, 0.786, -0.66, 0.096, 192.0, 0.0, 0.0, 0.0, 0.0, 0.0, 0.0, 0.0, 0.0, 0.0, 1.6635919232314188E9, 0.0, 2022-09-19 17:52:03.231
153.0, -35393.56266183408, -29812.443830066186, -38358.856839997396, -35719.24993029236, -53472.7711645092, 187500.0, -36480.37153248448, -38129.99732851951, 0.786, -0.66, 0.096, 192.0, 0.0, 0.0, 0.0, 0.0, 0.0, 0.0, 0.0, 0.0, 0.0, 1.663591923235427E9, 0.0, 2022-09-19 17:52:03.235
154.0, -35406.59372885153, -29836.51665884455, -38372.78197679305, -35759.37131158964, -53505.605877114045, 187500.0, -36320.84713230695, -38176.26543954199, 0.786, -0.66, 0.096, 192.0, 0.0, 0.0, 0.0, 0.0, 0.0, 0.0, 0.0, 0.0, 0.0, 1.6635919232394445E9, 0.0, 2022-09-19 17:52:03.239
155.0, -35443.58586592506, -29851.939362518715, -38415.85378835843, -35750.47531729643, -53528.27054599173, 187500.0, -36543.023472192705, -38168.66584642719, 0.786, -0.66, 0.096, 192.0, 0.0, 0.0, 0.0, 0.0, 0.0, 0.0, 0.0, 0.0, 0.0, 1.663591923242446E9, 0.0, 2022-09-19 17:52:03.242
156.0, -35430.44304018534, -29825.541952316995, -38396.27366021558, -35706.35297374165, -53495.14526070896, 187500.0, -36728.632358149574, -38118.24031093602, 0.786, -0.66, 0.096, 192.0, 0.0, 0.0, 0.0, 0.0, 0.0, 0.0, 0.0, 0.0, 0.0, 1.663591923247423E9, 0.0, 2022-09-19 17:52:03.247
157.0, -35404.31385091708, -29814.343728344887, -38370.05506396951, -35701.77086612831, -53480.16959192391, 187500.0, -36649.50718277779, -38110.43955212111, 0.786, -0.66, 0.096, 192.0, 0.0, 0.0, 0.0, 0.0, 0.0, 0.0, 0.0, 0.0, 0.0, 1.6635919232514453E9, 0.0, 2022-09-19 17:52:03.251
158.0, -35392.802702522604, -29818.14352490229, -38357.8510114969, -35723.139133827586, -53483.12002219201, 187500.0, -36470.44735794632, -38135.629968122244, 0.786, -0.66, 0.096, 192.0, 0.0, 0.0, 0.0, 0.0, 0.0, 0.0, 0.0, 0.0, 0.0, 1.6635919232553523E9, 0.0, 2022-09-19 17:52:03.255
159.0, -35405.945528262324, -29837.075452455934, -38372.71492155969, -35753.671616753534, -53510.38915042748, 187500.0, -36311.057068235525, -38168.777605149466, 0.788, -0.664, 0.094, 192.0, 24.0, 160.0, 235.0, 64.0, 2.0, 240.0, 0.0, 0.0, 0.0, 1.6635919232595093E9, 0.0, 2022-09-19 17:52:03.259
160.0, -35442.7141478913, -29854.733330575626, -38412.948061579234, -35739.36650030214, -53528.806987858654, 187500.0, -36538.15079190145, -38144.66007288219, 0.788, -0.664, 0.094, 192.0, 0.0, 0.0, 0.0, 0.0, 0.0, 0.0, 0.0, 0.0, 0.0, 1.6635919232633736E9, 0.0, 2022-09-19 17:52:03.263
161.0, -35439.719014134294, -29836.650769311284, -38403.672087630286, -35702.39671497306, -53497.76041481023, 187500.0, -36729.45937269442, -38100.76124677197, 0.788, -0.664, 0.094, 192.0, 0.0, 0.0, 0.0, 0.0, 0.0, 0.0, 0.0, 0.0, 0.0, 1.663591923267413E9, 0.0, 2022-09-19 17:52:03.267
162.0, -35414.416839410886, -29817.85295222437, -38372.51375585959, -35696.04881954775, -53479.11905993451, 187500.0, -36655.18452586944, -38102.839959006305, 0.788, -0.664, 0.094, 192.0, 0.0, 0.0, 0.0, 0.0, 0.0, 0.0, 0.0, 0.0, 0.0, 1.663591923270439E9, 0.0, 2022-09-19 17:52:03.270
163.0, -35386.47715884175, -29808.822847464427, -38353.335959116936, -35706.37532548611, -53478.20263841184, 187500.0, -36471.83316610255, -38125.50462788399, 0.788, -0.664, 0.094, 192.0, 0.0, 0.0, 0.0, 0.0, 0.0, 0.0, 0.0, 0.0, 0.0, 1.6635919232744005E9, 0.0, 2022-09-19 17:52:03.274
164.0, -35393.07092345606, -29830.124059930335, -38368.33397964644, -35741.7357852144, -53509.048045760166, 187500.0, -36314.208664203725, -38165.26838126998, 0.788, -0.664, 0.094, 192.0, 0.0, 0.0, 0.0, 0.0, 0.0, 0.0, 0.0, 0.0, 0.0, 1.6635919232795095E9, 0.0, 2022-09-19 17:52:03.279
165.0, -35439.651958900926, -29851.112347973867, -38410.77994236707, -35733.331529299205, -53525.72244712382, 187500.0, -36546.46564083882, -38143.96716880407, 0.788, -0.664, 0.094, 192.0, 0.0, 0.0, 0.0, 0.0, 0.0, 0.0, 0.0, 0.0, 0.0, 1.663591923283519E9, 0.0, 2022-09-19 17:52:03.283
166.0, -35431.62768264147, -29832.739214031604, -38397.27948871607, -35700.58622367218, -53494.407653141934, 187500.0, -36731.87336109559, -38105.65627880768, 0.788, -0.664, 0.094, 192.0, 0.0, 0.0, 0.0, 0.0, 0.0, 0.0, 0.0, 0.0, 0.0, 1.6635919232875009E9, 0.0, 2022-09-19 17:52:03.287
167.0, -35413.61217661049, -29822.1891906487, -38373.56428784899, -35708.11876155362, -53483.81292627012, 187500.0, -36653.73166247984, -38116.36276440177, 0.788, -0.664, 0.094, 192.0, 0.0, 0.0, 0.0, 0.0, 0.0, 0.0, 0.0, 0.0, 0.0, 1.6635919232914078E9, 0.0, 2022-09-19 17:52:03.291
168.0, -35396.49074035773, -29819.775202247525, -38359.7062062867, -35731.47633450942, -53487.54566759416, 187500.0, -36475.074169048574, -38146.179991505145, 0.788, -0.664, 0.094, 192.0, 0.0, 0.0, 0.0, 0.0, 0.0, 0.0, 0.0, 0.0, 0.0, 1.6635919232955718E9, 0.0, 2022-09-19 17:52:03.295
169.0, -35406.28080442915, -29835.66729255525, -38374.07837797146, -35762.32174185774, -53518.21226098684, 187500.0, -36321.60709161843, -38185.831986168865, 0.78, -0.664, 0.096, 192.0, 24.0, 96.0, 235.0, 64.0, 3.0, 0.0, 0.0, 0.0, 0.0, 1.6635919232985E9, 0.0, 2022-09-19 17:52:03.298
170.0, -35454.38175849697, -29852.028769496534, -38414.37857322438, -35749.894171940585, -53534.70784839486, 187500.0, -36554.065233953625, -38166.117747559285, 0.78, -0.664, 0.096, 192.0, 0.0, 0.0, 0.0, 0.0, 0.0, 0.0, 0.0, 0.0, 0.0, 1.6635919233025248E9, 0.0, 2022-09-19 17:52:03.302
171.0, -35449.66554041691, -29839.28827515701, -38405.46022718671, -35720.25575879285, -53511.70790335035, 187500.0, -36735.18141927498, -38135.22763672205, 0.78, -0.664, 0.096, 192.0, 0.0, 0.0, 0.0, 0.0, 0.0, 0.0, 0.0, 0.0, 0.0, 1.6635919233074293E9, 0.0, 2022-09-19 17:52:03.307
172.0, -35416.652013856416, -29827.441850595696, -38382.6614478423, -35722.87091289412, -53502.454281145845, 187500.0, -36653.21757235737, -38141.150849002704, 0.78, -0.664, 0.096, 192.0, 0.0, 0.0, 0.0, 0.0, 0.0, 0.0, 0.0, 0.0, 0.0, 1.6635919233115122E9, 0.0, 2022-09-19 17:52:03.311
173.0, -35404.202092194806, -29831.442812853198, -38371.843203525925, -35747.72605272842, -53516.82645283061, 187500.0, -36479.16453828389, -38173.78439590745, 0.78, -0.664, 0.096, 192.0, 0.0, 0.0, 0.0, 0.0, 0.0, 0.0, 0.0, 0.0, 0.0, 1.663591923315552E9, 0.0, 2022-09-19 17:52:03.315
174.0, -35409.61121435299, -29843.915086259258, -38381.36504666389, -35772.51413732936, -53539.78169438621, 187500.0, -36324.80339107554, -38201.969945665594, 0.78, -0.664, 0.096, 192.0, 0.0, 0.0, 0.0, 0.0, 0.0, 0.0, 0.0, 0.0, 0.0, 1.6635919233195229E9, 0.0, 2022-09-19 17:52:03.319
175.0, -35424.85510407151, -29844.76445254856, -38410.109390033416, -35744.75327071587, -53541.39101998699, 187500.0, -36547.87380073951, -38156.7076631436, 0.78, -0.664, 0.096, 192.0, 0.0, 0.0, 0.0, 0.0, 0.0, 0.0, 0.0, 0.0, 0.0, 1.6635919233225152E9, 0.0, 2022-09-19 17:52:03.322
176.0, -35423.02226102618, -29828.51473432955, -38405.12495101988, -35717.23827329138, -53513.47369116231, 187500.0, -36723.15618075802, -38124.45409589459, 0.78, -0.664, 0.096, 192.0, 0.0, 0.0, 0.0, 0.0, 0.0, 0.0, 0.0, 0.0, 0.0, 1.6635919233265214E9, 0.0, 2022-09-19 17:52:03.326
177.0, -35417.03199351216, -29828.045347695992, -38385.29895368802, -35726.84952340717, -53505.85174630306, 187500.0, -36651.36237756758, -38140.97203504706, 0.78, -0.664, 0.096, 192.0, 0.0, 0.0, 0.0, 0.0, 0.0, 0.0, 0.0, 0.0, 0.0, 1.6635919233305435E9, 0.0, 2022-09-19 17:52:03.330
178.0, -35397.54127234713, -29823.86557148285, -38362.12019468787, -35741.02052939183, -53505.22589745831, 187500.0, -36468.36864571198, -38157.73584338854, 0.78, -0.664, 0.096, 192.0, 0.0, 0.0, 0.0, 0.0, 0.0, 0.0, 0.0, 0.0, 0.0, 1.663591923335541E9, 0.0, 2022-09-19 17:52:03.335
179.0, -35406.079638729054, -29838.66242631226, -38372.96079074869, -35768.021436693845, -53529.946926825876, 187500.0, -36317.4720188942, -38185.98844838005, 0.78, -0.662, 0.092, 192.0, 24.0, 96.0, 235.0, 80.0, 2.0, 224.0, 0.0, 0.0, 0.0, 1.6635919233395345E9, 0.0, 2022-09-19 17:52:03.339
180.0, -35446.67040665989, -29855.605048609385, -38419.877102360384, -35757.806689477766, -53547.64950843448, 187500.0, -36558.22265842231, -38162.85439286881, 0.78, -0.662, 0.092, 192.0, 0.0, 0.0, 0.0, 0.0, 0.0, 0.0, 0.0, 0.0, 0.0, 1.6635919233435435E9, 0.0, 2022-09-19 17:52:03.343
181.0, -35437.95322632232, -29838.37185363434, -38406.19783475374, -35730.06817460873, -53520.46978717683, 187500.0, -36736.56722743121, -38131.27137795346, 0.78, -0.662, 0.092, 192.0, 0.0, 0.0, 0.0, 0.0, 0.0, 0.0, 0.0, 0.0, 0.0, 1.6635919233475716E9, 0.0, 2022-09-19 17:52:03.347
182.0, -35414.618005110984, -29826.681891284217, -38381.78972980854, -35729.911712397545, -53506.41053991444, 187500.0, -36653.21757235737, -38140.100317013304, 0.78, -0.662, 0.092, 192.0, 0.0, 0.0, 0.0, 0.0, 0.0, 0.0, 0.0, 0.0, 0.0, 1.6635919233506646E9, 0.0, 2022-09-19 17:52:03.350
183.0, -35399.70939155929, -29825.184324405713, -38367.03757846804, -35747.97192191743, -53512.333752195096, 187500.0, -36466.8040236001, -38169.381102249754, 0.78, -0.662, 0.092, 192.0, 0.0, 0.0, 0.0, 0.0, 0.0, 0.0, 0.0, 0.0, 0.0, 1.6635919233546138E9, 0.0, 2022-09-19 17:52:03.354
184.0, -35404.8055892951, -29840.271751913042, -38376.51471811709, -35773.60937280767, -53538.10531355206, 187500.0, -36320.40009741785, -38193.61039323931, 0.78, -0.662, 0.092, 192.0, 0.0, 0.0, 0.0, 0.0, 0.0, 0.0, 0.0, 0.0, 0.0, 1.6635919233585296E9, 0.0, 2022-09-19 17:52:03.358
185.0, -35441.64126415745, -29851.939362518715, -38416.524340692085, -35758.81251797826, -53549.437647990904, 187500.0, -36563.497670113764, -38167.369445248776, 0.78, -0.662, 0.092, 192.0, 0.0, 0.0, 0.0, 0.0, 0.0, 0.0, 0.0, 0.0, 0.0, 1.6635919233625984E9, 0.0, 2022-09-19 17:52:03.362
186.0, -35433.92991232037, -29834.683815799217, -38404.87908183087, -35728.95058738597, -53519.374551698515, 187500.0, -36734.39910821904, -38138.53569490143, 0.78, -0.662, 0.092, 192.0, 0.0, 0.0, 0.0, 0.0, 0.0, 0.0, 0.0, 0.0, 0.0, 1.6635919233675904E9, 0.0, 2022-09-19 17:52:03.367
187.0, -35413.634528354945, -29824.737289516605, -38384.159014720804, -35734.1361920996, -53509.89741204947, 187500.0, -36649.59658975561, -38148.39281420622, 0.78, -0.662, 0.092, 192.0, 0.0, 0.0, 0.0, 0.0, 0.0, 0.0, 0.0, 0.0, 0.0, 1.6635919233715699E9, 0.0, 2022-09-19 17:52:03.371
188.0, -35396.26722291318, -29821.9880249486, -38369.27275291357, -35748.77658471782, -53514.881851063, 187500.0, -36462.66895087587, -38165.201326036615, 0.78, -0.662, 0.092, 192.0, 0.0, 0.0, 0.0, 0.0, 0.0, 0.0, 0.0, 0.0, 0.0, 1.6635919233756268E9, 0.0, 2022-09-19 17:52:03.375
189.0, -35406.41491489588, -29835.242609410598, -38379.80042455202, -35769.69781752799, -53537.702982151866, 187500.0, -36313.00167000314, -38193.00689613901, 0.78, -0.662, 0.092, 192.0, 0.0, 0.0, 0.0, 0.0, 0.0, 0.0, 0.0, 0.0, 0.0, 1.6635919233785913E9, 0.0, 2022-09-19 17:52:03.378
190.0, -35428.72195586228, -29842.730443803128, -38410.377610966876, -35748.575419017725, -53542.50860720976, 187500.0, -36558.35676888905, -38162.407357979704, 0.782, -0.658, 0.088, 192.0, 24.0, 112.0, 235.0, 112.0, 2.0, 192.0, 0.0, 0.0, 0.0, 1.6635919233825617E9, 0.0, 2022-09-19 17:52:03.382
191.0, -35416.987290023244, -29829.788783763503, -38397.48065441616, -35724.033203605795, -53514.99360978528, 187500.0, -36733.88501809657, -38135.74172684452, 0.782, -0.658, 0.088, 192.0, 0.0, 0.0, 0.0, 0.0, 0.0, 0.0, 0.0, 0.0, 0.0, 1.6635919233866413E9, 0.0, 2022-09-19 17:52:03.386
192.0, -35399.88820551494, -29824.24555113859, -38375.9559245057, -35725.5307704843, -53501.202583456354, 187500.0, -36650.71417697837, -38139.78739259093, 0.782, -0.658, 0.088, 192.0, 0.0, 0.0, 0.0, 0.0, 0.0, 0.0, 0.0, 0.0, 0.0, 1.6635919233906496E9, 0.0, 2022-09-19 17:52:03.390
193.0, -35392.310964144584, -29824.312606371954, -38361.24847665411, -35738.62889273511, -53501.35904566754, 187500.0, -36462.66895087587, -38160.82038412338, 0.782, -0.658, 0.088, 192.0, 0.0, 0.0, 0.0, 0.0, 0.0, 0.0, 0.0, 0.0, 0.0, 1.663591923395636E9, 0.0, 2022-09-19 17:52:03.395
194.0, -35400.87168227097, -29843.423347881242, -38373.6089913379, -35764.42280583654, -53527.30942098015, 187500.0, -36328.67024286631, -38189.27415481498, 0.782, -0.658, 0.088, 192.0, 0.0, 0.0, 0.0, 0.0, 0.0, 0.0, 0.0, 0.0, 0.0, 1.663591923399653E9, 0.0, 2022-09-19 17:52:03.399
195.0, -35444.882267103465, -29851.67114158525, -38405.08024753097, -35740.260570080354, -53532.42797046041, 187500.0, -36572.12544347352, -38152.7067008861, 0.782, -0.658, 0.088, 192.0, 0.0, 0.0, 0.0, 0.0, 0.0, 0.0, 0.0, 0.0, 0.0, 1.663591923403684E9, 0.0, 2022-09-19 17:52:03.403
196.0, -35425.14567674943, -29825.631359294817, -38386.036561255045, -35704.83305511869, -53500.44262414487, 187500.0, -36729.03468954977, -38114.55227310089, 0.782, -0.658, 0.088, 192.0, 0.0, 0.0, 0.0, 0.0, 0.0, 0.0, 0.0, 0.0, 0.0, 1.6635919234068093E9, 0.0, 2022-09-19 17:52:03.406
197.0, -35401.2069584378, -29815.058984167455, -38365.696473800715, -35709.68338366549, -53489.87024901751, 187500.0, -36641.97464489635, -38128.76798257446, 0.782, -0.658, 0.088, 192.0, 0.0, 0.0, 0.0, 0.0, 0.0, 0.0, 0.0, 0.0, 0.0, 1.6635919234106448E9, 0.0, 2022-09-19 17:52:03.410
198.0, -35388.31000188708, -29816.690661512694, -38353.71593877267, -35729.50938099735, -53488.260923416725, 187500.0, -36455.82931707255, -38153.109032286295, 0.782, -0.658, 0.088, 192.0, 0.0, 0.0, 0.0, 0.0, 0.0, 0.0, 0.0, 0.0, 0.0, 1.6635919234146676E9, 0.0, 2022-09-19 17:52:03.414
199.0, -35399.798798537115, -29839.66825481275, -38373.29606691552, -35760.75711974587, -53517.139377252985, 187500.0, -36323.61874861941, -38179.48409074356, 0.782, -0.658, 0.088, 192.0, 0.0, 0.0, 0.0, 0.0, 0.0, 0.0, 0.0, 0.0, 0.0, 1.6635919234186704E9, 0.0, 2022-09-19 17:52:03.418
200.0, -35437.617950155494, -29848.161917705766, -38404.94613706424, -35739.12063111313, -53525.90126107947, 187500.0, -36573.84652779657, -38144.995349049015, 0.782, -0.654, 0.088, 192.0, 24.0, 112.0, 235.0, 144.0, 2.0, 192.0, 0.0, 0.0, 0.0, 1.6635919234236977E9, 0.0, 2022-09-19 17:52:03.423
201.0, -35425.81622908309, -29829.38645236331, -38385.142491476836, -35708.856369120644, -53494.31824616412, 187500.0, -36731.292215739755, -38116.36276440177, 0.782, -0.654, 0.088, 192.0, 0.0, 0.0, 0.0, 0.0, 0.0, 0.0, 0.0, 0.0, 0.0, 1.6635919234277184E9, 0.0, 2022-09-19 17:52:03.427
202.0, -35408.62773759696, -29823.351481360376, -38366.4564331122, -35713.147904056066, -53484.01409197022, 187500.0, -36641.9969966408, -38128.36565117427, 0.782, -0.654, 0.088, 192.0, 0.0, 0.0, 0.0, 0.0, 0.0, 0.0, 0.0, 0.0, 0.0, 1.6635919234317555E9, 0.0, 2022-09-19 17:52:03.431
203.0, -35383.52672857365, -29820.982196448113, -38351.234895138135, -35733.66680546603, -53489.22204842831, 187500.0, -36450.71076759229, -38157.087642799335, 0.782, -0.654, 0.088, 192.0, 0.0, 0.0, 0.0, 0.0, 0.0, 0.0, 0.0, 0.0, 0.0, 1.6635919234347618E9, 0.0, 2022-09-19 17:52:03.434
204.0, -35391.23808041073, -29835.600237321883, -38365.45060461171, -35760.01951217884, -53516.1335487525, 187500.0, -36320.46715265121, -38185.58611697985, 0.782, -0.654, 0.088, 192.0, 0.0, 0.0, 0.0, 0.0, 0.0, 0.0, 0.0, 0.0, 0.0, 1.663591923438723E9, 0.0, 2022-09-19 17:52:03.438
205.0, -35433.996967553736, -29848.832470039426, -38402.01805854059, -35741.713433469944, -53528.31524948064, 187500.0, -36578.56274587664, -38155.612427665284, 0.782, -0.654, 0.088, 192.0, 0.0, 0.0, 0.0, 0.0, 0.0, 0.0, 0.0, 0.0, 0.0, 1.6635919234428356E9, 0.0, 2022-09-19 17:52:03.442
206.0, -35415.7579440782, -29828.492382585096, -38384.44958739872, -35710.957433099444, -53496.88869677648, 187500.0, -36726.55364591523, -38124.05176449439, 0.782, -0.654, 0.088, 192.0, 0.0, 0.0, 0.0, 0.0, 0.0, 0.0, 0.0, 0.0, 0.0, 1.663591923446836E9, 0.0, 2022-09-19 17:52:03.446
207.0, -35413.72393533277, -29825.452545339176, -38366.63524706784, -35713.43847673398, -53487.702129805344, 187500.0, -36639.82887742864, -38128.45505815209, 0.782, -0.654, 0.088, 192.0, 0.0, 0.0, 0.0, 0.0, 0.0, 0.0, 0.0, 0.0, 0.0, 1.6635919234517157E9, 0.0, 2022-09-19 17:52:03.451
208.0, -35413.09808648802, -29837.94717048969, -38355.72759577365, -35742.16046835905, -53496.128737465, 187500.0, -36461.66312237539, -38157.91465734418, 0.782, -0.654, 0.088, 192.0, 0.0, 0.0, 0.0, 0.0, 0.0, 0.0, 0.0, 0.0, 0.0, 1.663591923455712E9, 0.0, 2022-09-19 17:52:03.455
209.0, -35405.47614162876, -29854.085129986423, -38364.847107511414, -35766.65798028207, -53517.139377252985, 187500.0, -36331.061879523026, -38183.95443963462, 0.782, -0.654, 0.088, 192.0, 0.0, 0.0, 0.0, 0.0, 0.0, 0.0, 0.0, 0.0, 0.0, 1.6635919234597394E9, 0.0, 2022-09-19 17:52:03.459
210.0, -35438.84729610053, -29864.925726047248, -38402.21922424069, -35744.529753271316, -53524.31428722314, 187500.0, -36581.80374882266, -38156.41709046568, 0.778, -0.654, 0.094, 192.0, 24.0, 80.0, 235.0, 144.0, 2.0, 240.0, 0.0, 0.0, 0.0, 1.6635919234627228E9, 0.0, 2022-09-19 17:52:03.462
211.0, -35436.52271467718, -29847.044330483, -38386.86357579989, -35709.862197621136, -53488.484440861284, 187500.0, -36727.33595697117, -38117.45799988008, 0.778, -0.654, 0.094, 192.0, 0.0, 0.0, 0.0, 0.0, 0.0, 0.0, 0.0, 0.0, 0.0, 1.663591923466828E9, 0.0, 2022-09-19 17:52:03.466
212.0, -35427.559665150606, -29836.315493144455, -38363.23778191063, -35711.2256540329, -53477.375623866996, 187500.0, -36632.63161571403, -38126.44340115111, 0.778, -0.654, 0.094, 192.0, 0.0, 0.0, 0.0, 0.0, 0.0, 0.0, 0.0, 0.0, 0.0, 1.6635919234708536E9, 0.0, 2022-09-19 17:52:03.470
213.0, -35407.845426541026, -29832.47099309814, -38346.92100845826, -35730.62696822012, -53482.71769079181, 187500.0, -36446.93332277934, -38157.422918966164, 0.778, -0.654, 0.094, 192.0, 0.0, 0.0, 0.0, 0.0, 0.0, 0.0, 0.0, 0.0, 0.0, 1.663591923474782E9, 0.0, 2022-09-19 17:52:03.474
214.0, -35414.72976383326, -29846.61964733835, -38364.91416274478, -35757.27024761084, -53511.46203416133, 187500.0, -36328.80435333304, -38178.92529713217, 0.778, -0.654, 0.094, 192.0, 0.0, 0.0, 0.0, 0.0, 0.0, 0.0, 0.0, 0.0, 0.0, 1.663591923478814E9, 0.0, 2022-09-19 17:52:03.478
215.0, -35442.647092657935, -29852.296990429997, -38400.34167770644, -35736.79604968978, -53520.223917987816, 187500.0, -36590.74444660478, -38145.196514749114, 0.778, -0.654, 0.094, 192.0, 0.0, 0.0, 0.0, 0.0, 0.0, 0.0, 0.0, 0.0, 0.0, 1.6635919234828093E9, 0.0, 2022-09-19 17:52:03.482
216.0, -35427.64907212843, -29829.18528666321, -38380.91801177478, -35707.44820921996, -53491.79249904067, 187500.0, -36736.813096620215, -38114.01583123396, 0.778, -0.654, 0.094, 192.0, 0.0, 0.0, 0.0, 0.0, 0.0, 0.0, 0.0, 0.0, 0.0, 1.6635919234878716E9, 0.0, 2022-09-19 17:52:03.487
217.0, -35397.92125200287, -29816.75771674606, -38365.137680189335, -35708.945776098466, -53483.522353592205, 187500.0, -36639.67241521745, -38119.42495339215, 0.778, -0.654, 0.094, 192.0, 0.0, 0.0, 0.0, 0.0, 0.0, 0.0, 0.0, 0.0, 0.0, 1.663591923490782E9, 0.0, 2022-09-19 17:52:03.490
218.0, -35391.37219087746, -29825.81017325046, -38358.432156852745, -35735.65611072256, -53495.2793711757, 187500.0, -36449.7049390918, -38151.87968634125, 0.778, -0.654, 0.094, 192.0, 0.0, 0.0, 0.0, 0.0, 0.0, 0.0, 0.0, 0.0, 0.0, 1.6635919234948463E9, 0.0, 2022-09-19 17:52:03.494
219.0, -35405.54319686213, -29843.423347881242, -38370.72561630316, -35760.667712768045, -53522.41438894444, 187500.0, -36330.9724725452, -38178.32180003188, 0.778, -0.654, 0.094, 192.0, 0.0, 0.0, 0.0, 0.0, 0.0, 0.0, 0.0, 0.0, 0.0, 1.6635919234988444E9, 0.0, 2022-09-19 17:52:03.498
220.0, -35436.612121655, -29851.268810185054, -38405.348468464435, -35740.86406718064, -53530.55042392617, 187500.0, -36592.51023441675, -38148.07988978385, 0.776, -0.658, 0.094, 192.0, 24.0, 64.0, 235.0, 112.0, 2.0, 240.0, 0.0, 0.0, 0.0, 1.6635919235028567E9, 0.0, 2022-09-19 17:52:03.502
221.0, -35422.68698485935, -29833.09684194289, -38390.01517176809, -35713.86315987863, -53501.96254276783, 187500.0, -36733.21446576291, -38118.97791850304, 0.776, -0.658, 0.094, 192.0, 0.0, 0.0, 0.0, 0.0, 0.0, 0.0, 0.0, 0.0, 0.0, 1.6635919235068295E9, 0.0, 2022-09-19 17:52:03.506
222.0, -35406.638432340435, -29826.436022095208, -38371.709093059195, -35719.764020414834, -53492.5748100966, 187500.0, -36634.37505178154, -38128.11978198526, 0.776, -0.658, 0.094, 192.0, 0.0, 0.0, 0.0, 0.0, 0.0, 0.0, 0.0, 0.0, 0.0, 1.66359192351185E9, 0.0, 2022-09-19 17:52:03.511
223.0, -35387.706504786795, -29827.66536804025, -38351.27959862704, -35742.47339278142, -53495.97227525381, 187500.0, -36442.32886342154, -38154.11486078678, 0.776, -0.658, 0.094, 192.0, 0.0, 0.0, 0.0, 0.0, 0.0, 0.0, 0.0, 0.0, 0.0, 1.6635919235158286E9, 0.0, 2022-09-19 17:52:03.515
224.0, -35407.89013002993, -29851.76054856307, -38367.64107556833, -35773.72113152994, -53524.31428722314, 187500.0, -36332.20181849025, -38184.356771034814, 0.776, -0.658, 0.094, 192.0, 0.0, 0.0, 0.0, 0.0, 0.0, 0.0, 0.0, 0.0, 0.0, 1.6635919235188355E9, 0.0, 2022-09-19 17:52:03.518
225.0, -35450.67136891739, -29867.697342359705, -38409.93057607777, -35759.8406982232, -53539.17819728592, 187500.0, -36602.85909209956, -38159.322817244865, 0.776, -0.658, 0.094, 192.0, 0.0, 0.0, 0.0, 0.0, 0.0, 0.0, 0.0, 0.0, 0.0, 1.6635919235228736E9, 0.0, 2022-09-19 17:52:03.522
226.0, -35431.85120008602, -29840.47291761314, -38389.72459909017, -35721.77567741581, -53504.912973035935, 187500.0, -36740.63524492207, -38123.26945343846, 0.776, -0.658, 0.094, 192.0, 0.0, 0.0, 0.0, 0.0, 0.0, 0.0, 0.0, 0.0, 0.0, 1.663591923526855E9, 0.0, 2022-09-19 17:52:03.526
227.0, -35404.827941039555, -29819.46227782515, -38363.796575522014, -35714.176084301005, -53484.01409197022, 187500.0, -36638.10779310558, -38121.66012783768, 0.776, -0.658, 0.094, 192.0, 0.0, 0.0, 0.0, 0.0, 0.0, 0.0, 0.0, 0.0, 0.0, 1.6635919235308695E9, 0.0, 2022-09-19 17:52:03.530
228.0, -35390.29930714361, -29820.401051092274, -38349.82673523745, -35735.20907583345, -53487.52331584971, 187500.0, -36440.6524825874, -38142.84958158131, 0.776, -0.658, 0.094, 192.0, 0.0, 0.0, 0.0, 0.0, 0.0, 0.0, 0.0, 0.0, 0.0, 1.663591923534896E9, 0.0, 2022-09-19 17:52:03.534
229.0, -35411.44405739833, -29845.18913569321, -38372.84903202642, -35765.89802097059, -53518.14520575348, 187500.0, -36329.72077485571, -38174.432596496656, 0.776, -0.658, 0.094, 192.0, 0.0, 0.0, 0.0, 0.0, 0.0, 0.0, 0.0, 0.0, 0.0, 1.6635919235398808E9, 0.0, 2022-09-19 17:52:03.539
230.0, -35428.56549365109, -29848.72071131715, -38399.69347711724, -35738.49478226838, -53520.17921449891, 187500.0, -36591.16912974943, -38138.73686060153, 0.776, -0.664, 0.098, 192.0, 24.0, 64.0, 235.0, 64.0, 3.0, 16.0, 0.0, 0.0, 0.0, 1.663591923543866E9, 0.0, 2022-09-19 17:52:03.543
231.0, -35414.32743243306, -29824.580827305417, -38379.93453501875, -35707.58231968669, -53488.03740597217, 187500.0, -36723.44675343594, -38105.11983694075, 0.776, -0.664, 0.098, 192.0, 0.0, 0.0, 0.0, 0.0, 0.0, 0.0, 0.0, 0.0, 0.0, 1.6635919235468967E9, 0.0, 2022-09-19 17:52:03.546
232.0, -35404.1573887059, -29821.540990059497, -38362.54487783252, -35716.2324447909, -53483.522353592205, 187500.0, -36629.39061276801, -38118.843808036305, 0.776, -0.664, 0.098, 192.0, 0.0, 0.0, 0.0, 0.0, 0.0, 0.0, 0.0, 0.0, 0.0, 1.6635919235509033E9, 0.0, 2022-09-19 17:52:03.550
233.0, -35396.446036868816, -29828.917065729747, -38350.027900937544, -35740.23821833589, -53491.21135368483, 187500.0, -36435.77980229614, -38153.46666019758, 0.776, -0.664, 0.098, 192.0, 0.0, 0.0, 0.0, 0.0, 0.0, 0.0, 0.0, 0.0, 0.0, 1.6635919235548854E9, 0.0, 2022-09-19 17:52:03.554
234.0, -35406.75019106271, -29849.3465601619, -38368.24457266862, -35768.848451238686, -53522.21322324434, 187500.0, -36330.346623700454, -38185.58611697985, 0.776, -0.664, 0.098, 192.0, 0.0, 0.0, 0.0, 0.0, 0.0, 0.0, 0.0, 0.0, 0.0, 1.6635919235588913E9, 0.0, 2022-09-19 17:52:03.558
235.0, -35433.549932664624, -29851.067644484956, -38400.54284340654, -35740.21586659144, -53527.26471749124, 187500.0, -36594.63365014001, -38147.49874442801, 0.776, -0.664, 0.098, 192.0, 0.0, 0.0, 0.0, 0.0, 0.0, 0.0, 0.0, 0.0, 0.0, 1.6635919235629036E9, 0.0, 2022-09-19 17:52:03.562
236.0, -35422.28465345915, -29827.888885484805, -38379.64396234083, -35708.34227899817, -53490.33963565107, 187500.0, -36721.09982026814, -38108.293784653404, 0.776, -0.664, 0.098, 192.0, 0.0, 0.0, 0.0, 0.0, 0.0, 0.0, 0.0, 0.0, 0.0, 1.6635919235668988E9, 0.0, 2022-09-19 17:52:03.566
237.0, -35396.803664780105, -29820.602216792373, -38356.57696206295, -35712.18677904449, -53479.811964012624, 187500.0, -36621.7910196532, -38114.70873531207, 0.776, -0.664, 0.098, 192.0, 0.0, 0.0, 0.0, 0.0, 0.0, 0.0, 0.0, 0.0, 0.0, 1.66359192357192E9, 0.0, 2022-09-19 17:52:03.571
238.0, -35391.01456296618, -29827.777126762525, -38349.64792128181, -35740.64054973609, -53489.333807150586, 187500.0, -36430.52714234914, -38151.902038085704, 0.776, -0.664, 0.098, 192.0, 0.0, 0.0, 0.0, 0.0, 0.0, 0.0, 0.0, 0.0, 0.0, 1.6635919235749128E9, 0.0, 2022-09-19 17:52:03.574
239.0, -35396.96012699129, -29841.29993215799, -38365.96469473418, -35759.23720112291, -53510.32209519412, 187500.0, -36328.37967018839, -38174.45494824111, 0.776, -0.664, 0.098, 192.0, 0.0, 0.0, 0.0, 0.0, 0.0, 0.0, 0.0, 0.0, 0.0, 1.6635919235789185E9, 0.0, 2022-09-19 17:52:03.578
240.0, -35431.62768264147, -29849.033635739524, -38393.8596718144, -35733.97972988841, -53515.70886560785, 187500.0, -36601.67444964343, -38139.22859897955, 0.774, -0.668, 0.096, 192.0, 24.0, 48.0, 235.0, 32.0, 3.0, 0.0, 0.0, 0.0, 0.0, 1.6635919235829685E9, 0.0, 2022-09-19 17:52:03.582
241.0, -35423.849275571025, -29833.1415454318, -38377.27467742857, -35713.30436626725, -53493.13360370798, 187500.0, -36728.85587559413, -38119.80493304788, 0.774, -0.668, 0.096, 192.0, 0.0, 0.0, 0.0, 0.0, 0.0, 0.0, 0.0, 0.0, 0.0, 1.6635919235870214E9, 0.0, 2022-09-19 17:52:03.587
242.0, -35401.94456600482, -29822.725632515627, -38364.221258666665, -35721.90978788254, -53490.56315309562, 187500.0, -36626.082554588625, -38132.67953785414, 0.774, -0.668, 0.096, 192.0, 0.0, 0.0, 0.0, 0.0, 0.0, 0.0, 0.0, 0.0, 0.0, 1.6635919235909305E9, 0.0, 2022-09-19 17:52:03.590
243.0, -35385.24781289671, -29822.077431926424, -38354.16297366178, -35742.27222708133, -53493.91591476392, 187500.0, -36425.788572524616, -38153.734881131044, 0.774, -0.668, 0.096, 192.0, 0.0, 0.0, 0.0, 0.0, 0.0, 0.0, 0.0, 0.0, 0.0, 1.663591923594986E9, 0.0, 2022-09-19 17:52:03.594
244.0, -35403.084504972045, -29846.150260704788, -38370.83737502544, -35764.0428261808, -53519.44160693188, 187500.0, -36334.30288246905, -38172.264477284494, 0.774, -0.668, 0.096, 192.0, 0.0, 0.0, 0.0, 0.0, 0.0, 0.0, 0.0, 0.0, 0.0, 1.6635919235999427E9, 0.0, 2022-09-19 17:52:03.599
245.0, -35433.75109836472, -29855.068606742458, -38402.062762029505, -35739.701776468966, -53522.459092433346, 187500.0, -36609.788132880705, -38139.541523401924, 0.774, -0.668, 0.096, 192.0, 0.0, 0.0, 0.0, 0.0, 0.0, 0.0, 0.0, 0.0, 0.0, 1.6635919236029775E9, 0.0, 2022-09-19 17:52:03.602
246.0, -35424.3633656935, -29836.650769311284, -38384.69545658773, -35716.36655525763, -53494.16178395293, 187500.0, -36733.32622448519, -38116.22865393504, 0.774, -0.668, 0.096, 192.0, 0.0, 0.0, 0.0, 0.0, 0.0, 0.0, 0.0, 0.0, 0.0, 1.663591923607E9, 0.0, 2022-09-19 17:52:03.607
247.0, -35401.78810379364, -29823.507943571563, -38365.02592146706, -35718.06528783623, -53487.14333619396, 187500.0, -36628.67535694544, -38125.52697962844, 0.774, -0.668, 0.096, 192.0, 0.0, 0.0, 0.0, 0.0, 0.0, 0.0, 0.0, 0.0, 0.0, 1.6635919236110127E9, 0.0, 2022-09-19 17:52:03.611
248.0, -35392.57918507805, -29826.056042439468, -38349.35734860389, -35738.45007877947, -53495.25701943124, 187500.0, -36432.53879935012, -38152.43847995263, 0.774, -0.668, 0.096, 192.0, 0.0, 0.0, 0.0, 0.0, 0.0, 0.0, 0.0, 0.0, 0.0, 1.6635919236150153E9, 0.0, 2022-09-19 17:52:03.615
249.0, -35425.63741512745, -29857.72846433264, -38377.07351172847, -35772.201212906984, -53534.46197920585, 187500.0, -36351.29020825508, -38189.78824493745, 0.774, -0.668, 0.096, 192.0, 0.0, 0.0, 0.0, 0.0, 0.0, 0.0, 0.0, 0.0, 0.0, 1.6635919236190183E9, 0.0, 2022-09-19 17:52:03.619
250.0, -35435.15925826541, -29854.66627534226, -38406.734276620664, -35737.06427062324, -53534.37257222803, 187500.0, -36616.20308353938, -38147.49874442801, 0.78, -0.664, 0.098, 192.0, 24.0, 96.0, 235.0, 64.0, 3.0, 16.0, 0.0, 0.0, 0.0, 1.663591923623059E9, 0.0, 2022-09-19 17:52:03.623
251.0, -35409.790028308635, -29826.65953953976, -38383.242593198134, -35702.7766946288, -53496.59812409856, 187500.0, -36726.79951510424, -38108.74081954251, 0.78, -0.664, 0.098, 192.0, 0.0, 0.0, 0.0, 0.0, 0.0, 0.0, 0.0, 0.0, 0.0, 1.6635919236280215E9, 0.0, 2022-09-19 17:52:03.628
252.0, -35399.21765318127, -29819.14935340278, -38365.294142400526, -35713.147904056066, -53485.98104548229, 187500.0, -36624.87556038804, -38120.92252027065, 0.78, -0.664, 0.098, 192.0, 0.0, 0.0, 0.0, 0.0, 0.0, 0.0, 0.0, 0.0, 0.0, 1.6635919236310463E9, 0.0, 2022-09-19 17:52:03.631
253.0, -35391.9533362333, -29827.15127791778, -38356.822831251964, -35741.55697125876, -53493.46887987482, 187500.0, -36428.31431964807, -38150.53858167393, 0.78, -0.664, 0.098, 192.0, 0.0, 0.0, 0.0, 0.0, 0.0, 0.0, 0.0, 0.0, 0.0, 1.6635919236350524E9, 0.0, 2022-09-19 17:52:03.635
254.0, -35402.23513868274, -29846.03850198251, -38378.39226465133, -35768.22260239394, -53522.34733371107, 187500.0, -36340.33785347198, -38175.0137418525, 0.78, -0.664, 0.098, 192.0, 0.0, 0.0, 0.0, 0.0, 0.0, 0.0, 0.0, 0.0, 0.0, 1.66359192363904E9, 0.0, 2022-09-19 17:52:03.639
255.0, -35433.706394875815, -29849.72653981764, -38409.103561532924, -35746.966093416944, -53525.633040146, 187500.0, -36616.985394595315, -38146.13528801624, 0.78, -0.664, 0.098, 192.0, 0.0, 0.0, 0.0, 0.0, 0.0, 0.0, 0.0, 0.0, 0.0, 1.6635919236430638E9, 0.0, 2022-09-19 17:52:03.643
0.0, -35418.61896736848, -29828.291216884998, -38387.35531417791, -35720.14400007058, -53497.80511829915, 187500.0, -36725.838390092664, -38124.63290985023, 0.78, -0.664, 0.098, 192.0, 0.0, 0.0, 0.0, 0.0, 0.0, 0.0, 0.0, 0.0, 0.0, 1.663591923647143E9, 0.0, 2022-09-19 17:52:03.647
1.0, -35403.084504972045, -29823.083260426913, -38375.9559245057, -35727.341261785186, -53498.25215318825, 187500.0, -36623.2438830428, -38132.23250296504, 0.78, -0.664, 0.098, 192.0, 0.0, 0.0, 0.0, 0.0, 0.0, 0.0, 0.0, 0.0, 0.0, 1.6635919236510768E9, 0.0, 2022-09-19 17:52:03.651
2.0, -35395.596670579514, -29830.81696400845, -38362.54487783252, -35747.01079690585, -53505.315304436124, 187500.0, -36420.401802110886, -38154.47248869807, 0.78, -0.664, 0.098, 192.0, 0.0, 0.0, 0.0, 0.0, 0.0, 0.0, 0.0, 0.0, 0.0, 1.66359192365506E9, 0.0, 2022-09-19 17:52:03.655
3.0, -35413.03103125466, -29850.10651947338, -38384.44958739872, -35766.72503551543, -53532.62913616051, 187500.0, -36336.69451912576, -38175.23725929705, 0.78, -0.664, 0.098, 192.0, 0.0, 0.0, 0.0, 0.0, 0.0, 0.0, 0.0, 0.0, 0.0, 1.6635919236591327E9, 0.0, 2022-09-19 17:52:03.659
4.0, -35436.612121655, -29853.593391608407, -38411.38343946737, -35736.974863645424, -53529.790464614685, 187500.0, -36613.65498467148, -38136.21111347808, 0.78, -0.662, 0.098, 192.0, 24.0, 96.0, 235.0, 80.0, 3.0, 16.0, 0.0, 0.0, 0.0, 1.6635919236621027E9, 0.0, 2022-09-19 17:52:03.662
5.0, -35417.210807467796, -29827.799478506982, -38384.226069954166, -35706.93411909749, -53489.937304250874, 187500.0, -36710.59450037414, -38105.83509276332, 0.78, -0.662, 0.098, 192.0, 0.0, 0.0, 0.0, 0.0, 0.0, 0.0, 0.0, 0.0, 0.0, 1.6635919236670544E9, 0.0, 2022-09-19 17:52:03.667
6.0, -35411.57816786506, -29825.85487673937, -38371.88790701484, -35722.02154660482, -53492.28423741868, 187500.0, -36614.258481771765, -38128.47740989654, 0.78, -0.662, 0.098, 192.0, 0.0, 0.0, 0.0, 0.0, 0.0, 0.0, 0.0, 0.0, 0.0, 1.6635919236711068E9, 0.0, 2022-09-19 17:52:03.671
7.0, -35399.68703981484, -29831.86749599785, -38361.06966269847, -35746.3849480611, -53498.31920842161, 187500.0, -36416.624357297944, -38158.65226491121, 0.78, -0.662, 0.098, 192.0, 0.0, 0.0, 0.0, 0.0, 0.0, 0.0, 0.0, 0.0, 0.0, 1.6635919236750903E9, 0.0, 2022-09-19 17:52:03.675
8.0, -35406.77254280717, -29846.1949641937, -38377.67700882876, -35760.28773311231, -53521.609726144045, 187500.0, -36332.40298419035, -38174.298486029926, 0.78, -0.662, 0.098, 192.0, 0.0, 0.0, 0.0, 0.0, 0.0, 0.0, 0.0, 0.0, 0.0, 1.6635919236790836E9, 0.0, 2022-09-19 17:52:03.679
9.0, -35425.0115662827, -29847.558420605474, -38407.583642909965, -35732.0351281208, -53522.92847906691, 187500.0, -36611.08453405911, -38137.01577627847, 0.78, -0.662, 0.098, 192.0, 0.0, 0.0, 0.0, 0.0, 0.0, 0.0, 0.0, 0.0, 0.0, 1.6635919236830869E9, 0.0, 2022-09-19 17:52:03.683
10.0, -35415.601481867016, -29828.0900511849, -38386.528299633064, -35707.93994759797, -53491.546629851655, 187500.0, -36717.81411383321, -38107.98086023103, 0.78, -0.662, 0.098, 192.0, 0.0, 0.0, 0.0, 0.0, 0.0, 0.0, 0.0, 0.0, 0.0, 1.6635919236871312E9, 0.0, 2022-09-19 17:52:03.687
11.0, -35402.883339271946, -29820.870437725836, -38367.797537779516, -35714.22078778992, -53482.874153003, 187500.0, -36615.89015911701, -38118.91086326967, 0.78, -0.662, 0.098, 192.0, 0.0, 0.0, 0.0, 0.0, 0.0, 0.0, 0.0, 0.0, 0.0, 1.6635919236901357E9, 0.0, 2022-09-19 17:52:03.690
12.0, -35391.685115299835, -29823.2397226381, -38353.38066260584, -35732.50451475436, -53485.86928676001, 187500.0, -36413.31629911856, -38147.230523494545, 0.78, -0.662, 0.098, 192.0, 0.0, 0.0, 0.0, 0.0, 0.0, 0.0, 0.0, 0.0, 0.0, 1.6635919236951618E9, 0.0, 2022-09-19 17:52:03.695
13.0, -35402.10102821601, -29838.327150145433, -38370.390340136335, -35752.50932604186, -53510.992647527775, 187500.0, -36336.13572551438, -38165.78247139245, 0.78, -0.662, 0.098, 192.0, 0.0, 0.0, 0.0, 0.0, 0.0, 0.0, 0.0, 0.0, 0.0, 1.6635919236991343E9, 0.0, 2022-09-19 17:52:03.699
14.0, -35431.314758219094, -29845.412653137762, -38406.28724173156, -35728.97293913042, -53514.12189175152, 187500.0, -36617.901816117985, -38127.58334011833, 0.778, -0.66, 0.10400000000000001, 192.0, 24.0, 80.0, 235.0, 96.0, 3.0, 64.0, 0.0, 0.0, 0.0, 1.663591923703157E9, 0.0, 2022-09-19 17:52:03.703
15.0, -35414.126266732965, -29825.877228483827, -38382.03559899755, -35702.91080509553, -53480.70603379083, 187500.0, -36714.12607599808, -38102.5940898173, 0.778, -0.66, 0.10400000000000001, 192.0, 0.0, 0.0, 0.0, 0.0, 0.0, 0.0, 0.0, 0.0, 0.0, 1.6635919237071545E9, 0.0, 2022-09-19 17:52:03.707
16.0, -35397.071885713565, -29817.160048146256, -38365.54001158953, -35709.571624943215, -53476.90623723343, 187500.0, -36608.4917317023, -38115.31223241237, 0.778, -0.66, 0.10400000000000001, 192.0, 0.0, 0.0, 0.0, 0.0, 0.0, 0.0, 0.0, 0.0, 0.0, 1.6635919237101536E9, 0.0, 2022-09-19 17:52:03.710
17.0, -35385.404275107896, -29822.122135415335, -38354.56530506197, -35731.811610676246, -53485.891638504465, 187500.0, -36402.721572246744, -38149.37629096226, 0.778, -0.66, 0.10400000000000001, 192.0, 0.0, 0.0, 0.0, 0.0, 0.0, 0.0, 0.0, 0.0, 0.0, 1.663591923714208E9, 0.0, 2022-09-19 17:52:03.714
18.0, -35397.96595549178, -29835.354368132877, -38370.032712225046, -35744.730918971414, -53506.96933352582, 187500.0, -36331.62067313441, -38162.72028240207, 0.778, -0.66, 0.10400000000000001, 192.0, 0.0, 0.0, 0.0, 0.0, 0.0, 0.0, 0.0, 0.0, 0.0, 1.6635919237181592E9, 0.0, 2022-09-19 17:52:03.718
19.0, -35430.44304018534, -29840.987007735614, -38397.05597127151, -35714.600767445656, -53505.896449791966, 187500.0, -36623.355641765076, -38118.75440105848, 0.778, -0.66, 0.10400000000000001, 192.0, 0.0, 0.0, 0.0, 0.0, 0.0, 0.0, 0.0, 0.0, 0.0, 1.6635919237231832E9, 0.0, 2022-09-19 17:52:03.723
20.0, -35411.48876088724, -29819.37287084733, -38373.89956401582, -35692.69605787946, -53474.64871104345, 187500.0, -36718.015279533305, -38095.35212461378, 0.778, -0.66, 0.10400000000000001, 192.0, 0.0, 0.0, 0.0, 0.0, 0.0, 0.0, 0.0, 0.0, 0.0, 1.6635919237271638E9, 0.0, 2022-09-19 17:52:03.727
21.0, -35396.73660954674, -29813.09203065539, -38358.298046386015, -35700.474464949904, -53469.48545807427, 187500.0, -36608.84935961358, -38103.77873227343, 0.778, -0.66, 0.10400000000000001, 192.0, 0.0, 0.0, 0.0, 0.0, 0.0, 0.0, 0.0, 0.0, 0.0, 1.6635919237312124E9, 0.0, 2022-09-19 17:52:03.731
22.0, -35393.58501357854, -29818.881132469316, -38350.29612187101, -35727.22950306291, -53483.12002219201, 187500.0, -36408.175397893836, -38134.28886345492, 0.778, -0.66, 0.10400000000000001, 192.0, 0.0, 0.0, 0.0, 0.0, 0.0, 0.0, 0.0, 0.0, 0.0, 1.663591923735258E9, 0.0, 2022-09-19 17:52:03.735
23.0, -35409.14182771943, -29840.383510635318, -38375.73240706115, -35750.69883474098, -53514.09954000706, 187500.0, -36346.86456285293, -38159.50163120051, 0.778, -0.66, 0.10400000000000001, 192.0, 0.0, 0.0, 0.0, 0.0, 0.0, 0.0, 0.0, 0.0, 0.0, 1.6635919237382083E9, 0.0, 2022-09-19 17:52:03.738
24.0, -35431.20299949682, -29845.211487437668, -38404.61086089741, -35725.97780537341, -53517.74287435328, 187500.0, -36632.60926396958, -38130.98080527554, 0.78, -0.666, 0.10400000000000001, 192.0, 24.0, 96.0, 235.0, 48.0, 3.0, 64.0, 0.0, 0.0, 0.0, 1.663591923742256E9, 0.0, 2022-09-19 17:52:03.742
25.0, -35404.09033347253, -29816.24362662359, -38376.13473846135, -35692.8748718351, -53483.00826346973, 187500.0, -36715.80245683223, -38100.15774967167, 0.78, -0.666, 0.10400000000000001, 192.0, 0.0, 0.0, 0.0, 0.0, 0.0, 0.0, 0.0, 0.0, 0.0, 1.6635919237462132E9, 0.0, 2022-09-19 17:52:03.746
26.0, -35383.41496985137, -29804.978347418113, -38353.69358702822, -35697.23346200388, -53475.0733941881, 187500.0, -36599.77455136473, -38107.28795615291, 0.78, -0.666, 0.10400000000000001, 192.0, 0.0, 0.0, 0.0, 0.0, 0.0, 0.0, 0.0, 0.0, 0.0, 1.663591923750212E9, 0.0, 2022-09-19 17:52:03.750
27.0, -35394.68024905685, -29823.32912961592, -38353.045386439015, -35738.36067180165, -53498.92270552191, 187500.0, -36402.02866816863, -38151.47735494105, 0.78, -0.666, 0.10400000000000001, 192.0, 0.0, 0.0, 0.0, 0.0, 0.0, 0.0, 0.0, 0.0, 0.0, 1.6635919237553372E9, 0.0, 2022-09-19 17:52:03.755
28.0, -35411.51111263169, -29840.987007735614, -38370.41269188079, -35757.56082028876, -53526.05772329065, 187500.0, -36342.90830408434, -38168.37527374927, 0.78, -0.666, 0.10400000000000001, 192.0, 0.0, 0.0, 0.0, 0.0, 0.0, 0.0, 0.0, 0.0, 0.0, 1.6635919237592604E9, 0.0, 2022-09-19 17:52:03.759
29.0, -35427.693775617336, -29839.154164690277, -38393.390285180845, -35726.335433284694, -53520.69330462138, 187500.0, -36624.83085689913, -38131.31608144237, 0.78, -0.666, 0.10400000000000001, 192.0, 0.0, 0.0, 0.0, 0.0, 0.0, 0.0, 0.0, 0.0, 0.0, 1.663591923763338E9, 0.0, 2022-09-19 17:52:03.763
30.0, -35405.811417795594, -29818.165876646744, -38378.48167162915, -35703.60370917365, -53496.665179331925, 187500.0, -36709.99100327385, -38109.18785443161, 0.78, -0.666, 0.10400000000000001, 192.0, 0.0, 0.0, 0.0, 0.0, 0.0, 0.0, 0.0, 0.0, 0.0, 1.6635919237663572E9, 0.0, 2022-09-19 17:52:03.766
31.0, -35388.824092009556, -29812.66734751074, -38361.650808054306, -35708.54344469827, -53489.64673157296, 187500.0, -36599.12635077552, -38114.77579054544, 0.78, -0.666, 0.10400000000000001, 192.0, 0.0, 0.0, 0.0, 0.0, 0.0, 0.0, 0.0, 0.0, 0.0, 1.6635919237702465E9, 0.0, 2022-09-19 17:52:03.770
32.0, -35371.43443482333, -29814.76841148954, -38352.21837189417, -35734.71733745543, -53498.94505726636, 187500.0, -36388.30469707307, -38148.5045729285, 0.78, -0.666, 0.10400000000000001, 192.0, 0.0, 0.0, 0.0, 0.0, 0.0, 0.0, 0.0, 0.0, 0.0, 1.6635919237743115E9, 0.0, 2022-09-19 17:52:03.774
33.0, -35384.8007780076, -29829.38645236331, -38374.100729715916, -35750.09533764068, -53520.76035985474, 187500.0, -36328.87140856641, -38166.43067198165, 0.78, -0.666, 0.10400000000000001, 192.0, 0.0, 0.0, 0.0, 0.0, 0.0, 0.0, 0.0, 0.0, 0.0, 1.66359192377827E9, 0.0, 2022-09-19 17:52:03.778
34.0, -35414.57330162207, -29834.95203673268, -38401.03458178456, -35719.24993029236, -53511.909069050445, 187500.0, -36620.695784174895, -38123.15769471618, 0.78, -0.666, 0.10400000000000001, 192.0, 0.0, 0.0, 0.0, 0.0, 0.0, 0.0, 0.0, 0.0, 0.0, 1.6635919237833116E9, 0.0, 2022-09-19 17:52:03.783
35.0, -35401.29636541562, -29821.51863831504, -38373.83250878245, -35694.52890092479, -53474.93928372137, 187500.0, -36705.94533752744, -38091.88760422321, 0.78, -0.662, 0.096, 192.0, 24.0, 96.0, 235.0, 80.0, 3.0, 0.0, 0.0, 0.0, 0.0, 1.663591923787321E9, 0.0, 2022-09-19 17:52:03.787
36.0, -35380.10691167199, -29813.1367341443, -38353.85004923941, -35699.89331959406, -53465.685661516865, 187500.0, -36593.58311815061, -38106.30447939688, 0.78, -0.662, 0.096, 192.0, 0.0, 0.0, 0.0, 0.0, 0.0, 0.0, 0.0, 0.0, 0.0, 1.663591923791277E9, 0.0, 2022-09-19 17:52:03.791
37.0, -35364.72891148674, -29810.72274574313, -38339.81315372147, -35722.133305327094, -53474.693414532354, 187500.0, -36388.10353137297, -38140.25677922449, 0.78, -0.662, 0.096, 192.0, 0.0, 0.0, 0.0, 0.0, 0.0, 0.0, 0.0, 0.0, 0.0, 1.66359192379435E9, 0.0, 2022-09-19 17:52:03.794
38.0, -35394.09910370101, -29836.9413419892, -38365.36119763389, -35739.142982857586, -53503.504813135245, 187500.0, -36341.50014418366, -38153.33254973085, 0.78, -0.662, 0.096, 192.0, 0.0, 0.0, 0.0, 0.0, 0.0, 0.0, 0.0, 0.0, 0.0, 1.6635919237982907E9, 0.0, 2022-09-19 17:52:03.798
39.0, -35426.33031920556, -29847.200792694188, -38394.12789274787, -35713.773752900815, -53503.05777824614, 187500.0, -36632.095173847105, -38113.747610300496, 0.78, -0.662, 0.096, 192.0, 0.0, 0.0, 0.0, 0.0, 0.0, 0.0, 0.0, 0.0, 0.0, 1.6635919238023157E9, 0.0, 2022-09-19 17:52:03.802
40.0, -35408.67244108587, -29826.95011221768, -38370.16682269178, -35696.16057827003, -53474.40284185444, 187500.0, -36710.37098292959, -38093.049894934884, 0.78, -0.662, 0.096, 192.0, 0.0, 0.0, 0.0, 0.0, 0.0, 0.0, 0.0, 0.0, 0.0, 1.6635919238063743E9, 0.0, 2022-09-19 17:52:03.806
41.0, -35390.075789699054, -29806.36415557434, -38351.078432926945, -35697.41227595953, -53462.8693417155, 187500.0, -36596.06416178515, -38101.029467705426, 0.78, -0.662, 0.096, 192.0, 0.0, 0.0, 0.0, 0.0, 0.0, 0.0, 0.0, 0.0, 0.0, 1.6635919238113017E9, 0.0, 2022-09-19 17:52:03.811
42.0, -35387.01360070868, -29812.33207134391, -38344.32820610145, -35724.055555350256, -53472.72646102029, 187500.0, -36388.90819417336, -38133.21597972107, 0.78, -0.662, 0.096, 192.0, 0.0, 0.0, 0.0, 0.0, 0.0, 0.0, 0.0, 0.0, 0.0, 1.6635919238153813E9, 0.0, 2022-09-19 17:52:03.815
43.0, -35389.315830387575, -29835.66729255525, -38373.184308193246, -35750.184744618506, -53509.60683937155, 187500.0, -36342.26010349514, -38160.32864574536, 0.78, -0.662, 0.096, 192.0, 0.0, 0.0, 0.0, 0.0, 0.0, 0.0, 0.0, 0.0, 0.0, 1.663591923819368E9, 0.0, 2022-09-19 17:52:03.819
44.0, -35417.903711545914, -29842.015187980556, -38401.74983760713, -35723.206189060955, -53506.723464336814, 187500.0, -36632.18458082493, -38120.9001685262, 0.78, -0.662, 0.096, 192.0, 0.0, 0.0, 0.0, 0.0, 0.0, 0.0, 0.0, 0.0, 0.0, 1.6635919238223517E9, 0.0, 2022-09-19 17:52:03.822
45.0, -35402.793932294124, -29823.32912961592, -38378.74989256262, -35702.73199113989, -53477.219161655805, 187500.0, -36708.53813988425, -38096.24619439199, 0.782, -0.662, 0.082, 192.0, 24.0, 112.0, 235.0, 80.0, 2.0, 144.0, 0.0, 0.0, 0.0, 1.6635919238263595E9, 0.0, 2022-09-19 17:52:03.826
46.0, -35389.606403065496, -29816.71301325715, -38364.17655517776, -35712.90203486705, -53471.564170308615, 187500.0, -36595.19244375139, -38109.32196489834, 0.782, -0.662, 0.082, 192.0, 0.0, 0.0, 0.0, 0.0, 0.0, 0.0, 0.0, 0.0, 0.0, 1.663591923830376E9, 0.0, 2022-09-19 17:52:03.830
47.0, -35376.597687792506, -29817.405917335265, -38349.67027302626, -35731.811610676246, -53475.45337384384, 187500.0, -36383.05203712607, -38135.80878207788, 0.782, -0.662, 0.082, 192.0, 0.0, 0.0, 0.0, 0.0, 0.0, 0.0, 0.0, 0.0, 0.0, 1.6635919238344786E9, 0.0, 2022-09-19 17:52:03.834
48.0, -35408.78419980815, -29840.361158890864, -38374.07837797146, -35744.06036663775, -53500.04029274468, 187500.0, -36346.171658774816, -38138.33452920133, 0.782, -0.662, 0.082, 192.0, 0.0, 0.0, 0.0, 0.0, 0.0, 0.0, 0.0, 0.0, 0.0, 1.6635919238394277E9, 0.0, 2022-09-19 17:52:03.839
49.0, -35436.075679788075, -29847.200792694188, -38404.767323108594, -35718.89230238108, -53500.06264448913, 187500.0, -36639.67241521745, -38103.71167704006, 0.782, -0.662, 0.082, 192.0, 0.0, 0.0, 0.0, 0.0, 0.0, 0.0, 0.0, 0.0, 0.0, 1.6635919238435628E9, 0.0, 2022-09-19 17:52:03.843
50.0, -35400.44699912632, -29819.50698131406, -38379.37574140737, -35698.105180037644, -53470.62539704149, 187500.0, -36705.09597123814, -38087.618421032246, 0.782, -0.662, 0.082, 192.0, 0.0, 0.0, 0.0, 0.0, 0.0, 0.0, 0.0, 0.0, 0.0, 1.663591923847509E9, 0.0, 2022-09-19 17:52:03.847
51.0, -35393.31679264508, -29816.71301325715, -38364.1542034333, -35707.671726664514, -53467.786725495665, 187500.0, -36594.74540886228, -38101.49885433899, 0.782, -0.662, 0.082, 192.0, 0.0, 0.0, 0.0, 0.0, 0.0, 0.0, 0.0, 0.0, 0.0, 1.6635919238504174E9, 0.0, 2022-09-19 17:52:03.850
52.0, -35380.19631864981, -29821.719804015138, -38348.3515201034, -35729.777601930815, -53473.44171684286, 187500.0, -36386.67301972783, -38132.12074424276, 0.782, -0.662, 0.082, 192.0, 0.0, 0.0, 0.0, 0.0, 0.0, 0.0, 0.0, 0.0, 0.0, 1.6635919238545277E9, 0.0, 2022-09-19 17:52:03.854
53.0, -35400.73757180424, -29843.088071714414, -38375.620648338874, -35749.60359926267, -53502.11900497902, 187500.0, -36352.743071644676, -38153.26549449748, 0.782, -0.662, 0.082, 192.0, 0.0, 0.0, 0.0, 0.0, 0.0, 0.0, 0.0, 0.0, 0.0, 1.6635919238584497E9, 0.0, 2022-09-19 17:52:03.858
54.0, -35432.521752419685, -29844.0939002149, -38401.4145614403, -35716.612424446634, -53493.44652813036, 187500.0, -36643.47221177485, -38107.667935808655, 0.782, -0.662, 0.082, 192.0, 0.0, 0.0, 0.0, 0.0, 0.0, 0.0, 0.0, 0.0, 0.0, 1.6635919238624725E9, 0.0, 2022-09-19 17:52:03.862
55.0, -35418.08252550155, -29822.43505983771, -38379.35338966291, -35695.646488147555, -53463.98692893826, 187500.0, -36707.50995963931, -38088.646601277185, 0.786, -0.658, 0.09, 192.0, 24.0, 144.0, 235.0, 112.0, 2.0, 208.0, 0.0, 0.0, 0.0, 1.663591923867427E9, 0.0, 2022-09-19 17:52:03.867
56.0, -35384.91253672988, -29804.911292184748, -38355.97346496266, -35698.01577305982, -53456.52144629019, 187500.0, -36586.67642911392, -38097.78846475941, 0.786, -0.658, 0.09, 192.0, 0.0, 0.0, 0.0, 0.0, 0.0, 0.0, 0.0, 0.0, 0.0, 1.663591923871486E9, 0.0, 2022-09-19 17:52:03.871
57.0, -35363.96895217526, -29803.503132284062, -38339.701394999196, -35719.898130881564, -53467.227931884285, 187500.0, -36377.66526671234, -38130.44436340861, 0.786, -0.658, 0.09, 192.0, 0.0, 0.0, 0.0, 0.0, 0.0, 0.0, 0.0, 0.0, 0.0, 1.663591923875567E9, 0.0, 2022-09-19 17:52:03.875
58.0, -35395.90959500189, -29830.705205286173, -38369.36215989139, -35740.37232880263, -53501.60491485654, 187500.0, -36357.88397286939, -38146.962302561085, 0.786, -0.658, 0.09, 192.0, 0.0, 0.0, 0.0, 0.0, 0.0, 0.0, 0.0, 0.0, 0.0, 1.6635919238784971E9, 0.0, 2022-09-19 17:52:03.878
59.0, -35417.568435379086, -29829.073527940935, -38393.45734041421, -35702.35201148415, -53487.65742631644, 187500.0, -36645.61797924256, -38097.83316824832, 0.786, -0.658, 0.09, 192.0, 0.0, 0.0, 0.0, 0.0, 0.0, 0.0, 0.0, 0.0, 0.0, 1.6635919238824825E9, 0.0, 2022-09-19 17:52:03.882
60.0, -35394.03204846764, -29807.124114885824, -38368.713959302186, -35678.61445887262, -53454.24156835575, 187500.0, -36701.653802592016, -38078.029522660916, 0.786, -0.658, 0.09, 192.0, 0.0, 0.0, 0.0, 0.0, 0.0, 0.0, 0.0, 0.0, 0.0, 1.663591923886486E9, 0.0, 2022-09-19 17:52:03.886
61.0, -35379.86104248298, -29801.111495627345, -38351.97250270516, -35688.940964810965, -53451.44760029884, 187500.0, -36584.821234324125, -38095.285069380414, 0.786, -0.658, 0.09, 192.0, 0.0, 0.0, 0.0, 0.0, 0.0, 0.0, 0.0, 0.0, 0.0, 1.663591923890468E9, 0.0, 2022-09-19 17:52:03.890
62.0, -35374.51897555816, -29808.688736997694, -38343.38943283432, -35717.50649422485, -53462.62347252649, 187500.0, -36378.00054287917, -38129.10325874129, 0.786, -0.658, 0.09, 192.0, 0.0, 0.0, 0.0, 0.0, 0.0, 0.0, 0.0, 0.0, 0.0, 1.6635919238945384E9, 0.0, 2022-09-19 17:52:03.894
63.0, -35388.84644375401, -29830.213466908153, -38369.78684303604, -35736.2372560784, -53492.954789752344, 187500.0, -36353.927714100806, -38150.27036074047, 0.786, -0.658, 0.09, 192.0, 0.0, 0.0, 0.0, 0.0, 0.0, 0.0, 0.0, 0.0, 0.0, 1.6635919238995152E9, 0.0, 2022-09-19 17:52:03.899
64.0, -35408.96301376379, -29829.207638407664, -38388.495253145134, -35705.25773826334, -53483.74587103676, 187500.0, -36642.15345885199, -38107.958508486576, 0.786, -0.658, 0.09, 192.0, 0.0, 0.0, 0.0, 0.0, 0.0, 0.0, 0.0, 0.0, 0.0, 1.6635919239035242E9, 0.0, 2022-09-19 17:52:03.903
65.0, -35388.42176060936, -29805.291271840488, -38358.275694641554, -35682.9730490414, -53446.53021651867, 187500.0, -36695.59647984463, -38086.836109976306, 0.78, -0.666, 0.094, 192.0, 24.0, 96.0, 235.0, 48.0, 2.0, 240.0, 0.0, 0.0, 0.0, 1.6635919239065154E9, 0.0, 2022-09-19 17:52:03.906
66.0, -35362.29257134111, -29796.484684525098, -38336.01335716407, -35688.49392992186, -53438.081257114565, 187500.0, -36574.94176327488, -38100.26950839395, 0.78, -0.666, 0.094, 192.0, 0.0, 0.0, 0.0, 0.0, 0.0, 0.0, 0.0, 0.0, 0.0, 1.6635919239105504E9, 0.0, 2022-09-19 17:52:03.910
67.0, -35365.757091731684, -29806.475914296618, -38332.39237456231, -35720.63573844859, -53452.16285612141, 187500.0, -36367.24935379617, -38132.63483436523, 0.78, -0.666, 0.094, 192.0, 0.0, 0.0, 0.0, 0.0, 0.0, 0.0, 0.0, 0.0, 0.0, 1.6635919239145827E9, 0.0, 2022-09-19 17:52:03.914
68.0, -35387.48298734224, -29826.257208139567, -38365.96469473418, -35739.36650030214, -53487.858592016535, 187500.0, -36348.607998920445, -38148.52692467295, 0.78, -0.666, 0.094, 192.0, 0.0, 0.0, 0.0, 0.0, 0.0, 0.0, 0.0, 0.0, 0.0, 1.6635919239185152E9, 0.0, 2022-09-19 17:52:03.918
69.0, -35400.33524040404, -29820.57986504792, -38384.02490425407, -35703.51430219583, -53477.643844800456, 187500.0, -36634.97854888184, -38103.66697355115, 0.78, -0.666, 0.094, 192.0, 0.0, 0.0, 0.0, 0.0, 0.0, 0.0, 0.0, 0.0, 0.0, 1.6635919239225783E9, 0.0, 2022-09-19 17:52:03.922
70.0, -35389.181719920845, -29802.966690417135, -38359.5050405866, -35683.57654614169, -53448.54187351965, 187500.0, -36691.64022107604, -38084.55623204187, 0.78, -0.666, 0.094, 192.0, 0.0, 0.0, 0.0, 0.0, 0.0, 0.0, 0.0, 0.0, 0.0, 1.6635919239265437E9, 0.0, 2022-09-19 17:52:03.926
71.0, -35380.352780860994, -29805.693603240685, -38344.864647968374, -35695.98176431439, -53448.25130084173, 187500.0, -36573.131271974, -38100.13539792722, 0.78, -0.666, 0.094, 192.0, 0.0, 0.0, 0.0, 0.0, 0.0, 0.0, 0.0, 0.0, 0.0, 1.6635919239316711E9, 0.0, 2022-09-19 17:52:03.931
72.0, -35353.1954113478, -29814.276673111523, -38332.81705770696, -35720.63573844859, -53461.10355390353, 187500.0, -36353.12305130041, -38131.20432272009, 0.78, -0.666, 0.094, 192.0, 0.0, 0.0, 0.0, 0.0, 0.0, 0.0, 0.0, 0.0, 0.0, 1.663591923934636E9, 0.0, 2022-09-19 17:52:03.934
73.0, -35364.48304229773, -29818.56820804694, -38362.12019468787, -35732.772735687824, -53488.08210946109, 187500.0, -36339.51083892713, -38143.676596126155, 0.78, -0.666, 0.094, 192.0, 0.0, 0.0, 0.0, 0.0, 0.0, 0.0, 0.0, 0.0, 0.0, 1.6635919239386253E9, 0.0, 2022-09-19 17:52:03.938
74.0, -35390.58987982153, -29804.620719506827, -38387.13179673336, -35702.41906671751, -53483.41059486993, 187500.0, -36637.459592516374, -38099.978935716026, 0.78, -0.666, 0.094, 192.0, 0.0, 0.0, 0.0, 0.0, 0.0, 0.0, 0.0, 0.0, 0.0, 1.66359192394264E9, 0.0, 2022-09-19 17:52:03.942
75.0, -35379.14578666041, -29792.37196354532, -38367.082281956944, -35689.432703188984, -53458.73426899127, 187500.0, -36688.91330825249, -38086.16555764265, 0.782, -0.668, 0.096, 192.0, 24.0, 112.0, 235.0, 32.0, 3.0, 0.0, 0.0, 0.0, 0.0, 1.6635919239465885E9, 0.0, 2022-09-19 17:52:03.946
76.0, -35361.197335862795, -29786.113475097834, -38344.68583401273, -35694.64065964707, -53448.854797942025, 187500.0, -36568.59386784957, -38097.184967659116, 0.782, -0.668, 0.096, 192.0, 0.0, 0.0, 0.0, 0.0, 0.0, 0.0, 0.0, 0.0, 0.0, 1.6635919239506702E9, 0.0, 2022-09-19 17:52:03.950
77.0, -35353.6424462369, -29793.154274601256, -38334.26992109656, -35721.12747682661, -53459.67304225839, 187500.0, -36361.16967930432, -38127.806857562886, 0.782, -0.668, 0.096, 192.0, 0.0, 0.0, 0.0, 0.0, 0.0, 0.0, 0.0, 0.0, 0.0, 1.6635919239546187E9, 0.0, 2022-09-19 17:52:03.954
78.0, -35377.37999884844, -29817.495324313084, -38364.28831390003, -35730.3810990311, -53484.81875477061, 187500.0, -36352.6313129224, -38131.89722679821, 0.782, -0.668, 0.096, 192.0, 0.0, 0.0, 0.0, 0.0, 0.0, 0.0, 0.0, 0.0, 0.0, 1.6635919239596589E9, 0.0, 2022-09-19 17:52:03.959
79.0, -35419.66949935788, -29830.280522141522, -38393.16676773629, -35701.25677600584, -53483.18707742538, 187500.0, -36651.317674078666, -38095.95562171407, 0.782, -0.668, 0.096, 192.0, 0.0, 0.0, 0.0, 0.0, 0.0, 0.0, 0.0, 0.0, 0.0, 1.6635919239626317E9, 0.0, 2022-09-19 17:52:03.962
80.0, -35408.20305445231, -29811.8850364548, -38361.427290609754, -35683.353028697136, -53454.33097533357, 187500.0, -36705.20772996041, -38081.82931921832, 0.782, -0.668, 0.096, 192.0, 0.0, 0.0, 0.0, 0.0, 0.0, 0.0, 0.0, 0.0, 0.0, 1.663591923966683E9, 0.0, 2022-09-19 17:52:03.966
81.0, -35392.51212984468, -29809.09106839789, -38348.93266545924, -35701.01090681683, -53457.12494339049, 187500.0, -36585.20121397987, -38109.38902013171, 0.782, -0.668, 0.096, 192.0, 0.0, 0.0, 0.0, 0.0, 0.0, 0.0, 0.0, 0.0, 0.0, 1.6635919239706972E9, 0.0, 2022-09-19 17:52:03.970
82.0, -35372.887298212925, -29809.538103286995, -38339.03084266554, -35721.14982857106, -53465.48449581677, 187500.0, -36364.678903183805, -38130.377308175244, 0.782, -0.668, 0.096, 192.0, 0.0, 0.0, 0.0, 0.0, 0.0, 0.0, 0.0, 0.0, 0.0, 1.663591923974582E9, 0.0, 2022-09-19 17:52:03.974
83.0, -35383.88435648494, -29818.165876646744, -38359.52739233105, -35723.25089254986, -53486.60689432704, 187500.0, -36353.74890014516, -38129.52794188594, 0.782, -0.668, 0.096, 192.0, 0.0, 0.0, 0.0, 0.0, 0.0, 0.0, 0.0, 0.0, 0.0, 1.6635919239786484E9, 0.0, 2022-09-19 17:52:03.978
84.0, -35405.90082477341, -29813.80728647796, -38383.08613098695, -35690.46088343392, -53480.7730890242, 187500.0, -36646.132069365034, -38088.087807665805, 0.782, -0.668, 0.096, 192.0, 0.0, 0.0, 0.0, 0.0, 0.0, 0.0, 0.0, 0.0, 0.0, 1.6635919239826713E9, 0.0, 2022-09-19 17:52:03.982
85.0, -35384.71137102978, -29798.630451992805, -38360.57792432045, -35683.06245601922, -53460.34359459205, 187500.0, -36689.53915709724, -38078.92359243913, 0.776, -0.666, 0.1, 192.0, 24.0, 64.0, 235.0, 48.0, 3.0, 32.0, 0.0, 0.0, 0.0, 1.6635919239877665E9, 0.0, 2022-09-19 17:52:03.987
86.0, -35367.52287954365, -29792.908405412247, -38342.271845611554, -35695.78059861429, -53454.4650858003, 187500.0, -36565.397568392465, -38093.56398505736, 0.776, -0.666, 0.1, 192.0, 0.0, 0.0, 0.0, 0.0, 0.0, 0.0, 0.0, 0.0, 0.0, 1.6635919239907873E9, 0.0, 2022-09-19 17:52:03.990
87.0, -35358.22455385024, -29798.853969437358, -38334.806362963485, -35723.92144488352, -53465.417440583406, 187500.0, -36346.75280413065, -38130.55612213089, 0.776, -0.666, 0.1, 192.0, 0.0, 0.0, 0.0, 0.0, 0.0, 0.0, 0.0, 0.0, 0.0, 1.6635919239946542E9, 0.0, 2022-09-19 17:52:03.994
88.0, -35375.03306568063, -29816.936530701703, -38361.427290609754, -35737.243084578884, -53488.37268213901, 187500.0, -36348.473888453715, -38139.69798561311, 0.776, -0.666, 0.1, 192.0, 0.0, 0.0, 0.0, 0.0, 0.0, 0.0, 0.0, 0.0, 0.0, 1.663591923998703E9, 0.0, 2022-09-19 17:52:03.998
89.0, -35391.81922576657, -29811.795629476983, -38373.6089913379, -35699.80391261625, -53475.02869069919, 187500.0, -36641.326444307146, -38089.78654024441, 0.776, -0.666, 0.1, 192.0, 0.0, 0.0, 0.0, 0.0, 0.0, 0.0, 0.0, 0.0, 0.0, 1.6635919240026703E9, 0.0, 2022-09-19 17:52:04.002
90.0, -35374.34016160252, -29797.110533369847, -38353.4030143503, -35683.93417405298, -53450.95586192082, 187500.0, -36681.13490118205, -38079.25886860596, 0.776, -0.666, 0.1, 192.0, 0.0, 0.0, 0.0, 0.0, 0.0, 0.0, 0.0, 0.0, 0.0, 1.663591924006702E9, 0.0, 2022-09-19 17:52:04.006
91.0, -35358.60453350598, -29790.874396666815, -38334.71695598566, -35687.8233775882, -53439.42236178188, 187500.0, -36556.099242699056, -38086.36672334275, 0.776, -0.666, 0.1, 192.0, 0.0, 0.0, 0.0, 0.0, 0.0, 0.0, 0.0, 0.0, 0.0, 1.6635919240107892E9, 0.0, 2022-09-19 17:52:04.010
92.0, -35357.53164977213, -29797.71403047014, -38321.41766803475, -35712.76792440032, -53447.9160246749, 187500.0, -36343.69061514027, -38116.474523124045, 0.776, -0.666, 0.1, 192.0, 0.0, 0.0, 0.0, 0.0, 0.0, 0.0, 0.0, 0.0, 0.0, 1.6635919240158432E9, 0.0, 2022-09-19 17:52:04.015
93.0, -35381.71623727277, -29823.172667404735, -38358.63332255284, -35729.978767630906, -53481.421289613405, 187500.0, -36352.34074024448, -38131.159619231184, 0.776, -0.666, 0.1, 192.0, 0.0, 0.0, 0.0, 0.0, 0.0, 0.0, 0.0, 0.0, 0.0, 1.6635919240186656E9, 0.0, 2022-09-19 17:52:04.018
94.0, -35399.55292934811, -29821.205713892665, -38381.141529219334, -35700.83209286119, -53475.609836055024, 187500.0, -36649.19425835541, -38097.3414298703, 0.776, -0.666, 0.1, 192.0, 0.0, 0.0, 0.0, 0.0, 0.0, 0.0, 0.0, 0.0, 0.0, 1.663591924022749E9, 0.0, 2022-09-19 17:52:04.022
95.0, -35375.63656278093, -29794.51773101303, -38353.55947656149, -35679.240307717366, -53445.904367673924, 187500.0, -36682.83363376065, -38078.45420580557, 0.776, -0.66, 0.1, 192.0, 24.0, 64.0, 235.0, 96.0, 3.0, 32.0, 0.0, 0.0, 0.0, 1.6635919240267923E9, 0.0, 2022-09-19 17:52:04.026
96.0, -35355.72115847125, -29783.833597163393, -38333.17468561824, -35682.72717985239, -53438.93062340387, 187500.0, -36556.032187465695, -38089.20539488857, 0.776, -0.66, 0.1, 192.0, 0.0, 0.0, 0.0, 0.0, 0.0, 0.0, 0.0, 0.0, 0.0, 1.663591924030734E9, 0.0, 2022-09-19 17:52:04.030
97.0, -35353.016597392154, -29797.915196170237, -38326.759734959574, -35714.42195349002, -53457.97430967979, 187500.0, -36344.29411224057, -38126.957491273584, 0.776, -0.66, 0.1, 192.0, 0.0, 0.0, 0.0, 0.0, 0.0, 0.0, 0.0, 0.0, 0.0, 1.663591924034753E9, 0.0, 2022-09-19 17:52:04.034
98.0, -35387.12535943095, -29823.463240082652, -38361.516697587576, -35730.202285075466, -53487.702129805344, 187500.0, -36361.95199036026, -38139.36270944628, 0.776, -0.66, 0.1, 192.0, 0.0, 0.0, 0.0, 0.0, 0.0, 0.0, 0.0, 0.0, 0.0, 1.6635919240387871E9, 0.0, 2022-09-19 17:52:04.038
99.0, -35411.84638879853, -29825.27373138353, -38383.28729668704, -35698.798084115755, -53477.68854828937, 187500.0, -36655.4527468029, -38101.00711596097, 0.776, -0.66, 0.1, 192.0, 0.0, 0.0, 0.0, 0.0, 0.0, 0.0, 0.0, 0.0, 0.0, 1.6635919240428307E9, 0.0, 2022-09-19 17:52:04.042
100.0, -35378.36347560448, -29802.94433867268, -38352.128964916345, -35675.26169720432, -53447.13371361896, 187500.0, -36681.581936071154, -38082.03048491842, 0.776, -0.66, 0.1, 192.0, 0.0, 0.0, 0.0, 0.0, 0.0, 0.0, 0.0, 0.0, 0.0, 1.663591924046803E9, 0.0, 2022-09-19 17:52:04.046
101.0, -35347.96510314526, -29784.012411119034, -38329.86662743886, -35682.078979263184, -53441.43401878286, 187500.0, -36551.964169974824, -38091.97701120103, 0.776, -0.66, 0.1, 192.0, 0.0, 0.0, 0.0, 0.0, 0.0, 0.0, 0.0, 0.0, 0.0, 1.6635919240498931E9, 0.0, 2022-09-19 17:52:04.049
102.0, -35338.8902948964, -29785.46527450863, -38321.55177850149, -35710.15277029905, -53455.24739685624, 187500.0, -36338.7285278712, -38128.20918896308, 0.776, -0.66, 0.1, 192.0, 0.0, 0.0, 0.0, 0.0, 0.0, 0.0, 0.0, 0.0, 0.0, 1.663591924054885E9, 0.0, 2022-09-19 17:52:04.054
103.0, -35368.70752199978, -29806.207693363154, -38350.653749782294, -35715.49483722387, -53479.16376342342, 187500.0, -36354.844135623476, -38126.15282847319, 0.776, -0.66, 0.1, 192.0, 0.0, 0.0, 0.0, 0.0, 0.0, 0.0, 0.0, 0.0, 0.0, 1.6635919240588586E9, 0.0, 2022-09-19 17:52:04.058
104.0, -35399.731743303746, -29810.47687655412, -38374.860689027395, -35689.25388923334, -53474.91693197691, 187500.0, -36647.27200833226, -38091.932307712115, 0.776, -0.66, 0.1, 192.0, 0.0, 0.0, 0.0, 0.0, 0.0, 0.0, 0.0, 0.0, 0.0, 1.6635919240628145E9, 0.0, 2022-09-19 17:52:04.062
105.0, -35376.26241162568, -29793.891882168282, -38348.30681661449, -35675.529918137785, -53448.38541130846, 187500.0, -36675.34579936812, -38081.315229095846, 0.774, -0.654, 0.098, 192.0, 24.0, 48.0, 235.0, 144.0, 3.0, 16.0, 0.0, 0.0, 0.0, 1.6635919240668085E9, 0.0, 2022-09-19 17:52:04.066
106.0, -35354.87179218195, -29782.201919818155, -38331.05126989499, -35681.810758329724, -53441.43401878286, 187500.0, -36544.81161174913, -38090.43474083361, 0.774, -0.654, 0.098, 192.0, 0.0, 0.0, 0.0, 0.0, 0.0, 0.0, 0.0, 0.0, 0.0, 1.6635919240707817E9, 0.0, 2022-09-19 17:52:04.070
107.0, -35356.391710804906, -29791.097914111368, -38320.03185987852, -35712.76792440032, -53452.63224275497, 187500.0, -36333.09588826846, -38127.96331977407, 0.774, -0.654, 0.098, 192.0, 0.0, 0.0, 0.0, 0.0, 0.0, 0.0, 0.0, 0.0, 0.0, 1.6635919240748143E9, 0.0, 2022-09-19 17:52:04.074
108.0, -35374.11664415796, -29810.70039399867, -38354.230028895145, -35723.407354761046, -53479.16376342342, 187500.0, -36358.599228691965, -38135.40645067769, 0.774, -0.654, 0.098, 192.0, 0.0, 0.0, 0.0, 0.0, 0.0, 0.0, 0.0, 0.0, 0.0, 1.6635919240778325E9, 0.0, 2022-09-19 17:52:04.077
109.0, -35388.399408864905, -29807.302928841465, -38374.32424716047, -35687.39869444355, -53467.69731851784, 187500.0, -36646.06501413167, -38091.12764491173, 0.774, -0.654, 0.098, 192.0, 0.0, 0.0, 0.0, 0.0, 0.0, 0.0, 0.0, 0.0, 0.0, 1.6635919240828817E9, 0.0, 2022-09-19 17:52:04.082
110.0, -35375.45774882528, -29796.283518825, -38353.26890388357, -35679.508528650826, -53449.123018875485, 187500.0, -36670.94250571042, -38086.836109976306, 0.774, -0.654, 0.098, 192.0, 0.0, 0.0, 0.0, 0.0, 0.0, 0.0, 0.0, 0.0, 0.0, 1.6635919240869017E9, 0.0, 2022-09-19 17:52:04.086
111.0, -35359.69976898429, -29787.879262909802, -38336.08041239744, -35688.40452294404, -53448.363059564006, 187500.0, -36543.023472192705, -38098.74958977099, 0.774, -0.654, 0.098, 192.0, 0.0, 0.0, 0.0, 0.0, 0.0, 0.0, 0.0, 0.0, 0.0, 1.6635919240908153E9, 0.0, 2022-09-19 17:52:04.090
112.0, -35340.1419925859, -29788.549815243463, -38323.67519422474, -35711.73974415538, -53457.95195793533, 187500.0, -36331.195989989756, -38130.86904655326, 0.774, -0.654, 0.098, 192.0, 0.0, 0.0, 0.0, 0.0, 0.0, 0.0, 0.0, 0.0, 0.0, 1.6635919240948226E9, 0.0, 2022-09-19 17:52:04.094
113.0, -35370.42860632284, -29807.526446286018, -38353.35831086139, -35717.461790735935, -53483.43294661438, 187500.0, -36362.75665316065, -38136.97107278956, 0.774, -0.654, 0.098, 192.0, 0.0, 0.0, 0.0, 0.0, 0.0, 0.0, 0.0, 0.0, 0.0, 1.6635919240988097E9, 0.0, 2022-09-19 17:52:04.098
114.0, -35393.31679264508, -29802.720821228126, -38368.51279360209, -35678.83797631717, -53470.49128657476, 187500.0, -36652.90464793499, -38087.28314486541, 0.774, -0.654, 0.098, 192.0, 0.0, 0.0, 0.0, 0.0, 0.0, 0.0, 0.0, 0.0, 0.0, 1.66359192410286E9, 0.0, 2022-09-19 17:52:04.102
115.0, -35368.61811502196, -29785.957012886647, -38350.4525840822, -35674.5687931262, -53455.47091430079, 187500.0, -36678.653857547506, -38084.6903425086, 0.78, -0.658, 0.098, 192.0, 24.0, 96.0, 235.0, 112.0, 3.0, 16.0, 0.0, 0.0, 0.0, 1.663591924105868E9, 0.0, 2022-09-19 17:52:04.105
116.0, -35362.113757385465, -29784.280632052498, -38338.293235098514, -35692.0255055458, -53461.841161470555, 187500.0, -36552.679425797396, -38105.7456857855, 0.78, -0.658, 0.098, 192.0, 0.0, 0.0, 0.0, 0.0, 0.0, 0.0, 0.0, 0.0, 0.0, 1.6635919241108577E9, 0.0, 2022-09-19 17:52:04.110
117.0, -35343.49475425419, -29790.673230966717, -38327.050307637495, -35721.239235548885, -53480.370757624005, 187500.0, -36335.264007480626, -38145.82236359386, 0.78, -0.658, 0.098, 192.0, 0.0, 0.0, 0.0, 0.0, 0.0, 0.0, 0.0, 0.0, 0.0, 1.6635919241148844E9, 0.0, 2022-09-19 17:52:04.114
118.0, -35367.18760337682, -29805.671251496227, -38359.192116164224, -35731.230465320405, -53509.60683937155, 187500.0, -36371.116205586935, -38152.43847995263, 0.78, -0.658, 0.098, 192.0, 0.0, 0.0, 0.0, 0.0, 0.0, 0.0, 0.0, 0.0, 0.0, 1.6635919241188447E9, 0.0, 2022-09-19 17:52:04.118
119.0, -35379.05637968259, -29799.725687471117, -38378.19109895123, -35697.322868981704, -53496.41931014291, 187500.0, -36653.66460724647, -38106.5950520748, 0.78, -0.658, 0.098, 192.0, 0.0, 0.0, 0.0, 0.0, 0.0, 0.0, 0.0, 0.0, 0.0, 1.6635919241228302E9, 0.0, 2022-09-19 17:52:04.122
120.0, -35357.509298027675, -29779.85498665035, -38349.73732825963, -35683.19656648595, -53466.24445512825, 187500.0, -36668.05913067569, -38094.90508972467, 0.78, -0.658, 0.098, 192.0, 0.0, 0.0, 0.0, 0.0, 0.0, 0.0, 0.0, 0.0, 0.0, 1.66359192412691E9, 0.0, 2022-09-19 17:52:04.126
121.0, -35344.23236182122, -29775.56345171493, -38333.956996674184, -35696.138226525574, -53459.605987025025, 187500.0, -36538.50841981273, -38112.16063644417, 0.78, -0.658, 0.098, 192.0, 0.0, 0.0, 0.0, 0.0, 0.0, 0.0, 0.0, 0.0, 0.0, 1.663591924129872E9, 0.0, 2022-09-19 17:52:04.129
122.0, -35339.15851582986, -29787.789855931984, -38331.028918150536, -35729.37527053062, -53476.25803664423, 187500.0, -36323.05995500803, -38147.11876477227, 0.78, -0.658, 0.098, 192.0, 0.0, 0.0, 0.0, 0.0, 0.0, 0.0, 0.0, 0.0, 0.0, 1.6635919241338978E9, 0.0, 2022-09-19 17:52:04.133
123.0, -35364.23717310872, -29805.067754395935, -38365.09297670043, -35734.046785121776, -53499.794423555664, 187500.0, -36360.34266475948, -38147.521096172466, 0.78, -0.658, 0.098, 192.0, 0.0, 0.0, 0.0, 0.0, 0.0, 0.0, 0.0, 0.0, 0.0, 1.6635919241390295E9, 0.0, 2022-09-19 17:52:04.139
124.0, -35381.962106461775, -29796.238815336088, -38378.72754081816, -35695.668839892016, -53486.83041177159, 187500.0, -36651.943522923415, -38101.27533689443, 0.78, -0.658, 0.098, 192.0, 0.0, 0.0, 0.0, 0.0, 0.0, 0.0, 0.0, 0.0, 0.0, 1.6635919241428943E9, 0.0, 2022-09-19 17:52:04.142
125.0, -35371.99322843471, -29782.425437262707, -38352.39718584981, -35683.77771184179, -53463.85281847153, 187500.0, -36668.863793476085, -38092.558156556865, 0.78, -0.656, 0.1, 192.0, 24.0, 96.0, 235.0, 128.0, 3.0, 32.0, 0.0, 0.0, 0.0, 1.6635919241469104E9, 0.0, 2022-09-19 17:52:04.146
126.0, -35353.26246658117, -29778.268012794022, -38337.332110086936, -35695.04299104727, -53460.5671120366, 187500.0, -36534.75332674424, -38112.09358121081, 0.78, -0.656, 0.1, 192.0, 0.0, 0.0, 0.0, 0.0, 0.0, 0.0, 0.0, 0.0, 0.0, 1.663591924150911E9, 0.0, 2022-09-19 17:52:04.150
127.0, -35335.89516113939, -29784.504149497054, -38326.2456448371, -35719.764020414834, -53471.38535635297, 187500.0, -36318.053164250035, -38135.54056114442, 0.78, -0.656, 0.1, 192.0, 0.0, 0.0, 0.0, 0.0, 0.0, 0.0, 0.0, 0.0, 0.0, 1.6635919241549065E9, 0.0, 2022-09-19 17:52:04.154
128.0, -35362.78430971912, -29804.307795084453, -38361.82962200995, -35729.978767630906, -53500.33086542259, 187500.0, -36365.43886249529, -38137.865142567774, 0.78, -0.656, 0.1, 192.0, 0.0, 0.0, 0.0, 0.0, 0.0, 0.0, 0.0, 0.0, 0.0, 1.663591924157961E9, 0.0, 2022-09-19 17:52:04.157
129.0, -35381.269202383664, -29798.786914203993, -38375.285372172046, -35692.517243923816, -53485.399900126446, 187500.0, -36650.53536302273, -38092.558156556865, 0.78, -0.656, 0.1, 192.0, 0.0, 0.0, 0.0, 0.0, 0.0, 0.0, 0.0, 0.0, 0.0, 1.663591924161956E9, 0.0, 2022-09-19 17:52:04.161
130.0, -35365.1982981203, -29785.688791953184, -38351.95015096071, -35683.57654614169, -53465.059812672116, 187500.0, -36666.15923239699, -38086.65729602067, 0.78, -0.656, 0.1, 192.0, 0.0, 0.0, 0.0, 0.0, 0.0, 0.0, 0.0, 0.0, 0.0, 1.6635919241669488E9, 0.0, 2022-09-19 17:52:04.166
131.0, -35354.17888810383, -29779.810283161438, -38337.01918566456, -35697.43462770398, -53464.88099871648, 187500.0, -36532.94283544336, -38106.99738347499, 0.78, -0.656, 0.1, 192.0, 0.0, 0.0, 0.0, 0.0, 0.0, 0.0, 0.0, 0.0, 0.0, 1.6635919241710026E9, 0.0, 2022-09-19 17:52:04.171
132.0, -35354.38005380393, -29791.61200423384, -38330.91715942826, -35728.436497263494, -53477.509734333726, 187500.0, -36320.578911373486, -38142.67076762566, 0.78, -0.656, 0.1, 192.0, 0.0, 0.0, 0.0, 0.0, 0.0, 0.0, 0.0, 0.0, 0.0, 1.663591924174896E9, 0.0, 2022-09-19 17:52:04.174
133.0, -35371.76971099016, -29804.307795084453, -38357.06870044097, -35727.76594492984, -53495.14526070896, 187500.0, -36372.25614455416, -38135.58526463333, 0.78, -0.656, 0.1, 192.0, 0.0, 0.0, 0.0, 0.0, 0.0, 0.0, 0.0, 0.0, 0.0, 1.663591924178986E9, 0.0, 2022-09-19 17:52:04.178
134.0, -35387.61709780897, -29797.80343744796, -38374.88304077185, -35689.7232758669, -53479.70020529035, 187500.0, -36657.91143869298, -38088.35602859927, 0.78, -0.656, 0.1, 192.0, 0.0, 0.0, 0.0, 0.0, 0.0, 0.0, 0.0, 0.0, 0.0, 1.663591924182974E9, 0.0, 2022-09-19 17:52:04.182
135.0, -35374.78719649163, -29785.062943108434, -38351.83839223843, -35676.62515361609, -53453.63807125546, 187500.0, -36666.96389519738, -38076.88958369369, 0.78, -0.656, 0.1, 192.0, 0.0, 0.0, 0.0, 0.0, 0.0, 0.0, 0.0, 0.0, 0.0, 1.6635919241869547E9, 0.0, 2022-09-19 17:52:04.186
136.0, -35355.251771837684, -29778.826806405403, -38330.71599372816, -35685.45409267594, -53445.23381534026, 187500.0, -36531.82524822059, -38091.41821758964, 0.784, -0.652, 0.1, 192.0, 24.0, 128.0, 235.0, 160.0, 3.0, 32.0, 0.0, 0.0, 0.0, 1.6635919241899605E9, 0.0, 2022-09-19 17:52:04.189
137.0, -35350.75907120217, -29790.3826582888, -38327.76556346006, -35717.59590120267, -53464.27750161618, 187500.0, -36319.66248985082, -38129.97497677505, 0.784, -0.652, 0.1, 192.0, 0.0, 0.0, 0.0, 0.0, 0.0, 0.0, 0.0, 0.0, 0.0, 1.663591924193988E9, 0.0, 2022-09-19 17:52:04.193
138.0, -35365.131242886935, -29810.365117831843, -38368.31162790199, -35727.050689107265, -53497.358083410036, 187500.0, -36372.70317944326, -38135.78643033343, 0.784, -0.652, 0.1, 192.0, 0.0, 0.0, 0.0, 0.0, 0.0, 0.0, 0.0, 0.0, 0.0, 1.663591924199078E9, 0.0, 2022-09-19 17:52:04.199
139.0, -35378.542289560115, -29805.648899751774, -38380.247459441125, -35693.29955497975, -53482.15889718043, 187500.0, -36656.61503751457, -38091.77584550093, 0.784, -0.652, 0.1, 192.0, 0.0, 0.0, 0.0, 0.0, 0.0, 0.0, 0.0, 0.0, 0.0, 1.6635919242029984E9, 0.0, 2022-09-19 17:52:04.202
140.0, -35368.5957632775, -29795.076524624412, -38358.16393591928, -35692.40548520154, -53466.42326908389, 187500.0, -36668.17088939797, -38093.049894934884, 0.784, -0.652, 0.1, 192.0, 0.0, 0.0, 0.0, 0.0, 0.0, 0.0, 0.0, 0.0, 0.0, 1.6635919242069843E9, 0.0, 2022-09-19 17:52:04.206
141.0, -35354.26829508165, -29786.22523382011, -38338.91908394326, -35703.179026029, -53464.18809463836, 187500.0, -36531.80289647614, -38113.41233413367, 0.784, -0.652, 0.1, 192.0, 0.0, 0.0, 0.0, 0.0, 0.0, 0.0, 0.0, 0.0, 0.0, 1.6635919242100315E9, 0.0, 2022-09-19 17:52:04.210
142.0, -35346.46753626675, -29789.533291999494, -38330.738345472615, -35732.638625221094, -53479.36492912352, 187500.0, -36316.4214869048, -38153.98075032005, 0.784, -0.652, 0.1, 192.0, 0.0, 0.0, 0.0, 0.0, 0.0, 0.0, 0.0, 0.0, 0.0, 1.6635919242139745E9, 0.0, 2022-09-19 17:52:04.213
143.0, -35368.819280722055, -29807.258225352554, -38365.51765984508, -35736.349014800675, -53505.047083502664, 187500.0, -36378.64874346837, -38142.6037123923, 0.784, -0.652, 0.1, 192.0, 0.0, 0.0, 0.0, 0.0, 0.0, 0.0, 0.0, 0.0, 0.0, 1.6635919242181444E9, 0.0, 2022-09-19 17:52:04.218
144.0, -35381.0009814502, -29803.90546368426, -38381.52150887508, -35705.59301443017, -53493.60299034155, 187500.0, -36661.152441639, -38098.16844441515, 0.784, -0.652, 0.1, 192.0, 0.0, 0.0, 0.0, 0.0, 0.0, 0.0, 0.0, 0.0, 0.0, 1.6635919242220054E9, 0.0, 2022-09-19 17:52:04.222
145.0, -35359.610362006475, -29786.024068120012, -38354.34178761742, -35695.19945325845, -53470.82656274159, 187500.0, -36663.11939515107, -38089.49596756649, 0.784, -0.652, 0.1, 192.0, 0.0, 0.0, 0.0, 0.0, 0.0, 0.0, 0.0, 0.0, 0.0, 1.6635919242261093E9, 0.0, 2022-09-19 17:52:04.226
146.0, -35350.647312479894, -29778.60328896085, -38333.06292689597, -35700.94385158346, -53463.42813532688, 187500.0, -36529.813591219616, -38098.95075547109, 0.774, -0.658, 0.096, 192.0, 24.0, 48.0, 235.0, 112.0, 3.0, 0.0, 0.0, 0.0, 0.0, 1.663591924231022E9, 0.0, 2022-09-19 17:52:04.231
147.0, -35342.064242609056, -29788.393353032276, -38327.27382508205, -35729.03999436379, -53479.40963261243, 187500.0, -36316.06385899352, -38133.05951750988, 0.774, -0.658, 0.096, 192.0, 0.0, 0.0, 0.0, 0.0, 0.0, 0.0, 0.0, 0.0, 0.0, 1.6635919242350252E9, 0.0, 2022-09-19 17:52:04.235
148.0, -35383.236155895735, -29816.80242023497, -38372.82668028196, -35741.579323003214, -53515.50769990775, 187500.0, -36392.506825030665, -38142.268436225466, 0.774, -0.658, 0.096, 192.0, 0.0, 0.0, 0.0, 0.0, 0.0, 0.0, 0.0, 0.0, 0.0, 1.6635919242380397E9, 0.0, 2022-09-19 17:52:04.238
149.0, -35409.47710388626, -29818.61291153585, -38390.95394503522, -35714.42195349002, -53507.66223760394, 187500.0, -36681.671343048976, -38109.63488932072, 0.774, -0.658, 0.096, 192.0, 0.0, 0.0, 0.0, 0.0, 0.0, 0.0, 0.0, 0.0, 0.0, 1.6635919242421367E9, 0.0, 2022-09-19 17:52:04.242
150.0, -35376.57533604805, -29794.003640890558, -38361.38258712085, -35696.58526141468, -53476.86153374452, 187500.0, -36673.334142367145, -38093.139301912706, 0.774, -0.658, 0.096, 192.0, 0.0, 0.0, 0.0, 0.0, 0.0, 0.0, 0.0, 0.0, 0.0, 1.663591924246141E9, 0.0, 2022-09-19 17:52:04.246
151.0, -35358.0457398946, -29783.99005937458, -38339.63433976583, -35702.82139811771, -53466.91500746191, 187500.0, -36532.89813195445, -38101.70002003908, 0.774, -0.658, 0.096, 192.0, 0.0, 0.0, 0.0, 0.0, 0.0, 0.0, 0.0, 0.0, 0.0, 1.6635919242501156E9, 0.0, 2022-09-19 17:52:04.250
152.0, -35344.58998973251, -29790.360306544342, -38330.40306930579, -35728.83882866369, -53479.09670819005, 187500.0, -36314.85686479293, -38131.02550876445, 0.774, -0.658, 0.096, 192.0, 0.0, 0.0, 0.0, 0.0, 0.0, 0.0, 0.0, 0.0, 0.0, 1.6635919242551863E9, 0.0, 2022-09-19 17:52:04.255
153.0, -35373.155519146385, -29811.2368358656, -38365.09297670043, -35733.264474065836, -53511.126757994505, 187500.0, -36389.44463604029, -38133.59595937681, 0.774, -0.658, 0.096, 192.0, 0.0, 0.0, 0.0, 0.0, 0.0, 0.0, 0.0, 0.0, 0.0, 1.663591924259218E9, 0.0, 2022-09-19 17:52:04.259
154.0, -35388.824092009556, -29807.861722452846, -38382.482633886655, -35703.73781964038, -53502.946019523864, 187500.0, -36665.17575564096, -38094.54746181339, 0.774, -0.658, 0.096, 192.0, 0.0, 0.0, 0.0, 0.0, 0.0, 0.0, 0.0, 0.0, 0.0, 1.6635919242631695E9, 0.0, 2022-09-19 17:52:04.263
155.0, -35368.5957632775, -29788.549815243463, -38355.705244029195, -35695.89235733657, -53476.23568489977, 187500.0, -36659.9007439495, -38087.461958821055, 0.774, -0.658, 0.096, 192.0, 0.0, 0.0, 0.0, 0.0, 0.0, 0.0, 0.0, 0.0, 0.0, 1.6635919242661133E9, 0.0, 2022-09-19 17:52:04.266
156.0, -35352.83778343652, -29782.51484424053, -38336.125115886345, -35708.11876155362, -53470.58069355258, 187500.0, -36528.60659701903, -38102.907014239674, 0.78, -0.66, 0.096, 192.0, 24.0, 96.0, 235.0, 96.0, 3.0, 0.0, 0.0, 0.0, 0.0, 1.663591924270128E9, 0.0, 2022-09-19 17:52:04.270
157.0, -35351.42962353583, -29792.19314958968, -38331.43124955073, -35741.69108172549, -53489.669083317414, 187500.0, -36319.55073112855, -38142.15667750319, 0.78, -0.66, 0.096, 192.0, 0.0, 0.0, 0.0, 0.0, 0.0, 0.0, 0.0, 0.0, 0.0, 1.6635919242741115E9, 0.0, 2022-09-19 17:52:04.274
158.0, -35386.81243500858, -29814.097859155878, -38369.27275291357, -35748.53071552882, -53523.66608663394, 187500.0, -36401.179301879325, -38147.856372339294, 0.78, -0.66, 0.096, 192.0, 0.0, 0.0, 0.0, 0.0, 0.0, 0.0, 0.0, 0.0, 0.0, 1.6635919242781537E9, 0.0, 2022-09-19 17:52:04.278
159.0, -35393.67442055636, -29802.497303783573, -38377.386436150846, -35708.49874120936, -53505.40471141395, 187500.0, -36671.098967921615, -38101.63296480572, 0.78, -0.66, 0.096, 192.0, 0.0, 0.0, 0.0, 0.0, 0.0, 0.0, 0.0, 0.0, 0.0, 1.6635919242821443E9, 0.0, 2022-09-19 17:52:04.282
160.0, -35369.37807433344, -29783.341858785378, -38349.24558988161, -35695.646488147555, -53480.21429541282, 187500.0, -36661.82299397266, -38088.087807665805, 0.78, -0.66, 0.096, 192.0, 0.0, 0.0, 0.0, 0.0, 0.0, 0.0, 0.0, 0.0, 0.0, 1.663591924287174E9, 0.0, 2022-09-19 17:52:04.287
161.0, -35351.496678769196, -29780.525538984006, -38331.364194317364, -35708.677555165, -53479.610798312526, 187500.0, -36523.55510277213, -38105.29865089639, 0.78, -0.66, 0.096, 192.0, 0.0, 0.0, 0.0, 0.0, 0.0, 0.0, 0.0, 0.0, 0.0, 1.663591924291193E9, 0.0, 2022-09-19 17:52:04.291
162.0, -35346.98162638922, -29800.262129338043, -38332.5488367735, -35749.64830275158, -53503.81773755762, 187500.0, -36316.577949115985, -38155.94770383212, 0.78, -0.66, 0.096, 192.0, 0.0, 0.0, 0.0, 0.0, 0.0, 0.0, 0.0, 0.0, 0.0, 1.6635919242941704E9, 0.0, 2022-09-19 17:52:04.294
