%OpenBCI Raw EEG Data
%Number of channels = 8
%Sample Rate = 250 Hz
%Board = OpenBCI_GUI$BoardCytonSerial
Sample Index, EXG Channel 0, EXG Channel 1, EXG Channel 2, EXG Channel 3, EXG Channel 4, EXG Channel 5, EXG Channel 6, EXG Channel 7, Accel Channel 0, Accel Channel 1, Accel Channel 2, Other, Other, Other, Other, Other, Other, Other, Analog Channel 0, Analog Channel 1, Analog Channel 2, Timestamp, Other, Timestamp (Formatted)
29.0, 39005.71632453398, 54991.952179903055, -39295.841967563865, 70.02801537847702, -187500.02235174447, -106708.36796860314, -13372.668727954475, -20983.638880686627, 0.0, 0.0, 0.0, 192.0, 0.0, 0.0, 0.0, 0.0, 0.0, 0.0, 0.0, 0.0, 0.0, 1.663591485715947E9, 0.0, 2022-09-19 17:44:45.715
30.0, 39343.83116290941, 55132.14232112674, -39323.736944644086, 67.50226825502733, -187500.02235174447, -106334.55739433259, -13300.562000341655, -20998.48043900495, 0.0, 0.0, 0.0, 192.0, 0.0, 0.0, 0.0, 0.0, 0.0, 0.0, 0.0, 0.0, 0.0, 1.6635914857159884E9, 0.0, 2022-09-19 17:44:45.715
0.0, 0.0, 0.0, 0.0, 0.0, 0.0, 0.0, 0.0, 0.0, 0.678, -0.724, 0.23600000000000002, 192.0, 21.0, 48.0, 233.0, 96.0, 7.0, 96.0, 0.0, 0.0, 0.0, 1.663591485813002E9, 0.0, 2022-09-19 17:44:45.813
1.0, 35249.19274439725, 51519.273402604274, -39219.1084288488, 921.3612581922124, -187500.02235174447, -123832.1288027917, -13006.971836921197, -21082.634756879183, 0.678, -0.724, 0.23600000000000002, 192.0, 0.0, 0.0, 0.0, 0.0, 0.0, 0.0, 0.0, 0.0, 0.0, 1.6635914858289905E9, 0.0, 2022-09-19 17:44:45.828
2.0, 35312.64934690587, 51624.840691666686, -39240.58845527035, 937.6109764112207, -187500.02235174447, -124140.38171057485, -12934.216908719172, -21080.93602430058, 0.678, -0.724, 0.23600000000000002, 192.0, 0.0, 0.0, 0.0, 0.0, 0.0, 0.0, 0.0, 0.0, 0.0, 1.663591485831968E9, 0.0, 2022-09-19 17:44:45.831
3.0, 35901.30488888084, 51836.668173869635, -39276.32889465438, 947.3116335048239, -187500.02235174447, -123090.58732874243, -12854.778808925012, -21085.40637319164, 0.678, -0.724, 0.23600000000000002, 192.0, 0.0, 0.0, 0.0, 0.0, 0.0, 0.0, 0.0, 0.0, 0.0, 1.663591485836028E9, 0.0, 2022-09-19 17:44:45.836
4.0, 36512.02160263319, 51936.40165762921, -39321.278252754004, 915.0804180002712, -187500.02235174447, -121425.09179414414, -12956.546301430024, -21105.768812390426, 0.678, -0.724, 0.23600000000000002, 192.0, 0.0, 0.0, 0.0, 0.0, 0.0, 0.0, 0.0, 0.0, 0.0, 1.663591485839997E9, 0.0, 2022-09-19 17:44:45.839
5.0, 35881.34478108225, 51636.84357843919, -39279.32402841139, 869.9522459450062, -187500.02235174447, -122297.45802849032, -13125.480786023234, -21111.021472337423, 0.678, -0.724, 0.23600000000000002, 192.0, 0.0, 0.0, 0.0, 0.0, 0.0, 0.0, 0.0, 0.0, 0.0, 1.6635914858430023E9, 0.0, 2022-09-19 17:44:45.843
6.0, 35243.09071816096, 51514.57953626866, -39229.45728653161, 901.7140748159975, -187500.02235174447, -123931.34819642881, -13013.252677113138, -21087.954472059548, 0.678, -0.724, 0.23600000000000002, 192.0, 0.0, 0.0, 0.0, 0.0, 0.0, 0.0, 0.0, 0.0, 0.0, 1.663591485847022E9, 0.0, 2022-09-19 17:44:45.847
7.0, 35309.69891663777, 51623.07490385472, -39245.215266372594, 933.9899938094609, -187500.02235174447, -124238.05883384454, -12935.155681986294, -21074.74459108646, 0.678, -0.724, 0.23600000000000002, 192.0, 0.0, 0.0, 0.0, 0.0, 0.0, 0.0, 0.0, 0.0, 0.0, 1.6635914858510282E9, 0.0, 2022-09-19 17:44:45.851
8.0, 35910.33499364078, 51840.19974949357, -39268.237563161565, 961.3485290227568, -187500.02235174447, -123174.11579777191, -12842.887680874788, -21063.009925247425, 0.678, -0.736, 0.214, 192.0, 21.0, 48.0, 233.0, 0.0, 6.0, 176.0, 0.0, 0.0, 0.0, 1.6635914858549895E9, 0.0, 2022-09-19 17:44:45.854
9.0, 36527.80193421864, 51941.319041409384, -39312.628127649805, 934.5487874208436, -187500.02235174447, -121491.05179203175, -12948.052638537007, -21084.422896435608, 0.678, -0.736, 0.214, 192.0, 0.0, 0.0, 0.0, 0.0, 0.0, 0.0, 0.0, 0.0, 0.0, 1.6635914858600004E9, 0.0, 2022-09-19 17:44:45.860
10.0, 35903.473008093, 51643.012659908854, -39276.73122605458, 891.4322723665563, -187500.02235174447, -122352.30920938365, -13129.772320958653, -21100.180876276598, 0.678, -0.736, 0.214, 192.0, 0.0, 0.0, 0.0, 0.0, 0.0, 0.0, 0.0, 0.0, 0.0, 1.6635914858641384E9, 0.0, 2022-09-19 17:44:45.864
11.0, 35257.820517757005, 51500.52028900627, -39246.51166755101, 904.1057114727154, -187500.02235174447, -123996.43647628266, -13044.858043772942, -21097.565722175328, 0.678, -0.736, 0.214, 192.0, 0.0, 0.0, 0.0, 0.0, 0.0, 0.0, 0.0, 0.0, 0.0, 1.663591485868074E9, 0.0, 2022-09-19 17:44:45.868
12.0, 35323.06525982205, 51613.731874672405, -39241.28135934846, 935.0628775433156, -187500.02235174447, -124303.92942475431, -12940.341286699926, -21081.427762678595, 0.678, -0.736, 0.214, 192.0, 0.0, 0.0, 0.0, 0.0, 0.0, 0.0, 0.0, 0.0, 0.0, 1.6635914858710616E9, 0.0, 2022-09-19 17:44:45.871
13.0, 35910.51380759643, 51830.61085112225, -39268.68459805067, 952.921921363106, -187500.02235174447, -123246.11076666246, -12845.793407653977, -21079.84078882227, 0.678, -0.736, 0.214, 192.0, 0.0, 0.0, 0.0, 0.0, 0.0, 0.0, 0.0, 0.0, 0.0, 1.663591485875111E9, 0.0, 2022-09-19 17:44:45.875
14.0, 36531.13234414248, 51937.63100357426, -39309.141255514776, 935.1299327766816, -187500.02235174447, -121545.97002815844, -12944.208138490694, -21092.961262817535, 0.678, -0.736, 0.214, 192.0, 0.0, 0.0, 0.0, 0.0, 0.0, 0.0, 0.0, 0.0, 0.0, 1.6635914858790717E9, 0.0, 2022-09-19 17:44:45.879
15.0, 35909.664441307126, 51641.67155524153, -39273.28905740846, 894.1368334456484, -187500.02235174447, -122397.88441632802, -13126.732483712733, -21106.439364724087, 0.678, -0.736, 0.214, 192.0, 0.0, 0.0, 0.0, 0.0, 0.0, 0.0, 0.0, 0.0, 0.0, 1.6635914858830922E9, 0.0, 2022-09-19 17:44:45.883
16.0, 35259.899229991344, 51508.54456526573, -39227.19976034162, 920.9812785364722, -187500.02235174447, -124049.16424145273, -13017.454805070736, -21088.468562182017, 0.678, -0.736, 0.214, 192.0, 0.0, 0.0, 0.0, 0.0, 0.0, 0.0, 0.0, 0.0, 0.0, 1.663591485888069E9, 0.0, 2022-09-19 17:44:45.888
17.0, 35327.06622207954, 51624.773636433325, -39230.57487375437, 954.8218196418071, -187500.02235174447, -124356.09839631301, -12925.723245826155, -21067.949660772047, 0.678, -0.736, 0.214, 192.0, 0.0, 0.0, 0.0, 0.0, 0.0, 0.0, 0.0, 0.0, 0.0, 1.6635914858931477E9, 0.0, 2022-09-19 17:44:45.893
18.0, 35921.7790868019, 51845.184188507104, -39256.72641476708, 978.8499449312621, -187500.02235174447, -123292.44593291832, -12836.182157538195, -21054.896242010145, 0.676, -0.742, 0.20600000000000002, 192.0, 21.0, 32.0, 232.0, 208.0, 6.0, 112.0, 0.0, 0.0, 0.0, 1.6635914858971305E9, 0.0, 2022-09-19 17:44:45.897
19.0, 36529.85829470853, 51940.62613733127, -39319.44540970867, 940.181427023581, -187500.02235174447, -121599.45775263998, -12958.066220052984, -21089.40733544914, 0.676, -0.742, 0.20600000000000002, 192.0, 0.0, 0.0, 0.0, 0.0, 0.0, 0.0, 0.0, 0.0, 0.0, 1.663591485900128E9, 0.0, 2022-09-19 17:44:45.900
20.0, 35911.40787737464, 51651.01458442385, -39279.72635981159, 900.2612114264026, -187500.02235174447, -122448.57817275265, -13131.582812259534, -21101.834905366293, 0.676, -0.742, 0.20600000000000002, 192.0, 0.0, 0.0, 0.0, 0.0, 0.0, 0.0, 0.0, 0.0, 0.0, 1.6635914859031136E9, 0.0, 2022-09-19 17:44:45.903
21.0, 35258.11109043492, 51518.04405665923, -39233.6594144892, 925.9433658055503, -187500.02235174447, -124115.99595737409, -13029.323581376504, -21085.65224238065, 0.676, -0.742, 0.20600000000000002, 192.0, 0.0, 0.0, 0.0, 0.0, 0.0, 0.0, 0.0, 0.0, 0.0, 1.6635914859070964E9, 0.0, 2022-09-19 17:44:45.907
22.0, 35318.05846906405, 51615.76588341784, -39248.85860071881, 946.5069707044329, -187500.02235174447, -124443.53842062216, -12947.6056036479, -21080.019602777913, 0.676, -0.742, 0.20600000000000002, 192.0, 0.0, 0.0, 0.0, 0.0, 0.0, 0.0, 0.0, 0.0, 0.0, 1.6635914859110942E9, 0.0, 2022-09-19 17:44:45.911
23.0, 35910.37969712969, 51834.634165124204, -39266.9188102387, 967.8975901481617, -187500.02235174447, -123391.15123643295, -12847.49214023258, -21071.816512562815, 0.676, -0.742, 0.20600000000000002, 192.0, 0.0, 0.0, 0.0, 0.0, 0.0, 0.0, 0.0, 0.0, 0.0, 1.6635914859151056E9, 0.0, 2022-09-19 17:44:45.915
24.0, 36544.38692860448, 51950.192683958136, -39301.094627510865, 951.8937411181619, -187500.02235174447, -121672.25738433092, -12941.123597755863, -21084.869931324713, 0.676, -0.742, 0.20600000000000002, 192.0, 0.0, 0.0, 0.0, 0.0, 0.0, 0.0, 0.0, 0.0, 0.0, 1.6635914859200923E9, 0.0, 2022-09-19 17:44:45.920
25.0, 35934.78780207489, 51654.903787959076, -39259.47567933508, 911.7053045875198, -187500.02235174447, -122511.9677200279, -13122.195079588304, -21097.766887875427, 0.676, -0.742, 0.20600000000000002, 192.0, 0.0, 0.0, 0.0, 0.0, 0.0, 0.0, 0.0, 0.0, 0.0, 1.6635914859240932E9, 0.0, 2022-09-19 17:44:45.924
26.0, 35276.93125926629, 51517.7087804924, -39214.34750727982, 927.4856361729666, -187500.02235174447, -124192.57303387798, -13015.443148069759, -21086.88158832569, 0.676, -0.742, 0.20600000000000002, 192.0, 0.0, 0.0, 0.0, 0.0, 0.0, 0.0, 0.0, 0.0, 0.0, 1.6635914859271567E9, 0.0, 2022-09-19 17:44:45.927
27.0, 35334.33053902752, 51629.087523113194, -39220.76245793849, 952.988976596472, -187500.02235174447, -124524.22821810583, -12921.811690546476, -21075.750419586948, 0.676, -0.742, 0.20600000000000002, 192.0, 0.0, 0.0, 0.0, 0.0, 0.0, 0.0, 0.0, 0.0, 0.0, 1.6635914859311228E9, 0.0, 2022-09-19 17:44:45.931
28.0, 35916.79464778837, 51839.77506634892, -39258.805127001426, 963.0472616013601, -187500.02235174447, -123476.71371420786, -12842.083018074396, -21085.40637319164, 0.68, -0.74, 0.20800000000000002, 192.0, 21.0, 64.0, 232.0, 224.0, 6.0, 128.0, 0.0, 0.0, 0.0, 1.66359148593512E9, 0.0, 2022-09-19 17:44:45.935
29.0, 36555.80867002114, 51954.528922382466, -39303.888595567776, 941.1202002907039, -187500.02235174447, -121737.88210605171, -12941.078894266951, -21101.0302425659, 0.68, -0.74, 0.20800000000000002, 192.0, 0.0, 0.0, 0.0, 0.0, 0.0, 0.0, 0.0, 0.0, 0.0, 1.6635914859391525E9, 0.0, 2022-09-19 17:44:45.939
30.0, 35952.088052283296, 51666.012604953365, -39264.57187707089, 904.440987639545, -187500.02235174447, -122553.72077867041, -13122.55270749959, -21110.50738221495, 0.68, -0.74, 0.20800000000000002, 192.0, 0.0, 0.0, 0.0, 0.0, 0.0, 0.0, 0.0, 0.0, 0.0, 1.663591485943138E9, 0.0, 2022-09-19 17:44:45.943
31.0, 35289.202366972255, 51529.264632375794, -39223.86935041778, 926.27864197238, -187500.02235174447, -124228.15701105083, -13028.742436020666, -21097.40925996414, 0.68, -0.74, 0.20800000000000002, 192.0, 0.0, 0.0, 0.0, 0.0, 0.0, 0.0, 0.0, 0.0, 0.0, 1.663591485948131E9, 0.0, 2022-09-19 17:44:45.948
32.0, 35345.01467287716, 51638.117627873144, -39236.565141268395, 957.146401065159, -187500.02235174447, -124553.7995760202, -12940.207176233194, -21082.299480712354, 0.68, -0.74, 0.20800000000000002, 192.0, 0.0, 0.0, 0.0, 0.0, 0.0, 0.0, 0.0, 0.0, 0.0, 1.6635914859521325E9, 0.0, 2022-09-19 17:44:45.952
33.0, 35922.20376994655, 51846.8382175968, -39273.93725799766, 970.3115785493349, -187500.02235174447, -123509.81664774618, -12852.610689712847, -21085.227559236, 0.68, -0.74, 0.20800000000000002, 192.0, 0.0, 0.0, 0.0, 0.0, 0.0, 0.0, 0.0, 0.0, 0.0, 1.6635914859551413E9, 0.0, 2022-09-19 17:44:45.955
34.0, 36559.00496947825, 51958.26166370651, -39314.34921197286, 945.7917148818631, -187500.02235174447, -121771.49912971248, -12943.582289645945, -21100.09146929878, 0.68, -0.74, 0.20800000000000002, 192.0, 0.0, 0.0, 0.0, 0.0, 0.0, 0.0, 0.0, 0.0, 0.0, 1.6635914859591932E9, 0.0, 2022-09-19 17:44:45.959
35.0, 35949.7858226044, 51664.24681714139, -39270.69625505165, 902.2281649384696, -187500.02235174447, -122590.7352674884, -13116.629495218933, -21113.927199116613, 0.68, -0.74, 0.20800000000000002, 192.0, 0.0, 0.0, 0.0, 0.0, 0.0, 0.0, 0.0, 0.0, 0.0, 1.66359148596319E9, 0.0, 2022-09-19 17:44:45.963
36.0, 35290.252898961655, 51540.529911581274, -39229.83726618734, 931.8665780862068, -187500.02235174447, -124273.50870055065, -13026.23904064167, -21092.067193039322, 0.68, -0.74, 0.20800000000000002, 192.0, 0.0, 0.0, 0.0, 0.0, 0.0, 0.0, 0.0, 0.0, 0.0, 1.663591485967195E9, 0.0, 2022-09-19 17:44:45.967
37.0, 35337.21391406225, 51645.739572732404, -39246.355205339816, 949.7032701615418, -187500.02235174447, -124612.5623121932, -12941.972964045164, -21094.280015740398, 0.68, -0.74, 0.20800000000000002, 192.0, 0.0, 0.0, 0.0, 0.0, 0.0, 0.0, 0.0, 0.0, 0.0, 1.663591485971226E9, 0.0, 2022-09-19 17:44:45.971
38.0, 35916.146447199164, 51854.08018280032, -39278.20644118863, 964.2319040574914, -187500.02235174447, -123566.07598854018, -12849.839073400388, -21098.012757064433, 0.676, -0.74, 0.20600000000000002, 192.0, 21.0, 32.0, 232.0, 224.0, 6.0, 112.0, 0.0, 0.0, 0.0, 1.6635914859762192E9, 0.0, 2022-09-19 17:44:45.976
39.0, 36565.129347459006, 51968.49876266703, -39313.83512185039, 947.2892817603686, -187500.02235174447, -121804.73617371752, -12930.5512226285, -21109.36744324773, 0.676, -0.74, 0.20600000000000002, 192.0, 0.0, 0.0, 0.0, 0.0, 0.0, 0.0, 0.0, 0.0, 0.0, 1.663591485980253E9, 0.0, 2022-09-19 17:44:45.980
40.0, 35967.466052468546, 51684.85512552919, -39262.53786832546, 915.4603976560113, -187500.02235174447, -122600.86060772666, -13102.950227612286, -21116.385891006696, 0.676, -0.74, 0.20600000000000002, 192.0, 0.0, 0.0, 0.0, 0.0, 0.0, 0.0, 0.0, 0.0, 0.0, 1.6635914859832177E9, 0.0, 2022-09-19 17:44:45.983
41.0, 35294.47737866371, 51536.50659757932, -39227.44562953063, 930.6819356300755, -187500.02235174447, -124295.27929965012, -13016.58308703698, -21106.484068212994, 0.676, -0.74, 0.20600000000000002, 192.0, 0.0, 0.0, 0.0, 0.0, 0.0, 0.0, 0.0, 0.0, 0.0, 1.6635914859872365E9, 0.0, 2022-09-19 17:44:45.987
42.0, 35345.79698393309, 51641.939776175, -39235.022870900975, 960.5438662223658, -187500.02235174447, -124632.41066126952, -12928.807786560988, -21089.809666849338, 0.676, -0.74, 0.20600000000000002, 192.0, 0.0, 0.0, 0.0, 0.0, 0.0, 0.0, 0.0, 0.0, 0.0, 1.6635914859912007E9, 0.0, 2022-09-19 17:44:45.991
43.0, 35922.11436296873, 51858.66229041365, -39264.05778694842, 977.821764686318, -187500.02235174447, -123592.31693653071, -12840.294878517972, -21088.73678311548, 0.676, -0.74, 0.20600000000000002, 192.0, 0.0, 0.0, 0.0, 0.0, 0.0, 0.0, 0.0, 0.0, 0.0, 1.6635914859952588E9, 0.0, 2022-09-19 17:44:45.995
44.0, 36567.699798071364, 51987.9224285987, -39298.59123213187, 965.5283052358992, -187500.02235174447, -121833.5028688315, -12922.214021946673, -21095.93404483009, 0.676, -0.74, 0.20600000000000002, 192.0, 0.0, 0.0, 0.0, 0.0, 0.0, 0.0, 0.0, 0.0, 0.0, 1.6635914859992397E9, 0.0, 2022-09-19 17:44:45.999
45.0, 35971.64582868169, 51696.634494857135, -39270.15981318472, 917.9637930350058, -187500.02235174447, -122618.69729980199, -13116.383626029925, -21110.239161281486, 0.676, -0.74, 0.20600000000000002, 192.0, 0.0, 0.0, 0.0, 0.0, 0.0, 0.0, 0.0, 0.0, 0.0, 1.6635914860032668E9, 0.0, 2022-09-19 17:44:46.003
46.0, 35294.83500657499, 51542.1168854376, -39230.977205154566, 923.5517291488326, -187500.02235174447, -124310.70200332427, -13022.260430128626, -21105.679405412604, 0.676, -0.74, 0.20600000000000002, 192.0, 0.0, 0.0, 0.0, 0.0, 0.0, 0.0, 0.0, 0.0, 0.0, 1.6635914860092585E9, 0.0, 2022-09-19 17:44:46.009
47.0, 35341.080765853025, 51644.01848840934, -39245.215266372594, 946.0599358153268, -187500.02235174447, -124650.89555393405, -12941.347115200415, -21096.515190185928, 0.676, -0.74, 0.20600000000000002, 192.0, 0.0, 0.0, 0.0, 0.0, 0.0, 0.0, 0.0, 0.0, 0.0, 1.663591486013307E9, 0.0, 2022-09-19 17:44:46.013
48.0, 35928.14933397166, 51861.7915346374, -39271.67973180768, 970.3115785493349, -187500.02235174447, -123598.35190753364, -12847.40273325476, -21090.144943016167, 0.676, -0.74, 0.21, 192.0, 21.0, 32.0, 232.0, 224.0, 6.0, 144.0, 0.0, 0.0, 0.0, 1.6635914860162754E9, 0.0, 2022-09-19 17:44:46.016
49.0, 36584.59771687957, 51979.65228315024, -39320.87592135381, 947.6692614161088, -187500.02235174447, -121817.43196456814, -12945.169263502272, -21105.99232983498, 0.676, -0.74, 0.21, 192.0, 0.0, 0.0, 0.0, 0.0, 0.0, 0.0, 0.0, 0.0, 0.0, 1.663591486019274E9, 0.0, 2022-09-19 17:44:46.019
50.0, 35981.5923549643, 51684.22927668444, -39285.13548196977, 902.2058131940142, -187500.02235174447, -122591.80815122226, -13128.230050591237, -21119.60454220826, 0.676, -0.74, 0.21, 192.0, 0.0, 0.0, 0.0, 0.0, 0.0, 0.0, 0.0, 0.0, 0.0, 1.66359148602333E9, 0.0, 2022-09-19 17:44:46.023
51.0, 35295.68437286429, 51535.59017605665, -39240.700213992626, 916.1533017341259, -187500.02235174447, -124287.59029955749, -13023.757997007133, -21112.206114793553, 0.676, -0.74, 0.21, 192.0, 0.0, 0.0, 0.0, 0.0, 0.0, 0.0, 0.0, 0.0, 0.0, 1.6635914860273054E9, 0.0, 2022-09-19 17:44:46.027
52.0, 35344.90291415488, 51642.1409418751, -39248.07628966287, 950.0161945839161, -187500.02235174447, -124626.8674286446, -12940.855376822397, -21095.330547729798, 0.676, -0.74, 0.21, 192.0, 0.0, 0.0, 0.0, 0.0, 0.0, 0.0, 0.0, 0.0, 0.0, 1.6635914860323553E9, 0.0, 2022-09-19 17:44:46.032
53.0, 35919.34274665627, 51852.22498801053, -39276.93239175468, 967.3611482812344, -187500.02235174447, -123590.39468650756, -12848.766189666532, -21100.359690232242, 0.676, -0.74, 0.21, 192.0, 0.0, 0.0, 0.0, 0.0, 0.0, 0.0, 0.0, 0.0, 0.0, 1.6635914860363617E9, 0.0, 2022-09-19 17:44:46.036
54.0, 36574.539431874684, 51972.74559411354, -39313.611604405836, 948.4739242164999, -187500.02235174447, -121808.2006941081, -12929.053655749996, -21113.61427469424, 0.676, -0.74, 0.21, 192.0, 0.0, 0.0, 0.0, 0.0, 0.0, 0.0, 0.0, 0.0, 0.0, 1.6635914860393164E9, 0.0, 2022-09-19 17:44:46.039
55.0, 35976.22793629503, 51680.22831442694, -39274.63016207578, 909.0007435084276, -187500.02235174447, -122579.29117432729, -13122.083320866028, -21119.984521864, 0.676, -0.74, 0.21, 192.0, 0.0, 0.0, 0.0, 0.0, 0.0, 0.0, 0.0, 0.0, 0.0, 1.6635914860433583E9, 0.0, 2022-09-19 17:44:46.043
56.0, 35298.45598917675, 51538.495902835835, -39233.122972622274, 930.8160460968073, -187500.02235174447, -124275.27448836261, -13031.402293610847, -21101.52198094392, 0.676, -0.74, 0.21, 192.0, 0.0, 0.0, 0.0, 0.0, 0.0, 0.0, 0.0, 0.0, 0.0, 1.6635914860473332E9, 0.0, 2022-09-19 17:44:46.047
57.0, 35343.450050765285, 51642.49856978638, -39240.07436514788, 954.1512673081479, -187500.02235174447, -124622.12885882007, -12932.361713929382, -21090.59197790527, 0.676, -0.74, 0.21, 192.0, 0.0, 0.0, 0.0, 0.0, 0.0, 0.0, 0.0, 0.0, 0.0, 1.6635914860513728E9, 0.0, 2022-09-19 17:44:46.051
58.0, 35915.945281499065, 51852.71672638854, -39266.561182327416, 969.7080814490416, -187500.02235174447, -123595.33442203217, -12835.221032526617, -21087.88741682618, 0.67, -0.736, 0.214, 192.0, 20.0, 240.0, 233.0, 0.0, 6.0, 176.0, 0.0, 0.0, 0.0, 1.663591486057339E9, 0.0, 2022-09-19 17:44:46.057
59.0, 36575.29939118617, 51977.64062614926, -39308.6271653923, 948.0939445607597, -187500.02235174447, -121812.44752555461, -12927.287867938026, -21097.945701831068, 0.67, -0.736, 0.214, 192.0, 0.0, 0.0, 0.0, 0.0, 0.0, 0.0, 0.0, 0.0, 0.0, 1.663591486060356E9, 0.0, 2022-09-19 17:44:46.060
60.0, 35979.84891889679, 51680.85416327169, -39285.694275581154, 900.6411910821428, -187500.02235174447, -122576.8324824372, -13131.35929481498, -21117.302312529366, 0.67, -0.736, 0.214, 192.0, 0.0, 0.0, 0.0, 0.0, 0.0, 0.0, 0.0, 0.0, 0.0, 1.663591486065405E9, 0.0, 2022-09-19 17:44:46.065
61.0, 35294.723247852715, 51538.361792369105, -39246.690481506645, 920.0648570138046, -187500.02235174447, -124288.52907282462, -13043.069904216518, -21109.255684525455, 0.67, -0.736, 0.214, 192.0, 0.0, 0.0, 0.0, 0.0, 0.0, 0.0, 0.0, 0.0, 0.0, 1.6635914860683775E9, 0.0, 2022-09-19 17:44:46.068
62.0, 35340.96900713075, 51651.349860590686, -39241.750745982026, 955.6711859311088, -187500.02235174447, -124638.53503925027, -12926.662019093279, -21087.060402281335, 0.67, -0.736, 0.214, 192.0, 0.0, 0.0, 0.0, 0.0, 0.0, 0.0, 0.0, 0.0, 0.0, 1.6635914860724087E9, 0.0, 2022-09-19 17:44:46.072
63.0, 35915.028859976395, 51866.239531784006, -39267.745824783546, 971.0938896052706, -187500.02235174447, -123616.79209670927, -12831.7788638805, -21081.718335356516, 0.67, -0.736, 0.214, 192.0, 0.0, 0.0, 0.0, 0.0, 0.0, 0.0, 0.0, 0.0, 0.0, 1.6635914860755017E9, 0.0, 2022-09-19 17:44:46.075
64.0, 36578.875670299014, 51993.80093739044, -39301.74282810007, 956.2970347758574, -187500.02235174447, -121833.12288917576, -12919.867088778865, -21093.36359421773, 0.67, -0.736, 0.214, 192.0, 0.0, 0.0, 0.0, 0.0, 0.0, 0.0, 0.0, 0.0, 0.0, 1.66359148607941E9, 0.0, 2022-09-19 17:44:46.079
65.0, 35992.99174463651, 51704.5023089054, -39269.556316084425, 914.052237755327, -187500.02235174447, -122584.16385461854, -13119.334056298025, -21104.42770772311, 0.67, -0.736, 0.214, 192.0, 0.0, 0.0, 0.0, 0.0, 0.0, 0.0, 0.0, 0.0, 0.0, 1.6635914860834048E9, 0.0, 2022-09-19 17:44:46.083
66.0, 35289.470587905715, 51548.17420818499, -39238.599150013826, 923.2611564709135, -187500.02235174447, -124314.83707604851, -13039.314811148026, -21105.120611801223, 0.67, -0.736, 0.214, 192.0, 0.0, 0.0, 0.0, 0.0, 0.0, 0.0, 0.0, 0.0, 0.0, 1.6635914860874336E9, 0.0, 2022-09-19 17:44:46.087
67.0, 35328.58614070251, 51644.82315120973, -39242.26483610449, 958.018119098916, -187500.02235174447, -124685.40664737305, -12938.329629698948, -21091.709565128036, 0.67, -0.736, 0.214, 192.0, 0.0, 0.0, 0.0, 0.0, 0.0, 0.0, 0.0, 0.0, 0.0, 1.663591486092474E9, 0.0, 2022-09-19 17:44:46.092
68.0, 35906.73636278348, 51858.46112471356, -39264.28130439297, 983.9461426670722, -187500.02235174447, -123673.7890450703, -12845.614593698336, -21084.735820857983, 0.672, -0.736, 0.216, 192.0, 21.0, 0.0, 233.0, 0.0, 6.0, 192.0, 0.0, 0.0, 0.0, 1.6635914860954206E9, 0.0, 2022-09-19 17:44:46.095
69.0, 36581.44612091138, 51990.112899555315, -39304.33563045688, 966.6682442031198, -187500.02235174447, -121878.72044786459, -12929.500690639103, -21095.487009940985, 0.672, -0.736, 0.216, 192.0, 0.0, 0.0, 0.0, 0.0, 0.0, 0.0, 0.0, 0.0, 0.0, 1.6635914860994759E9, 0.0, 2022-09-19 17:44:46.099
70.0, 35993.327020803335, 51690.063081987275, -39269.31044689542, 919.8636913137069, -187500.02235174447, -122626.25218942789, -13112.248553305693, -21115.782393906404, 0.672, -0.736, 0.216, 192.0, 0.0, 0.0, 0.0, 0.0, 0.0, 0.0, 0.0, 0.0, 0.0, 1.663591486103488E9, 0.0, 2022-09-19 17:44:46.103
71.0, 35300.08766652199, 51539.63584180306, -39218.19200732613, 948.339813749768, -187500.02235174447, -124351.89626835541, -13010.52576428959, -21097.252797752953, 0.672, -0.736, 0.216, 192.0, 0.0, 0.0, 0.0, 0.0, 0.0, 0.0, 0.0, 0.0, 0.0, 1.663591486107442E9, 0.0, 2022-09-19 17:44:46.107
72.0, 35331.80479190407, 51638.542311017794, -39243.85180996082, 962.8907993901729, -187500.02235174447, -124731.5406479288, -12938.955478543698, -21096.515190185928, 0.672, -0.736, 0.216, 192.0, 0.0, 0.0, 0.0, 0.0, 0.0, 0.0, 0.0, 0.0, 0.0, 1.6635914861114707E9, 0.0, 2022-09-19 17:44:46.111
73.0, 35901.5731098143, 51857.32118574634, -39264.326007881886, 979.922828665117, -187500.02235174447, -123728.99785387491, -12831.510642947036, -21090.569626160817, 0.672, -0.736, 0.216, 192.0, 0.0, 0.0, 0.0, 0.0, 0.0, 0.0, 0.0, 0.0, 0.0, 1.6635914861154604E9, 0.0, 2022-09-19 17:44:46.115
74.0, 36578.65215285446, 52002.92044912821, -39302.88276706729, 966.2659128029243, -187500.02235174447, -121926.24025657658, -12914.390911387314, -21098.549198931363, 0.672, -0.736, 0.216, 192.0, 0.0, 0.0, 0.0, 0.0, 0.0, 0.0, 0.0, 0.0, 0.0, 1.6635914861206348E9, 0.0, 2022-09-19 17:44:46.120
75.0, 35999.98784065102, 51713.91239332109, -39259.67684503518, 927.731505361975, -187500.02235174447, -122653.83424208574, -13100.044500833095, -21107.624007180217, 0.672, -0.736, 0.216, 192.0, 0.0, 0.0, 0.0, 0.0, 0.0, 0.0, 0.0, 0.0, 0.0, 1.6635914861234891E9, 0.0, 2022-09-19 17:44:46.123
76.0, 35293.806826330045, 51548.73300179637, -39219.62251897127, 943.534188691877, -187500.02235174447, -124392.46468454179, -13012.090386401462, -21096.694004141573, 0.672, -0.736, 0.216, 192.0, 0.0, 0.0, 0.0, 0.0, 0.0, 0.0, 0.0, 0.0, 0.0, 1.66359148612649E9, 0.0, 2022-09-19 17:44:46.126
77.0, 35325.99333834569, 51645.71722098794, -39240.543751781435, 969.2386948154801, -187500.02235174447, -124778.52401477385, -12934.999219775107, -21095.37525121871, 0.672, -0.736, 0.216, 192.0, 0.0, 0.0, 0.0, 0.0, 0.0, 0.0, 0.0, 0.0, 0.0, 1.6635914861314857E9, 0.0, 2022-09-19 17:44:46.131
78.0, 35886.575089284794, 51852.113229288254, -39273.892554508755, 984.8849159341951, -187500.02235174447, -123790.97924124949, -12849.25792804455, -21098.191571020077, 0.674, -0.734, 0.21, 192.0, 21.0, 16.0, 233.0, 16.0, 6.0, 144.0, 0.0, 0.0, 0.0, 1.6635914861354868E9, 0.0, 2022-09-19 17:44:46.135
79.0, 36571.16431846194, 51997.08664382537, -39301.787531588976, 979.274628075913, -187500.02235174447, -121983.66188808226, -12915.441443376714, -21100.09146929878, 0.674, -0.734, 0.21, 192.0, 0.0, 0.0, 0.0, 0.0, 0.0, 0.0, 0.0, 0.0, 0.0, 1.6635914861395655E9, 0.0, 2022-09-19 17:44:46.139
80.0, 36000.524282517945, 51712.504233420404, -39265.73416778257, 937.2980519888464, -187500.02235174447, -122697.04016411785, -13106.817079403054, -21111.446155482074, 0.674, -0.734, 0.21, 192.0, 0.0, 0.0, 0.0, 0.0, 0.0, 0.0, 0.0, 0.0, 0.0, 1.6635914861435375E9, 0.0, 2022-09-19 17:44:46.143
81.0, 35300.28883222209, 51551.97400474239, -39220.94127189413, 949.5468079503546, -187500.02235174447, -124425.16528667991, -13008.067072399506, -21102.88543735569, 0.674, -0.734, 0.21, 192.0, 0.0, 0.0, 0.0, 0.0, 0.0, 0.0, 0.0, 0.0, 0.0, 1.6635914861475344E9, 0.0, 2022-09-19 17:44:46.147
82.0, 35330.95542561477, 51649.874645456635, -39235.53696102345, 972.8820291616952, -187500.02235174447, -124804.67555578657, -12924.091568480919, -21090.904902327646, 0.674, -0.734, 0.21, 192.0, 0.0, 0.0, 0.0, 0.0, 0.0, 0.0, 0.0, 0.0, 0.0, 1.66359148615151E9, 0.0, 2022-09-19 17:44:46.151
83.0, 35890.48664456447, 51860.49513345899, -39265.95768522712, 988.7517677249632, -187500.02235174447, -123815.34264270577, -12840.11606456233, -21084.311137713332, 0.674, -0.734, 0.21, 192.0, 0.0, 0.0, 0.0, 0.0, 0.0, 0.0, 0.0, 0.0, 0.0, 1.663591486154546E9, 0.0, 2022-09-19 17:44:46.154
84.0, 36568.61621959403, 51993.890344368265, -39315.06446779543, 966.9364651365835, -187500.02235174447, -122012.51799017406, -12934.574536630456, -21100.046765809868, 0.674, -0.734, 0.21, 192.0, 0.0, 0.0, 0.0, 0.0, 0.0, 0.0, 0.0, 0.0, 0.0, 1.6635914861595862E9, 0.0, 2022-09-19 17:44:46.159
85.0, 35997.998535394494, 51704.34584669422, -39279.547545855945, 921.9647552925057, -187500.02235174447, -122715.18978061555, -13118.507041753179, -21106.46171646854, 0.674, -0.734, 0.21, 192.0, 0.0, 0.0, 0.0, 0.0, 0.0, 0.0, 0.0, 0.0, 0.0, 1.6635914861635365E9, 0.0, 2022-09-19 17:44:46.163
86.0, 35295.72907635321, 51554.7679727993, -39231.178370854665, 945.0988108037485, -187500.02235174447, -124444.03015900019, -13019.600572538446, -21093.49770468446, 0.674, -0.734, 0.21, 192.0, 0.0, 0.0, 0.0, 0.0, 0.0, 0.0, 0.0, 0.0, 0.0, 1.6635914861675577E9, 0.0, 2022-09-19 17:44:46.167
87.0, 35329.390803502894, 51660.335261861714, -39242.10837389331, 975.5642384963321, -187500.02235174447, -124827.13905896415, -12936.340324442426, -21087.55214065935, 0.674, -0.734, 0.21, 192.0, 0.0, 0.0, 0.0, 0.0, 0.0, 0.0, 0.0, 0.0, 0.0, 1.6635914861715589E9, 0.0, 2022-09-19 17:44:46.171
88.0, 35882.77529272739, 51869.659348685665, -39267.1199759388, 986.8965729351727, -187500.02235174447, -123854.14527108018, -12846.598070454369, -21093.52005642892, 0.674, -0.734, 0.21, 192.0, 0.0, 0.0, 0.0, 0.0, 0.0, 0.0, 0.0, 0.0, 0.0, 1.6635914861755517E9, 0.0, 2022-09-19 17:44:46.175
89.0, 36567.85626028255, 52009.60362072034, -39303.888595567776, 975.5195350074215, -187500.02235174447, -122042.89401088882, -12917.944838755708, -21101.8796088552, 0.672, -0.738, 0.218, 192.0, 21.0, 0.0, 232.0, 240.0, 6.0, 208.0, 0.0, 0.0, 0.0, 1.6635914861795883E9, 0.0, 2022-09-19 17:44:46.179
90.0, 36013.30948034638, 51731.167940040585, -39262.359054369816, 939.019136311905, -187500.02235174447, -122715.77092597139, -13097.764622898654, -21101.0302425659, 0.672, -0.738, 0.218, 192.0, 0.0, 0.0, 0.0, 0.0, 0.0, 0.0, 0.0, 0.0, 0.0, 1.6635914861826043E9, 0.0, 2022-09-19 17:44:46.182
91.0, 35309.967137571235, 51571.30826369623, -39213.47578924606, 955.0229853419048, -187500.02235174447, -124447.31586543511, -13002.590895007956, -21088.55796915984, 0.672, -0.738, 0.218, 192.0, 0.0, 0.0, 0.0, 0.0, 0.0, 0.0, 0.0, 0.0, 0.0, 1.663591486186592E9, 0.0, 2022-09-19 17:44:46.186
92.0, 35331.46951573724, 51657.206017637975, -39232.921806922175, 972.8820291616952, -187500.02235174447, -124842.91939054959, -12921.811690546476, -21087.55214065935, 0.672, -0.738, 0.218, 192.0, 0.0, 0.0, 0.0, 0.0, 0.0, 0.0, 0.0, 0.0, 0.0, 1.6635914861916046E9, 0.0, 2022-09-19 17:44:46.191
93.0, 35880.33895258176, 51855.01895606744, -39262.38140611427, 987.276552590913, -187500.02235174447, -123874.39595155668, -12834.818701126422, -21092.156600017144, 0.672, -0.738, 0.218, 192.0, 0.0, 0.0, 0.0, 0.0, 0.0, 0.0, 0.0, 0.0, 0.0, 1.663591486195666E9, 0.0, 2022-09-19 17:44:46.195
94.0, 36565.75519630375, 52003.81451890642, -39305.78849384648, 976.7488809524633, -187500.02235174447, -122062.89882217633, -12920.135309712328, -21107.93693160259, 0.672, -0.738, 0.218, 192.0, 0.0, 0.0, 0.0, 0.0, 0.0, 0.0, 0.0, 0.0, 0.0, 1.6635914861996536E9, 0.0, 2022-09-19 17:44:46.199
95.0, 36019.45621007159, 51726.965812082984, -39267.92463873919, 940.2037787680363, -187500.02235174447, -122722.74467024145, -13099.955093855275, -21116.609408451248, 0.672, -0.738, 0.218, 192.0, 0.0, 0.0, 0.0, 0.0, 0.0, 0.0, 0.0, 0.0, 0.0, 1.663591486202648E9, 0.0, 2022-09-19 17:44:46.202
96.0, 35317.00793707465, 51571.46472590742, -39212.62642295676, 965.4165465136226, -187500.02235174447, -124456.56948763962, -12999.863982184408, -21093.095373284268, 0.672, -0.738, 0.218, 192.0, 0.0, 0.0, 0.0, 0.0, 0.0, 0.0, 0.0, 0.0, 0.0, 1.663591486206632E9, 0.0, 2022-09-19 17:44:46.206
97.0, 35336.543361728596, 51664.73855551941, -39232.76534471099, 980.1910495985807, -187500.02235174447, -124863.63945765966, -12920.738806812622, -21090.055536038344, 0.672, -0.738, 0.218, 192.0, 0.0, 0.0, 0.0, 0.0, 0.0, 0.0, 0.0, 0.0, 0.0, 1.6635914862106583E9, 0.0, 2022-09-19 17:44:46.210
98.0, 35882.50707179392, 51866.95478760658, -39266.829403260876, 991.6574945041532, -187500.02235174447, -123909.24232116251, -12833.701113903657, -21090.860198838735, 0.672, -0.738, 0.218, 192.0, 0.0, 0.0, 0.0, 0.0, 0.0, 0.0, 0.0, 0.0, 0.0, 1.663591486214684E9, 0.0, 2022-09-19 17:44:46.214
99.0, 36567.2304114378, 52005.15562357374, -39314.28215673949, 973.1502500951589, -187500.02235174447, -122102.8190377735, -12919.17418470075, -21102.527809444407, 0.674, -0.742, 0.21, 192.0, 21.0, 16.0, 232.0, 208.0, 6.0, 144.0, 0.0, 0.0, 0.0, 1.6635914862197063E9, 0.0, 2022-09-19 17:44:46.219
100.0, 36021.154942650195, 51731.458512718506, -39273.17729868618, 934.6828978875755, -187500.02235174447, -122755.80290029084, -13109.543992226601, -21110.596789192772, 0.674, -0.742, 0.21, 192.0, 0.0, 0.0, 0.0, 0.0, 0.0, 0.0, 0.0, 0.0, 0.0, 1.6635914862237127E9, 0.0, 2022-09-19 17:44:46.223
101.0, 35308.24605324818, 51572.93994104146, -39220.6059957273, 952.7878108963741, -187500.02235174447, -124495.30506078067, -13013.789118980065, -21099.487972198483, 0.674, -0.742, 0.21, 192.0, 0.0, 0.0, 0.0, 0.0, 0.0, 0.0, 0.0, 0.0, 0.0, 1.6635914862277188E9, 0.0, 2022-09-19 17:44:46.227
102.0, 35328.362623257955, 51671.242913155904, -39235.82753370137, 977.017101885927, -187500.02235174447, -124900.58689124428, -12925.7008940817, -21096.60459716375, 0.674, -0.742, 0.21, 192.0, 0.0, 0.0, 0.0, 0.0, 0.0, 0.0, 0.0, 0.0, 0.0, 1.6635914862306657E9, 0.0, 2022-09-19 17:44:46.230
103.0, 35882.171795627095, 51880.634055213224, -39260.01212120201, 997.759520740452, -187500.02235174447, -123940.02067327747, -12828.627267912301, -21092.536579672884, 0.674, -0.742, 0.21, 192.0, 0.0, 0.0, 0.0, 0.0, 0.0, 0.0, 0.0, 0.0, 0.0, 1.6635914862348175E9, 0.0, 2022-09-19 17:44:46.234
104.0, 36565.531678859195, 52007.659018952734, -39311.04115379348, 972.6808634615975, -187500.02235174447, -122125.7742793291, -12913.094510208906, -21110.32856825931, 0.674, -0.742, 0.21, 192.0, 0.0, 0.0, 0.0, 0.0, 0.0, 0.0, 0.0, 0.0, 0.0, 1.663591486238749E9, 0.0, 2022-09-19 17:44:46.238
105.0, 36019.79148623842, 51727.6587161611, -39273.19965043064, 932.3583164642235, -187500.02235174447, -122766.62114460721, -13102.346730511992, -21115.871800884226, 0.674, -0.742, 0.21, 192.0, 0.0, 0.0, 0.0, 0.0, 0.0, 0.0, 0.0, 0.0, 0.0, 1.6635914862427447E9, 0.0, 2022-09-19 17:44:46.242
106.0, 35313.252844006165, 51571.53178114078, -39220.62834747176, 957.4146219986227, -187500.02235174447, -124500.91534863894, -13012.33625559047, -21090.055536038344, 0.674, -0.742, 0.21, 192.0, 0.0, 0.0, 0.0, 0.0, 0.0, 0.0, 0.0, 0.0, 0.0, 1.6635914862477317E9, 0.0, 2022-09-19 17:44:46.247
107.0, 35334.39759426089, 51665.02912819733, -39240.543751781435, 973.597284984265, -187500.02235174447, -124905.01253664643, -12927.869013293865, -21088.893245326668, 0.674, -0.742, 0.21, 192.0, 0.0, 0.0, 0.0, 0.0, 0.0, 0.0, 0.0, 0.0, 0.0, 1.6635914862517292E9, 0.0, 2022-09-19 17:44:46.251
108.0, 35878.08142639177, 51862.93147360462, -39276.06067372092, 985.466061290033, -187500.02235174447, -123952.91762982818, -12838.506738961547, -21096.492838441474, 0.674, -0.742, 0.21, 192.0, 0.0, 0.0, 0.0, 0.0, 0.0, 0.0, 0.0, 0.0, 0.0, 1.6635914862557852E9, 0.0, 2022-09-19 17:44:46.255
109.0, 36566.13517595949, 52003.9262776287, -39323.06639231043, 963.4495930015556, -187500.02235174447, -122137.3301312125, -12919.911792267776, -21103.75715538945, 0.676, -0.736, 0.214, 192.0, 21.0, 32.0, 233.0, 0.0, 6.0, 176.0, 0.0, 0.0, 0.0, 1.663591486259796E9, 0.0, 2022-09-19 17:44:46.259
110.0, 36019.76913449397, 51726.78699812735, -39282.76619705751, 915.4380459115561, -187500.02235174447, -122771.00208652046, -13106.884134636419, -21116.89998112917, 0.676, -0.736, 0.214, 192.0, 0.0, 0.0, 0.0, 0.0, 0.0, 0.0, 0.0, 0.0, 0.0, 1.6635914862638016E9, 0.0, 2022-09-19 17:44:46.263
111.0, 35309.676564893314, 51569.83304856218, -39222.371783539274, 941.56723517981, -187500.02235174447, -124506.6373952195, -13003.596723508444, -21096.425783208106, 0.676, -0.736, 0.214, 192.0, 0.0, 0.0, 0.0, 0.0, 0.0, 0.0, 0.0, 0.0, 0.0, 1.6635914862667458E9, 0.0, 2022-09-19 17:44:46.266
112.0, 35330.19546630329, 51663.12922991863, -39237.392155813235, 960.5215144779104, -187500.02235174447, -124915.7860774739, -12921.923449268754, -21091.150771516655, 0.676, -0.736, 0.214, 192.0, 0.0, 0.0, 0.0, 0.0, 0.0, 0.0, 0.0, 0.0, 0.0, 1.6635914862709432E9, 0.0, 2022-09-19 17:44:46.270
113.0, 35866.54792625284, 51864.004357338476, -39272.551449841434, 967.4952587479662, -187500.02235174447, -123978.77859816297, -12840.272526773517, -21094.54823667386, 0.676, -0.736, 0.214, 192.0, 0.0, 0.0, 0.0, 0.0, 0.0, 0.0, 0.0, 0.0, 0.0, 1.663591486274774E9, 0.0, 2022-09-19 17:44:46.274
114.0, 36564.16822244743, 52020.91360341473, -39309.70004912616, 955.9617586090278, -187500.02235174447, -122157.69257041128, -12910.211135174171, -21101.164353032633, 0.676, -0.736, 0.214, 192.0, 0.0, 0.0, 0.0, 0.0, 0.0, 0.0, 0.0, 0.0, 0.0, 1.6635914862797816E9, 0.0, 2022-09-19 17:44:46.279
115.0, 36035.43770735714, 51748.28937629335, -39269.489260851056, 917.4497029125337, -187500.02235174447, -122770.15272023116, -13094.121288552438, -21109.14392580318, 0.676, -0.736, 0.214, 192.0, 0.0, 0.0, 0.0, 0.0, 0.0, 0.0, 0.0, 0.0, 0.0, 1.6635914862838085E9, 0.0, 2022-09-19 17:44:46.283
116.0, 35316.963233585746, 51583.69113012447, -39219.086077104344, 934.1017525317375, -187500.02235174447, -124519.82492444813, -13002.792060708054, -21094.9282163296, 0.676, -0.736, 0.214, 192.0, 0.0, 0.0, 0.0, 0.0, 0.0, 0.0, 0.0, 0.0, 0.0, 1.6635914862868085E9, 0.0, 2022-09-19 17:44:46.286
117.0, 35332.475344237726, 51681.99410223891, -39236.22986510156, 954.888874875173, -187500.02235174447, -124943.01050222047, -12919.55416435649, -21088.245044737465, 0.676, -0.736, 0.214, 192.0, 0.0, 0.0, 0.0, 0.0, 0.0, 0.0, 0.0, 0.0, 0.0, 1.6635914862908304E9, 0.0, 2022-09-19 17:44:46.290
118.0, 35872.69465597805, 51891.72052046306, -39267.54465908345, 965.95298838055, -187500.02235174447, -124011.36744157881, -12841.054837829452, -21088.69207962657, 0.676, -0.736, 0.214, 192.0, 0.0, 0.0, 0.0, 0.0, 0.0, 0.0, 0.0, 0.0, 0.0, 1.6635914862948635E9, 0.0, 2022-09-19 17:44:46.294
119.0, 36567.58803934909, 52034.59287102138, -39311.10820902684, 948.406868983134, -187500.02235174447, -122187.42039053683, -12911.93221949723, -21104.204190278553, 0.674, -0.74, 0.20600000000000002, 192.0, 21.0, 16.0, 232.0, 224.0, 6.0, 112.0, 0.0, 0.0, 0.0, 1.6635914862988596E9, 0.0, 2022-09-19 17:44:46.298
120.0, 36035.057727701394, 51754.97254788549, -39276.84298477686, 909.1795574640701, -187500.02235174447, -122790.29164198539, -13104.313684024059, -21117.436422996096, 0.674, -0.74, 0.20600000000000002, 192.0, 0.0, 0.0, 0.0, 0.0, 0.0, 0.0, 0.0, 0.0, 0.0, 1.6635914863027968E9, 0.0, 2022-09-19 17:44:46.302
121.0, 35306.59202415848, 51582.819412090714, -39227.93736790864, 930.27960422988, -187500.02235174447, -124549.1504131735, -13018.237116126671, -21100.762021632436, 0.674, -0.74, 0.20600000000000002, 192.0, 0.0, 0.0, 0.0, 0.0, 0.0, 0.0, 0.0, 0.0, 0.0, 1.663591486307819E9, 0.0, 2022-09-19 17:44:46.307
122.0, 35313.72223063972, 51665.56557006426, -39240.32023433688, 950.373822495201, -187500.02235174447, -124983.75773236249, -12928.874841794353, -21094.771754118414, 0.674, -0.74, 0.20600000000000002, 192.0, 0.0, 0.0, 0.0, 0.0, 0.0, 0.0, 0.0, 0.0, 0.0, 1.6635914863119352E9, 0.0, 2022-09-19 17:44:46.311
123.0, 35857.58487672626, 51875.22493305504, -39257.732243267565, 975.340721051779, -187500.02235174447, -124053.34401766588, -12826.548555677959, -21086.94864355906, 0.674, -0.74, 0.20600000000000002, 192.0, 0.0, 0.0, 0.0, 0.0, 0.0, 0.0, 0.0, 0.0, 0.0, 1.6635914863148167E9, 0.0, 2022-09-19 17:44:46.314
124.0, 36562.20126893536, 52039.86788271283, -39301.2734414665, 963.2037238125472, -187500.02235174447, -122223.76432702117, -12897.560047812469, -21101.74549838847, 0.674, -0.74, 0.20600000000000002, 192.0, 0.0, 0.0, 0.0, 0.0, 0.0, 0.0, 0.0, 0.0, 0.0, 1.6635914863188603E9, 0.0, 2022-09-19 17:44:46.318
125.0, 36040.51155334849, 51772.36220507172, -39257.28520837846, 928.9384995625616, -187500.02235174447, -122815.12443007523, -13086.991082071196, -21105.545294945874, 0.674, -0.74, 0.20600000000000002, 192.0, 0.0, 0.0, 0.0, 0.0, 0.0, 0.0, 0.0, 0.0, 0.0, 1.66359148632292E9, 0.0, 2022-09-19 17:44:46.322
126.0, 35310.14595152688, 51599.314999498725, -39209.631289199744, 945.8140666263183, -187500.02235174447, -124577.11244548709, -13002.501488030135, -21094.481181440497, 0.674, -0.74, 0.20600000000000002, 192.0, 0.0, 0.0, 0.0, 0.0, 0.0, 0.0, 0.0, 0.0, 0.0, 1.6635914863269107E9, 0.0, 2022-09-19 17:44:46.326
127.0, 35317.41026847485, 51688.54316336432, -39230.37370805427, 958.8004301548517, -187500.02235174447, -125014.06669784388, -12921.364655657371, -21093.765925617925, 0.674, -0.74, 0.20600000000000002, 192.0, 0.0, 0.0, 0.0, 0.0, 0.0, 0.0, 0.0, 0.0, 0.0, 1.6635914863308997E9, 0.0, 2022-09-19 17:44:46.330
128.0, 35856.869620903686, 51893.5980669973, -39260.99559795804, 969.9315988935947, -187500.02235174447, -124089.73265763912, -12833.611706925834, -21096.716355886027, 0.674, -0.74, 0.20600000000000002, 192.0, 0.0, 0.0, 0.0, 0.0, 0.0, 0.0, 0.0, 0.0, 0.0, 1.6635914863358452E9, 0.0, 2022-09-19 17:44:46.335
129.0, 36562.96122824684, 52043.77943799251, -39314.52802592851, 948.5856829387765, -187500.02235174447, -122256.62139137047, -12913.78741428702, -21111.043824081877, 0.678, -0.742, 0.2, 192.0, 21.0, 48.0, 232.0, 208.0, 6.0, 64.0, 0.0, 0.0, 0.0, 1.663591486339886E9, 0.0, 2022-09-19 17:44:46.339
130.0, 36043.394928383226, 51772.16103937162, -39274.026664975485, 911.1241592316818, -187500.02235174447, -122840.44895654308, -13106.034768347117, -21116.74351891798, 0.678, -0.742, 0.2, 192.0, 0.0, 0.0, 0.0, 0.0, 0.0, 0.0, 0.0, 0.0, 0.0, 1.6635914863428748E9, 0.0, 2022-09-19 17:44:46.342
131.0, 35314.61630041794, 51602.332485000195, -39214.07928634635, 935.2193397545028, -187500.02235174447, -124606.19206502344, -13012.269200357105, -21098.437440209083, 0.678, -0.742, 0.2, 192.0, 0.0, 0.0, 0.0, 0.0, 0.0, 0.0, 0.0, 0.0, 0.0, 1.6635914863469317E9, 0.0, 2022-09-19 17:44:46.346
132.0, 35326.66389067935, 51695.8521838012, -39228.92084466467, 956.0735173313043, -187500.02235174447, -125045.35914008132, -12934.105149996896, -21092.558931417338, 0.678, -0.742, 0.2, 192.0, 0.0, 0.0, 0.0, 0.0, 0.0, 0.0, 0.0, 0.0, 0.0, 1.6635914863508856E9, 0.0, 2022-09-19 17:44:46.350
133.0, 35870.75005421043, 51904.57277352486, -39257.64283628975, 972.792622183874, -187500.02235174447, -124124.17669584474, -12835.042218570974, -21088.714431371027, 0.678, -0.742, 0.2, 192.0, 0.0, 0.0, 0.0, 0.0, 0.0, 0.0, 0.0, 0.0, 0.0, 1.663591486354895E9, 0.0, 2022-09-19 17:44:46.354
134.0, 36576.19346096438, 52051.088458429396, -39305.564976401925, 952.6984039185529, -187500.02235174447, -122290.43958073136, -12911.328722396938, -21105.545294945874, 0.678, -0.742, 0.2, 192.0, 0.0, 0.0, 0.0, 0.0, 0.0, 0.0, 0.0, 0.0, 0.0, 1.6635914863588884E9, 0.0, 2022-09-19 17:44:46.358
135.0, 36046.14419295123, 51762.52743751138, -39281.26863017901, 897.601353836221, -187500.02235174447, -122872.0543232029, -13112.36031202797, -21130.802766180368, 0.678, -0.742, 0.2, 192.0, 0.0, 0.0, 0.0, 0.0, 0.0, 0.0, 0.0, 0.0, 0.0, 1.6635914863638792E9, 0.0, 2022-09-19 17:44:46.363
136.0, 35307.2849282366, 51587.848554593154, -39222.75176319501, 921.0930372587487, -187500.02235174447, -124648.07923413269, -13012.984456179674, -21115.51417297294, 0.678, -0.742, 0.2, 192.0, 0.0, 0.0, 0.0, 0.0, 0.0, 0.0, 0.0, 0.0, 0.0, 1.663591486367911E9, 0.0, 2022-09-19 17:44:46.367
137.0, 35311.710573638746, 51682.75406155039, -39234.97816741207, 948.6750899165977, -187500.02235174447, -125095.85173080585, -12925.052693492496, -21106.84169612428, 0.678, -0.742, 0.2, 192.0, 0.0, 0.0, 0.0, 0.0, 0.0, 0.0, 0.0, 0.0, 0.0, 1.6635914863709338E9, 0.0, 2022-09-19 17:44:46.370
138.0, 35843.168001552585, 51889.865325673265, -39267.00821721652, 962.3320057787903, -187500.02235174447, -124190.89665304383, -12837.523262205514, -21113.726033416515, 0.678, -0.742, 0.2, 192.0, 0.0, 0.0, 0.0, 0.0, 0.0, 0.0, 0.0, 0.0, 0.0, 1.6635914863750045E9, 0.0, 2022-09-19 17:44:46.375
139.0, 36555.89807699896, 52051.60254855187, -39311.644650893766, 949.0774213167932, -187500.02235174447, -122353.02446520621, -12906.523097339046, -21124.588981221794, 0.674, -0.738, 0.20600000000000002, 192.0, 21.0, 16.0, 232.0, 240.0, 6.0, 112.0, 0.0, 0.0, 0.0, 1.6635914863789754E9, 0.0, 2022-09-19 17:44:46.378
140.0, 36035.616521312775, 51777.726623740986, -39277.804109788434, 900.8200050377852, -187500.02235174447, -122920.69171913764, -13104.939532868808, -21137.08360637231, 0.674, -0.738, 0.20600000000000002, 192.0, 0.0, 0.0, 0.0, 0.0, 0.0, 0.0, 0.0, 0.0, 0.0, 1.6635914863829775E9, 0.0, 2022-09-19 17:44:46.382
141.0, 35297.00312578716, 51613.39659850557, -39219.80133292691, 922.8141215818074, -187500.02235174447, -124695.95667075596, -13015.6219620254, -21117.034091595902, 0.674, -0.738, 0.20600000000000002, 192.0, 0.0, 0.0, 0.0, 0.0, 0.0, 0.0, 0.0, 0.0, 0.0, 1.6635914863869565E9, 0.0, 2022-09-19 17:44:46.386
142.0, 35308.60368115946, 51710.336114208236, -39231.91597842169, 948.9656625945166, -187500.02235174447, -125142.790394162, -12925.7008940817, -21106.260550768442, 0.674, -0.738, 0.20600000000000002, 192.0, 0.0, 0.0, 0.0, 0.0, 0.0, 0.0, 0.0, 0.0, 0.0, 1.6635914863919632E9, 0.0, 2022-09-19 17:44:46.391
143.0, 35853.315693535296, 51919.03435218744, -39243.02479541598, 979.6546077316533, -187500.02235174447, -124227.77703139509, -12811.572886892902, -21091.79897210586, 0.674, -0.738, 0.20600000000000002, 192.0, 0.0, 0.0, 0.0, 0.0, 0.0, 0.0, 0.0, 0.0, 0.0, 1.6635914863959823E9, 0.0, 2022-09-19 17:44:46.395
144.0, 36567.54333586017, 52072.43437438421, -39294.41145591873, 962.9802063679941, -187500.02235174447, -122384.42866616591, -12890.720414009145, -21110.395623492674, 0.674, -0.738, 0.20600000000000002, 192.0, 0.0, 0.0, 0.0, 0.0, 0.0, 0.0, 0.0, 0.0, 0.0, 1.6635914863989842E9, 0.0, 2022-09-19 17:44:46.398
145.0, 36051.55331510941, 51790.53417331388, -39275.16660394271, 909.0677987417936, -187500.02235174447, -122937.07554782338, -13106.146527069393, -21132.61325748125, 0.674, -0.738, 0.20600000000000002, 192.0, 0.0, 0.0, 0.0, 0.0, 0.0, 0.0, 0.0, 0.0, 0.0, 1.663591486402974E9, 0.0, 2022-09-19 17:44:46.402
146.0, 35313.14108528389, 51622.56081373225, -39219.19783582662, 933.9899938094609, -187500.02235174447, -124709.14419998458, -13016.270162614604, -21113.301350271864, 0.674, -0.738, 0.20600000000000002, 192.0, 0.0, 0.0, 0.0, 0.0, 0.0, 0.0, 0.0, 0.0, 0.0, 1.663591486406975E9, 0.0, 2022-09-19 17:44:46.406
147.0, 35318.70666965326, 51724.97650682647, -39222.774114939464, 965.7294709359969, -187500.02235174447, -125159.6436094813, -12915.150870698795, -21100.47144895452, 0.674, -0.738, 0.20600000000000002, 192.0, 0.0, 0.0, 0.0, 0.0, 0.0, 0.0, 0.0, 0.0, 0.0, 1.66359148641107E9, 0.0, 2022-09-19 17:44:46.411
148.0, 35847.48188823246, 51932.33364013835, -39255.89940022223, 973.6196367287204, -187500.02235174447, -124263.85274694595, -12827.196756267162, -21105.65705366815, 0.674, -0.738, 0.20600000000000002, 192.0, 0.0, 0.0, 0.0, 0.0, 0.0, 0.0, 0.0, 0.0, 0.0, 1.663591486414989E9, 0.0, 2022-09-19 17:44:46.414
149.0, 36569.55499286115, 52088.52763039203, -39302.94982230065, 955.0453370863602, -187500.02235174447, -122408.70266064438, -12898.051786190485, -21113.2342950385, 0.676, -0.74, 0.2, 192.0, 21.0, 32.0, 232.0, 224.0, 6.0, 64.0, 0.0, 0.0, 0.0, 1.6635914864191084E9, 0.0, 2022-09-19 17:44:46.419
150.0, 36060.38225416926, 51803.72170254251, -39274.69721730915, 901.8705370271847, -187500.02235174447, -122942.73053917057, -13100.73740491121, -21128.589943479295, 0.676, -0.74, 0.2, 192.0, 0.0, 0.0, 0.0, 0.0, 0.0, 0.0, 0.0, 0.0, 0.0, 1.6635914864241283E9, 0.0, 2022-09-19 17:44:46.424
151.0, 35314.0351550621, 51629.13222660211, -39215.28628054694, 921.3165547033018, -187500.02235174447, -124723.38226120261, -13009.698749744744, -21115.760042161946, 0.676, -0.74, 0.2, 192.0, 0.0, 0.0, 0.0, 0.0, 0.0, 0.0, 0.0, 0.0, 0.0, 1.6635914864270687E9, 0.0, 2022-09-19 17:44:46.427
152.0, 35317.32086149703, 51724.261251003896, -39229.14436210923, 947.4233922271005, -187500.02235174447, -125185.10224641589, -12924.918583025765, -21106.349957746264, 0.676, -0.74, 0.2, 192.0, 0.0, 0.0, 0.0, 0.0, 0.0, 0.0, 0.0, 0.0, 0.0, 1.663591486431056E9, 0.0, 2022-09-19 17:44:46.431
153.0, 35852.93571387955, 51926.70100053561, -39259.140403168254, 961.5496947228545, -187500.02235174447, -124288.03733444659, -12835.802177882455, -21106.394661235176, 0.676, -0.74, 0.2, 192.0, 0.0, 0.0, 0.0, 0.0, 0.0, 0.0, 0.0, 0.0, 0.0, 1.6635914864350824E9, 0.0, 2022-09-19 17:44:46.435
154.0, 36570.53846961719, 52087.83472631392, -39302.614546133824, 945.8587701152289, -187500.02235174447, -122434.27305630124, -12901.672768792245, -21122.197344565076, 0.676, -0.74, 0.2, 192.0, 0.0, 0.0, 0.0, 0.0, 0.0, 0.0, 0.0, 0.0, 0.0, 1.66359148643907E9, 0.0, 2022-09-19 17:44:46.439
155.0, 36071.513422908, 51813.243545680474, -39272.73026379708, 901.6246678381763, -187500.02235174447, -122951.00068461904, -13106.526506725135, -21132.99323713699, 0.676, -0.74, 0.2, 192.0, 0.0, 0.0, 0.0, 0.0, 0.0, 0.0, 0.0, 0.0, 0.0, 1.663591486443118E9, 0.0, 2022-09-19 17:44:46.443
156.0, 35322.0370795771, 51636.08361912771, -39220.62834747176, 920.4001331806343, -187500.02235174447, -124726.690319382, -13020.271124872104, -21117.861106140746, 0.676, -0.74, 0.2, 192.0, 0.0, 0.0, 0.0, 0.0, 0.0, 0.0, 0.0, 0.0, 0.0, 1.663591486447098E9, 0.0, 2022-09-19 17:44:46.447
157.0, 35318.86313186445, 51743.97548961348, -39232.74299296654, 952.0054998404385, -187500.02235174447, -125185.05754292698, -12934.708647097188, -21106.014681579432, 0.676, -0.74, 0.2, 192.0, 0.0, 0.0, 0.0, 0.0, 0.0, 0.0, 0.0, 0.0, 0.0, 1.663591486452068E9, 0.0, 2022-09-19 17:44:46.452
158.0, 35848.979455110966, 51948.60571010181, -39255.74293801105, 972.5467529948656, -187500.02235174447, -124292.6864972933, -12840.071361073418, -21101.231408265998, 0.676, -0.74, 0.2, 192.0, 0.0, 0.0, 0.0, 0.0, 0.0, 0.0, 0.0, 0.0, 0.0, 1.663591486455068E9, 0.0, 2022-09-19 17:44:46.455
159.0, 36575.90288828646, 52105.13497652233, -39294.63497336328, 962.3767092677009, -187500.02235174447, -122431.52379173324, -12889.491068064102, -21107.534600202394, 0.672, -0.734, 0.2, 192.0, 21.0, 0.0, 233.0, 16.0, 6.0, 64.0, 0.0, 0.0, 0.0, 1.663591486459056E9, 0.0, 2022-09-19 17:44:46.459
160.0, 36090.55710918392, 51838.85864482626, -39264.99656021554, 918.2767174573801, -187500.02235174447, -122925.31853023989, -13091.148506539883, -21114.329530516807, 0.672, -0.734, 0.2, 192.0, 0.0, 0.0, 0.0, 0.0, 0.0, 0.0, 0.0, 0.0, 0.0, 1.6635914864631152E9, 0.0, 2022-09-19 17:44:46.463
161.0, 35348.36743454545, 51667.71133753197, -39208.89368163272, 937.275700244391, -187500.02235174447, -124692.89448176557, -13004.736662475665, -21098.70566114255, 0.672, -0.734, 0.2, 192.0, 0.0, 0.0, 0.0, 0.0, 0.0, 0.0, 0.0, 0.0, 0.0, 1.6635914864670937E9, 0.0, 2022-09-19 17:44:46.467
162.0, 35335.693995439295, 51745.987146614454, -39225.38926904074, 952.921921363106, -187500.02235174447, -125159.86712692585, -12918.637742833824, -21101.94666408857, 0.672, -0.734, 0.2, 192.0, 0.0, 0.0, 0.0, 0.0, 0.0, 0.0, 0.0, 0.0, 0.0, 1.6635914864711576E9, 0.0, 2022-09-19 17:44:46.471
163.0, 35853.33804527975, 51942.41427688769, -39252.32312110938, 970.2668750604242, -187500.02235174447, -124280.97418319872, -12830.05777955744, -21098.973882076014, 0.672, -0.734, 0.2, 192.0, 0.0, 0.0, 0.0, 0.0, 0.0, 0.0, 0.0, 0.0, 0.0, 1.6635914864751601E9, 0.0, 2022-09-19 17:44:46.475
164.0, 36571.49959462877, 52099.97172355315, -39305.05088627945, 954.598302197254, -187500.02235174447, -122426.13702131952, -12905.539620583013, -21113.323702016318, 0.672, -0.734, 0.2, 192.0, 0.0, 0.0, 0.0, 0.0, 0.0, 0.0, 0.0, 0.0, 0.0, 1.6635914864801676E9, 0.0, 2022-09-19 17:44:46.480
165.0, 36081.415245701704, 51833.985964535, -39276.23948767656, 908.1290254746707, -187500.02235174447, -122914.00854754551, -13110.281599793625, -21124.74544343298, 0.672, -0.734, 0.2, 192.0, 0.0, 0.0, 0.0, 0.0, 0.0, 0.0, 0.0, 0.0, 0.0, 1.663591486483168E9, 0.0, 2022-09-19 17:44:46.483
166.0, 35328.832009891514, 51655.41787808155, -39213.60989971279, 924.311688460313, -187500.02235174447, -124688.1335601966, -13011.106909645428, -21105.79116413488, 0.672, -0.734, 0.2, 192.0, 0.0, 0.0, 0.0, 0.0, 0.0, 0.0, 0.0, 0.0, 0.0, 1.6635914864862027E9, 0.0, 2022-09-19 17:44:46.486
167.0, 35318.81842837553, 51749.71988793849, -39230.396059798724, 944.6517759146424, -187500.02235174447, -125153.38512103382, -12924.918583025765, -21098.79506812037, 0.672, -0.734, 0.2, 192.0, 0.0, 0.0, 0.0, 0.0, 0.0, 0.0, 0.0, 0.0, 0.0, 1.6635914864912016E9, 0.0, 2022-09-19 17:44:46.491
168.0, 35841.692786418535, 51962.24027421955, -39253.32894960987, 959.2474650439578, -187500.02235174447, -124269.82066271552, -12832.896451103265, -21090.904902327646, 0.672, -0.734, 0.2, 192.0, 0.0, 0.0, 0.0, 0.0, 0.0, 0.0, 0.0, 0.0, 0.0, 1.6635914864951336E9, 0.0, 2022-09-19 17:44:46.495
169.0, 36567.565687604634, 52127.95610761119, -39294.0761797519, 948.2057032830362, -187500.02235174447, -122406.0875065431, -12888.708757008168, -21100.98553907699, 0.674, -0.738, 0.2, 192.0, 21.0, 16.0, 232.0, 240.0, 6.0, 64.0, 0.0, 0.0, 0.0, 1.663591486499159E9, 0.0, 2022-09-19 17:44:46.499
170.0, 36081.23643174606, 51864.496095716495, -39266.73999628305, 907.1902522075477, -187500.02235174447, -122881.17383494067, -13091.528486195622, -21114.84362063928, 0.674, -0.738, 0.2, 192.0, 0.0, 0.0, 0.0, 0.0, 0.0, 0.0, 0.0, 0.0, 0.0, 1.6635914865032225E9, 0.0, 2022-09-19 17:44:46.503
171.0, 35321.85826562146, 51685.25745692939, -39218.75080093751, 924.2669849714024, -187500.02235174447, -124663.54664129576, -13017.90183995984, -21105.008853078947, 0.674, -0.738, 0.2, 192.0, 0.0, 0.0, 0.0, 0.0, 0.0, 0.0, 0.0, 0.0, 0.0, 1.6635914865081944E9, 0.0, 2022-09-19 17:44:46.508
172.0, 35316.806771374555, 51783.113394154716, -39226.93153940816, 957.3028632763462, -187500.02235174447, -125131.59217018989, -12928.60662086089, -21088.043879037366, 0.674, -0.738, 0.2, 192.0, 0.0, 0.0, 0.0, 0.0, 0.0, 0.0, 0.0, 0.0, 0.0, 1.66359148651117E9, 0.0, 2022-09-19 17:44:46.511
173.0, 35845.17965855356, 51992.281018767484, -39246.221094873086, 979.0734623758152, -187500.02235174447, -124252.49806076266, -12824.626305654801, -21079.058477766335, 0.674, -0.738, 0.2, 192.0, 0.0, 0.0, 0.0, 0.0, 0.0, 0.0, 0.0, 0.0, 0.0, 1.6635914865152316E9, 0.0, 2022-09-19 17:44:46.515
174.0, 36573.913583029935, 52148.05032587652, -39291.215156461614, 959.7168516775193, -187500.02235174447, -122391.42476218042, -12879.388079570304, -21090.927254072103, 0.674, -0.738, 0.2, 192.0, 0.0, 0.0, 0.0, 0.0, 0.0, 0.0, 0.0, 0.0, 0.0, 1.663591486519231E9, 0.0, 2022-09-19 17:44:46.519
175.0, 36087.02553355999, 51871.91687487566, -39273.467871364104, 904.150414961626, -187500.02235174447, -122863.8959364767, -13092.333148996015, -21114.910675872645, 0.674, -0.738, 0.2, 192.0, 0.0, 0.0, 0.0, 0.0, 0.0, 0.0, 0.0, 0.0, 0.0, 1.6635914865232177E9, 0.0, 2022-09-19 17:44:46.523
176.0, 35330.35192851447, 51689.303122675796, -39223.04233587293, 917.5838133792655, -187500.02235174447, -124649.10741437763, -13011.86686895691, -21105.321777501318, 0.674, -0.738, 0.2, 192.0, 0.0, 0.0, 0.0, 0.0, 0.0, 0.0, 0.0, 0.0, 0.0, 1.6635914865272217E9, 0.0, 2022-09-19 17:44:46.527
177.0, 35320.18188478731, 51777.83838246327, -39229.18906559814, 946.0599358153268, -187500.02235174447, -125132.79916439047, -12914.726187554144, -21092.670690139617, 0.674, -0.738, 0.2, 192.0, 0.0, 0.0, 0.0, 0.0, 0.0, 0.0, 0.0, 0.0, 0.0, 1.663591486531214E9, 0.0, 2022-09-19 17:44:46.531
178.0, 35830.24869325742, 51973.72907086958, -39256.86052523381, 961.3261772783014, -187500.02235174447, -124283.43287508881, -12824.15691902124, -21095.330547729798, 0.674, -0.738, 0.2, 192.0, 0.0, 0.0, 0.0, 0.0, 0.0, 0.0, 0.0, 0.0, 0.0, 1.6635914865353055E9, 0.0, 2022-09-19 17:44:46.535
179.0, 36556.14394618797, 52132.381753013346, -39305.52027291302, 944.0706305588044, -187500.02235174447, -122430.58501846612, -12880.617425515346, -21115.603579950763, 0.676, -0.74, 0.202, 192.0, 21.0, 32.0, 232.0, 224.0, 6.0, 80.0, 0.0, 0.0, 0.0, 1.6635914865392127E9, 0.0, 2022-09-19 17:44:46.539
180.0, 36081.77287361299, 51861.74683114849, -39284.01789474701, 889.6888362990424, -187500.02235174447, -122889.1534077112, -13092.333148996015, -21137.016551138946, 0.676, -0.74, 0.202, 192.0, 0.0, 0.0, 0.0, 0.0, 0.0, 0.0, 0.0, 0.0, 0.0, 1.6635914865432363E9, 0.0, 2022-09-19 17:44:46.543
181.0, 35333.90585588287, 51687.49263137492, -39212.42525725666, 917.8967378016398, -187500.02235174447, -124669.46985357642, -13000.445127540246, -21115.827097395315, 0.676, -0.74, 0.202, 192.0, 0.0, 0.0, 0.0, 0.0, 0.0, 0.0, 0.0, 0.0, 0.0, 1.663591486547223E9, 0.0, 2022-09-19 17:44:46.547
182.0, 35322.215893532746, 51783.20280113254, -39221.76828643898, 947.8927788606619, -187500.02235174447, -125156.46966176864, -12905.98665547212, -21105.210018779042, 0.676, -0.74, 0.202, 192.0, 0.0, 0.0, 0.0, 0.0, 0.0, 0.0, 0.0, 0.0, 0.0, 1.6635914865512471E9, 0.0, 2022-09-19 17:44:46.551
183.0, 35833.601454925716, 51984.41320471921, -39251.943141453645, 961.1920668115696, -187500.02235174447, -124304.91290151035, -12820.982971308586, -21101.834905366293, 0.676, -0.74, 0.202, 192.0, 0.0, 0.0, 0.0, 0.0, 0.0, 0.0, 0.0, 0.0, 0.0, 1.663591486554235E9, 0.0, 2022-09-19 17:44:46.554
184.0, 36566.872783526516, 52149.994927644126, -39295.50669139704, 948.5856829387765, -187500.02235174447, -122442.07381511615, -12879.633948759312, -21116.452946240064, 0.676, -0.74, 0.202, 192.0, 0.0, 0.0, 0.0, 0.0, 0.0, 0.0, 0.0, 0.0, 0.0, 1.6635914865582893E9, 0.0, 2022-09-19 17:44:46.558
185.0, 36096.234452275574, 51883.785651181424, -39273.35611264183, 902.2281649384696, -187500.02235174447, -122888.12522746625, -13091.014396073151, -21130.0875103578, 0.676, -0.74, 0.202, 192.0, 0.0, 0.0, 0.0, 0.0, 0.0, 0.0, 0.0, 0.0, 0.0, 1.663591486563234E9, 0.0, 2022-09-19 17:44:46.563
186.0, 35345.66287346636, 51704.256439716395, -39209.38542001074, 929.1620170071146, -187500.02235174447, -124673.60492630064, -12997.315883316503, -21105.388832734687, 0.676, -0.74, 0.202, 192.0, 0.0, 0.0, 0.0, 0.0, 0.0, 0.0, 0.0, 0.0, 0.0, 1.6635914865672567E9, 0.0, 2022-09-19 17:44:46.567
187.0, 35316.672660907825, 51777.726623740986, -39230.46311503209, 941.7013456465419, -187500.02235174447, -125184.11876965986, -12918.347170155905, -21108.182800791597, 0.676, -0.74, 0.202, 192.0, 0.0, 0.0, 0.0, 0.0, 0.0, 0.0, 0.0, 0.0, 0.0, 1.663591486571266E9, 0.0, 2022-09-19 17:44:46.571
188.0, 35814.69187911652, 51969.86221907881, -39265.06361544891, 952.3854794961786, -187500.02235174447, -124353.08091081154, -12833.365837736827, -21114.03895783889, 0.676, -0.74, 0.202, 192.0, 0.0, 0.0, 0.0, 0.0, 0.0, 0.0, 0.0, 0.0, 0.0, 1.663591486575297E9, 0.0, 2022-09-19 17:44:46.575
189.0, 36550.153678673945, 52134.9075001368, -39307.59898514736, 940.9860898239721, -187500.02235174447, -122488.63249881656, -12878.203437114173, -21126.220658567032, 0.676, -0.74, 0.202, 192.0, 0.0, 0.0, 0.0, 0.0, 0.0, 0.0, 0.0, 0.0, 0.0, 1.6635914865793276E9, 0.0, 2022-09-19 17:44:46.579
190.0, 36092.591117929354, 51865.524275961434, -39282.18505170167, 893.7568537899082, -187500.02235174447, -122914.05325103442, -13086.454640204269, -21142.89505993069, 0.674, -0.734, 0.212, 192.0, 21.0, 16.0, 233.0, 16.0, 6.0, 160.0, 0.0, 0.0, 0.0, 1.663591486582302E9, 0.0, 2022-09-19 17:44:46.582
191.0, 35334.10702158297, 51675.48974460241, -39228.56321675339, 912.1523394766259, -187500.02235174447, -124704.7856098158, -13008.24588635515, -21133.596734237282, 0.674, -0.734, 0.212, 192.0, 0.0, 0.0, 0.0, 0.0, 0.0, 0.0, 0.0, 0.0, 0.0, 1.6635914865862985E9, 0.0, 2022-09-19 17:44:46.586
192.0, 35319.958367342755, 51766.64015849116, -39229.97137665407, 945.3893834816676, -187500.02235174447, -125207.11871470437, -12905.181992671729, -21116.22942879551, 0.674, -0.734, 0.212, 192.0, 0.0, 0.0, 0.0, 0.0, 0.0, 0.0, 0.0, 0.0, 0.0, 1.663591486591277E9, 0.0, 2022-09-19 17:44:46.591
193.0, 35827.07474554476, 51975.94189357065, -39257.754595012026, 965.5506569803545, -187500.02235174447, -124373.9574401328, -12819.194831752162, -21108.629835680706, 0.674, -0.734, 0.212, 192.0, 0.0, 0.0, 0.0, 0.0, 0.0, 0.0, 0.0, 0.0, 0.0, 1.663591486595302E9, 0.0, 2022-09-19 17:44:46.595
194.0, 36563.11769045803, 52144.63050897486, -39304.983831046084, 950.4632294730222, -187500.02235174447, -122506.64800484754, -12874.78362021251, -21119.00104510797, 0.674, -0.734, 0.212, 192.0, 0.0, 0.0, 0.0, 0.0, 0.0, 0.0, 0.0, 0.0, 0.0, 1.6635914865993135E9, 0.0, 2022-09-19 17:44:46.599
195.0, 36111.38893501627, 51887.02665412744, -39270.316275395904, 910.5877173647544, -187500.02235174447, -122918.76946911449, -13075.144657509883, -21127.070024856333, 0.674, -0.734, 0.212, 192.0, 0.0, 0.0, 0.0, 0.0, 0.0, 0.0, 0.0, 0.0, 0.0, 1.6635914866035175E9, 0.0, 2022-09-19 17:44:46.603
196.0, 35344.500582754685, 51691.2030209545, -39223.3105568064, 923.37291519319, -187500.02235174447, -124715.3356331987, -13003.417909552803, -21119.671597441626, 0.674, -0.734, 0.212, 192.0, 0.0, 0.0, 0.0, 0.0, 0.0, 0.0, 0.0, 0.0, 0.0, 1.663591486606419E9, 0.0, 2022-09-19 17:44:46.606
197.0, 35318.97489058672, 51774.664434750615, -39232.89945517772, 947.4010404826452, -187500.02235174447, -125227.4588021587, -12912.736882297622, -21111.960245604547, 0.674, -0.734, 0.212, 192.0, 0.0, 0.0, 0.0, 0.0, 0.0, 0.0, 0.0, 0.0, 0.0, 1.6635914866103332E9, 0.0, 2022-09-19 17:44:46.610
198.0, 35816.23414948394, 51970.48806792356, -39258.9168857237, 964.6565872021422, -187500.02235174447, -124408.15560914941, -12825.766244622022, -21108.920408358623, 0.674, -0.734, 0.212, 192.0, 0.0, 0.0, 0.0, 0.0, 0.0, 0.0, 0.0, 0.0, 0.0, 1.6635914866143298E9, 0.0, 2022-09-19 17:44:46.614
199.0, 36558.35676888905, 52139.53431123905, -39305.140293257275, 957.9734156100054, -187500.02235174447, -122540.13091804158, -12885.333643595415, -21120.588018964296, 0.674, -0.734, 0.212, 192.0, 0.0, 0.0, 0.0, 0.0, 0.0, 0.0, 0.0, 0.0, 0.0, 1.66359148661938E9, 0.0, 2022-09-19 17:44:46.619
200.0, 36108.751429170545, 51873.21327605406, -39279.99458074506, 907.0114382519052, -187500.02235174447, -122939.44483273565, -13085.471163448236, -21139.09526337329, 0.676, -0.732, 0.20600000000000002, 192.0, 21.0, 32.0, 233.0, 32.0, 6.0, 112.0, 0.0, 0.0, 0.0, 1.6635914866233218E9, 0.0, 2022-09-19 17:44:46.623
201.0, 35332.69886168228, 51678.104898703685, -39224.606957984804, 914.8569005557181, -187500.02235174447, -124747.3433312587, -13012.112738145917, -21131.205097580565, 0.676, -0.732, 0.20600000000000002, 192.0, 0.0, 0.0, 0.0, 0.0, 0.0, 0.0, 0.0, 0.0, 0.0, 1.6635914866273422E9, 0.0, 2022-09-19 17:44:46.627
202.0, 35306.86024509195, 51767.15424861363, -39234.55348426742, 940.181427023581, -187500.02235174447, -125263.84744213194, -12922.526946369046, -21117.905809629658, 0.676, -0.732, 0.20600000000000002, 192.0, 0.0, 0.0, 0.0, 0.0, 0.0, 0.0, 0.0, 0.0, 0.0, 1.663591486631374E9, 0.0, 2022-09-19 17:44:46.631
203.0, 35810.75797209239, 51965.2130562321, -39257.955760712124, 963.7625174239299, -187500.02235174447, -124440.7221008208, -12834.908108104242, -21112.116707815734, 0.676, -0.732, 0.20600000000000002, 192.0, 0.0, 0.0, 0.0, 0.0, 0.0, 0.0, 0.0, 0.0, 0.0, 1.663591486635403E9, 0.0, 2022-09-19 17:44:46.635
204.0, 36550.24308565177, 52130.99594485712, -39300.178205988195, 956.2523312869467, -187500.02235174447, -122572.04920912377, -12877.666995247246, -21125.70656844456, 0.676, -0.732, 0.20600000000000002, 192.0, 0.0, 0.0, 0.0, 0.0, 0.0, 0.0, 0.0, 0.0, 0.0, 1.6635914866384132E9, 0.0, 2022-09-19 17:44:46.638
205.0, 36105.95746111363, 51877.10247958929, -39273.17729868618, 913.3146301883019, -187500.02235174447, -122959.98608589008, -13079.994986056685, -21135.586039493806, 0.676, -0.732, 0.20600000000000002, 192.0, 0.0, 0.0, 0.0, 0.0, 0.0, 0.0, 0.0, 0.0, 0.0, 1.663591486642386E9, 0.0, 2022-09-19 17:44:46.642
206.0, 35331.26835003714, 51686.24093368542, -39221.76828643898, 929.1396652626593, -187500.02235174447, -124766.18585183453, -13011.688055001267, -21124.07489109932, 0.676, -0.732, 0.20600000000000002, 192.0, 0.0, 0.0, 0.0, 0.0, 0.0, 0.0, 0.0, 0.0, 0.0, 1.6635914866473966E9, 0.0, 2022-09-19 17:44:46.647
207.0, 35300.400590944366, 51771.42343180459, -39232.38536505525, 957.0122905984272, -187500.02235174447, -125291.4741982787, -12923.488071380625, -21117.235257295997, 0.676, -0.732, 0.20600000000000002, 192.0, 0.0, 0.0, 0.0, 0.0, 0.0, 0.0, 0.0, 0.0, 0.0, 1.6635914866514232E9, 0.0, 2022-09-19 17:44:46.651
208.0, 35803.53835863333, 51973.79612610294, -39252.501935065025, 983.7673287114297, -187500.02235174447, -124480.19528152887, -12826.213279511128, -21110.261513025944, 0.676, -0.732, 0.20600000000000002, 192.0, 0.0, 0.0, 0.0, 0.0, 0.0, 0.0, 0.0, 0.0, 0.0, 1.6635914866554096E9, 0.0, 2022-09-19 17:44:46.655
209.0, 36555.51809734322, 52146.59746248692, -39299.66411586572, 975.2289623295025, -187500.02235174447, -122606.02386069583, -12880.997405171085, -21121.2362195535, 0.676, -0.732, 0.20600000000000002, 192.0, 0.0, 0.0, 0.0, 0.0, 0.0, 0.0, 0.0, 0.0, 0.0, 1.6635914866594374E9, 0.0, 2022-09-19 17:44:46.659
210.0, 36109.39962975975, 51879.96350287957, -39281.11216796782, 917.6061651237209, -187500.02235174447, -122988.68572577069, -13097.250532776181, -21143.43150179762, 0.672, -0.738, 0.21, 192.0, 21.0, 0.0, 232.0, 240.0, 6.0, 144.0, 0.0, 0.0, 0.0, 1.6635914866625512E9, 0.0, 2022-09-19 17:44:46.662
211.0, 35329.52491396963, 51685.458622629485, -39224.1599230957, 936.7839618663743, -187500.02235174447, -124798.12649466116, -13017.47715681519, -21125.304237044365, 0.672, -0.738, 0.21, 192.0, 0.0, 0.0, 0.0, 0.0, 0.0, 0.0, 0.0, 0.0, 0.0, 1.6635914866664405E9, 0.0, 2022-09-19 17:44:46.666
212.0, 35293.76212284114, 51767.33306256927, -39238.95677792511, 962.7566889234411, -187500.02235174447, -125334.45660286625, -12929.23246970564, -21119.47043174153, 0.672, -0.738, 0.21, 192.0, 0.0, 0.0, 0.0, 0.0, 0.0, 0.0, 0.0, 0.0, 0.0, 1.6635914866704507E9, 0.0, 2022-09-19 17:44:46.670
213.0, 35796.43050389654, 51969.86221907881, -39264.50482183752, 985.6225235012203, -187500.02235174447, -124528.31858734114, -12842.418294241226, -21110.79795489287, 0.672, -0.738, 0.21, 192.0, 0.0, 0.0, 0.0, 0.0, 0.0, 0.0, 0.0, 0.0, 0.0, 1.6635914866744432E9, 0.0, 2022-09-19 17:44:46.674
214.0, 36556.52392584371, 52158.600349259425, -39295.573746630405, 983.4991077779661, -187500.02235174447, -122644.37945418114, -12872.97312891163, -21112.94372236058, 0.672, -0.738, 0.21, 192.0, 0.0, 0.0, 0.0, 0.0, 0.0, 0.0, 0.0, 0.0, 0.0, 1.6635914866794314E9, 0.0, 2022-09-19 17:44:46.679
215.0, 36122.20717933264, 51906.69618924811, -39267.9693422281, 934.504083931933, -187500.02235174447, -123010.74689754807, -13077.692756377788, -21126.444176011584, 0.672, -0.738, 0.21, 192.0, 0.0, 0.0, 0.0, 0.0, 0.0, 0.0, 0.0, 0.0, 0.0, 1.6635914866834562E9, 0.0, 2022-09-19 17:44:46.683
216.0, 35338.33150128502, 51714.20296599901, -39218.303766048404, 943.9141683476173, -187500.02235174447, -124825.64149208565, -13011.755110234632, -21114.128364816712, 0.672, -0.738, 0.21, 192.0, 0.0, 0.0, 0.0, 0.0, 0.0, 0.0, 0.0, 0.0, 0.0, 1.663591486687463E9, 0.0, 2022-09-19 17:44:46.687
217.0, 35302.635765389896, 51798.80431876234, -39242.980091927064, 957.727546420997, -187500.02235174447, -125359.37879793392, -12934.418074419269, -21112.720204916026, 0.672, -0.738, 0.21, 192.0, 0.0, 0.0, 0.0, 0.0, 0.0, 0.0, 0.0, 0.0, 0.0, 1.6635914866906164E9, 0.0, 2022-09-19 17:44:46.690
218.0, 35792.6977625725, 51996.058463580426, -39264.795394515444, 967.8752384037065, -187500.02235174447, -124566.38360814854, -12839.087884317385, -21113.055481082854, 0.672, -0.738, 0.21, 192.0, 0.0, 0.0, 0.0, 0.0, 0.0, 0.0, 0.0, 0.0, 0.0, 1.663591486694477E9, 0.0, 2022-09-19 17:44:46.694
219.0, 36539.91657971342, 52172.05609942152, -39304.849720579354, 959.7839069108853, -187500.02235174447, -122697.75541994041, -12886.69710000719, -21125.79597542238, 0.672, -0.738, 0.21, 192.0, 0.0, 0.0, 0.0, 0.0, 0.0, 0.0, 0.0, 0.0, 0.0, 1.6635914867004888E9, 0.0, 2022-09-19 17:44:46.700
220.0, 36115.255786807036, 51918.76613125398, -39280.039284233964, 917.5838133792655, -187500.02235174447, -123046.46498518766, -13092.243742018192, -21142.13510061921, 0.674, -0.742, 0.202, 192.0, 21.0, 16.0, 232.0, 208.0, 6.0, 80.0, 0.0, 0.0, 0.0, 1.663591486704491E9, 0.0, 2022-09-19 17:44:46.704
221.0, 35336.453954750774, 51721.37787596916, -39226.775077196966, 932.7159443755085, -187500.02235174447, -124853.24589648795, -13015.86783121441, -21125.99714112248, 0.674, -0.742, 0.202, 192.0, 0.0, 0.0, 0.0, 0.0, 0.0, 0.0, 0.0, 0.0, 0.0, 1.6635914867074904E9, 0.0, 2022-09-19 17:44:46.707
222.0, 35302.4345996898, 51802.44765310856, -39237.97330116908, 956.7217179205082, -187500.02235174447, -125393.21933903925, -12923.97980975864, -21114.597751450274, 0.674, -0.742, 0.202, 192.0, 0.0, 0.0, 0.0, 0.0, 0.0, 0.0, 0.0, 0.0, 0.0, 1.6635914867115457E9, 0.0, 2022-09-19 17:44:46.711
223.0, 35785.36639039116, 51988.794146632456, -39260.749728769035, 970.2668750604242, -187500.02235174447, -124615.08805931665, -12828.761378379033, -21116.408242751153, 0.674, -0.742, 0.202, 192.0, 0.0, 0.0, 0.0, 0.0, 0.0, 0.0, 0.0, 0.0, 0.0, 1.6635914867175367E9, 0.0, 2022-09-19 17:44:46.717
224.0, 36540.25185588025, 52166.5128667966, -39307.3307642139, 962.0414331008712, -187500.02235174447, -122740.60371406123, -12885.691271506701, -21125.170126577632, 0.674, -0.742, 0.202, 192.0, 0.0, 0.0, 0.0, 0.0, 0.0, 0.0, 0.0, 0.0, 0.0, 1.663591486720533E9, 0.0, 2022-09-19 17:44:46.720
225.0, 36123.45887702214, 51915.435721330134, -39282.09564472385, 915.8403773117516, -187500.02235174447, -123073.08591283392, -13093.406032729868, -21136.345998805285, 0.674, -0.742, 0.202, 192.0, 0.0, 0.0, 0.0, 0.0, 0.0, 0.0, 0.0, 0.0, 0.0, 1.663591486723524E9, 0.0, 2022-09-19 17:44:46.723
226.0, 35332.49769598219, 51711.8560328312, -39228.85378943131, 925.8763105721845, -187500.02235174447, -124893.41198127414, -13020.271124872104, -21126.690045200594, 0.674, -0.742, 0.202, 192.0, 0.0, 0.0, 0.0, 0.0, 0.0, 0.0, 0.0, 0.0, 0.0, 1.6635914867276385E9, 0.0, 2022-09-19 17:44:46.727
227.0, 35285.11199773693, 51789.282475624386, -39249.93148445267, 945.3893834816676, -187500.02235174447, -125449.18810715535, -12943.448179179213, -21129.0369783684, 0.674, -0.742, 0.202, 192.0, 0.0, 0.0, 0.0, 0.0, 0.0, 0.0, 0.0, 0.0, 0.0, 1.6635914867305279E9, 0.0, 2022-09-19 17:44:46.730
228.0, 35782.41596012306, 51992.45983272312, -39258.581609556866, 977.4194332861225, -187500.02235174447, -124662.74197849537, -12837.009172083042, -21110.55208570386, 0.674, -0.742, 0.202, 192.0, 0.0, 0.0, 0.0, 0.0, 0.0, 0.0, 0.0, 0.0, 0.0, 1.6635914867356448E9, 0.0, 2022-09-19 17:44:46.735
229.0, 36535.44623082235, 52180.77327975909, -39295.95372628614, 970.0880611047818, -187500.02235174447, -122790.47045594103, -12868.815704442943, -21114.70951017255, 0.674, -0.742, 0.202, 192.0, 0.0, 0.0, 0.0, 0.0, 0.0, 0.0, 0.0, 0.0, 0.0, 1.6635914867395644E9, 0.0, 2022-09-19 17:44:46.739
230.0, 36122.274234566, 51948.00221300152, -39267.254086405526, 926.7703803503967, -187500.02235174447, -123110.23451211865, -13075.34582320998, -21125.214830066543, 0.674, -0.742, 0.20800000000000002, 192.0, 21.0, 16.0, 232.0, 208.0, 6.0, 128.0, 0.0, 0.0, 0.0, 1.663591486743608E9, 0.0, 2022-09-19 17:44:46.743
231.0, 35331.67068143734, 51745.1154285807, -39217.4543997591, 939.5108746899218, -187500.02235174447, -124929.62180729173, -13015.018464925108, -21114.620103194728, 0.674, -0.742, 0.20800000000000002, 192.0, 0.0, 0.0, 0.0, 0.0, 0.0, 0.0, 0.0, 0.0, 0.0, 1.6635914867465627E9, 0.0, 2022-09-19 17:44:46.746
232.0, 35281.40160815735, 51811.433054379595, -39239.51557153649, 952.6089969407317, -187500.02235174447, -125488.66128786342, -12928.22664120515, -21116.98938810699, 0.674, -0.742, 0.20800000000000002, 192.0, 0.0, 0.0, 0.0, 0.0, 0.0, 0.0, 0.0, 0.0, 0.0, 1.6635914867505865E9, 0.0, 2022-09-19 17:44:46.750
233.0, 35758.96898018944, 51989.77762338849, -39271.34445564085, 960.1415348221702, -187500.02235174447, -124723.5387234138, -12844.6311169423, -21126.310065544854, 0.674, -0.742, 0.20800000000000002, 192.0, 0.0, 0.0, 0.0, 0.0, 0.0, 0.0, 0.0, 0.0, 0.0, 1.6635914867546005E9, 0.0, 2022-09-19 17:44:46.754
234.0, 36518.056573636124, 52164.00947141761, -39311.510540427036, 955.0676888308154, -187500.02235174447, -122847.73562523552, -12886.004195929074, -21131.31685630284, 0.674, -0.742, 0.20800000000000002, 192.0, 0.0, 0.0, 0.0, 0.0, 0.0, 0.0, 0.0, 0.0, 0.0, 1.663591486758662E9, 0.0, 2022-09-19 17:44:46.758
235.0, 36111.03130710498, 51916.12862540825, -39278.63112433328, 919.6401738691538, -187500.02235174447, -123156.92730628578, -13084.30887273656, -21138.916449417648, 0.674, -0.742, 0.20800000000000002, 192.0, 0.0, 0.0, 0.0, 0.0, 0.0, 0.0, 0.0, 0.0, 0.0, 1.6635914867636135E9, 0.0, 2022-09-19 17:44:46.763
236.0, 35317.6337859194, 51709.1067682632, -39230.37370805427, 930.2349007409694, -187500.02235174447, -124976.91809855917, -13017.141880648362, -21135.764853449447, 0.674, -0.742, 0.20800000000000002, 192.0, 0.0, 0.0, 0.0, 0.0, 0.0, 0.0, 0.0, 0.0, 0.0, 1.663591486767648E9, 0.0, 2022-09-19 17:44:46.767
237.0, 35265.04013121607, 51792.18820240357, -39254.62535078828, 952.1172585627149, -187500.02235174447, -125541.56786698913, -12934.306315696993, -21131.31685630284, 0.674, -0.742, 0.20800000000000002, 192.0, 0.0, 0.0, 0.0, 0.0, 0.0, 0.0, 0.0, 0.0, 0.0, 1.663591486771632E9, 0.0, 2022-09-19 17:44:46.771
238.0, 35752.97871267542, 51996.93018161419, -39269.44455736215, 976.6147704857315, -187500.02235174447, -124771.97495364845, -12841.099541318363, -21121.750309675972, 0.674, -0.742, 0.20800000000000002, 192.0, 0.0, 0.0, 0.0, 0.0, 0.0, 0.0, 0.0, 0.0, 0.0, 1.6635914867746253E9, 0.0, 2022-09-19 17:44:46.774
239.0, 36517.117800369, 52182.76258501561, -39303.7768368455, 975.05014837386, -187500.02235174447, -122894.98721301404, -12871.855541688865, -21122.532620731905, 0.674, -0.742, 0.20800000000000002, 192.0, 0.0, 0.0, 0.0, 0.0, 0.0, 0.0, 0.0, 0.0, 0.0, 1.663591486778681E9, 0.0, 2022-09-19 17:44:46.778
240.0, 36114.540530984465, 51935.68640180665, -39280.15104295624, 927.4632844285112, -187500.02235174447, -123191.77367589161, -13078.87739883392, -21137.642399983695, 0.682, -0.74, 0.202, 192.0, 21.0, 80.0, 232.0, 224.0, 6.0, 80.0, 0.0, 0.0, 0.0, 1.6635914867826636E9, 0.0, 2022-09-19 17:44:46.782
241.0, 35335.80575416157, 51738.298146521825, -39216.26975730297, 946.9093021046284, -187500.02235174447, -124995.91708134617, -13002.367377563403, -21118.12932707421, 0.682, -0.74, 0.202, 192.0, 0.0, 0.0, 0.0, 0.0, 0.0, 0.0, 0.0, 0.0, 0.0, 1.6635914867866583E9, 0.0, 2022-09-19 17:44:46.786
242.0, 35283.88265179189, 51811.16483344613, -39228.11618186429, 967.2270378145025, -187500.02235174447, -125562.0867683991, -12911.105204952384, -21116.050614839867, 0.682, -0.74, 0.202, 192.0, 0.0, 0.0, 0.0, 0.0, 0.0, 0.0, 0.0, 0.0, 0.0, 1.6635914867908008E9, 0.0, 2022-09-19 17:44:46.790
243.0, 35753.38104407561, 51989.397643732744, -39263.20842065912, 976.8159361858293, -187500.02235174447, -124815.18087568055, -12841.457169229649, -21123.3372835323, 0.682, -0.74, 0.202, 192.0, 0.0, 0.0, 0.0, 0.0, 0.0, 0.0, 0.0, 0.0, 0.0, 1.6635914867956743E9, 0.0, 2022-09-19 17:44:46.795
244.0, 36513.89914916744, 52167.22812261917, -39304.87207232381, 969.082232604293, -187500.02235174447, -122938.6178181908, -12882.159695882761, -21132.255629569965, 0.682, -0.74, 0.202, 192.0, 0.0, 0.0, 0.0, 0.0, 0.0, 0.0, 0.0, 0.0, 0.0, 1.6635914867986653E9, 0.0, 2022-09-19 17:44:46.798
245.0, 36116.95451938564, 51930.8584250043, -39274.943086498155, 930.4584181855224, -187500.02235174447, -123221.63560648389, -13077.178666255317, -21138.71528371755, 0.682, -0.74, 0.202, 192.0, 0.0, 0.0, 0.0, 0.0, 0.0, 0.0, 0.0, 0.0, 0.0, 1.6635914868027308E9, 0.0, 2022-09-19 17:44:46.802
246.0, 35322.126486554924, 51726.58583242725, -39218.7060974486, 946.082287559782, -187500.02235174447, -125042.94515168013, -13012.716235246211, -21128.85816441276, 0.682, -0.74, 0.202, 192.0, 0.0, 0.0, 0.0, 0.0, 0.0, 0.0, 0.0, 0.0, 0.0, 1.6635914868066788E9, 0.0, 2022-09-19 17:44:46.806
247.0, 35278.67469533381, 51813.377656147204, -39223.60112948431, 979.1181658647258, -187500.02235174447, -125608.8019143107, -12910.79228053001, -21117.883457885204, 0.682, -0.74, 0.202, 192.0, 0.0, 0.0, 0.0, 0.0, 0.0, 0.0, 0.0, 0.0, 0.0, 1.6635914868106945E9, 0.0, 2022-09-19 17:44:46.810
248.0, 35767.75321576038, 52016.44325452367, -39238.263873847, 999.793529485885, -187500.02235174447, -124853.9164488216, -12813.226915982596, -21108.47337346952, 0.682, -0.74, 0.202, 192.0, 0.0, 0.0, 0.0, 0.0, 0.0, 0.0, 0.0, 0.0, 0.0, 1.6635914868147044E9, 0.0, 2022-09-19 17:44:46.814
249.0, 36523.443344049854, 52190.63039906388, -39293.78560707398, 979.207572842547, -187500.02235174447, -122987.8810629703, -12864.211245085151, -21125.214830066543, 0.682, -0.74, 0.202, 192.0, 0.0, 0.0, 0.0, 0.0, 0.0, 0.0, 0.0, 0.0, 0.0, 1.663591486818716E9, 0.0, 2022-09-19 17:44:46.818
250.0, 36118.02740311949, 51933.54063433893, -39288.80116806045, 919.0813802577711, -187500.02235174447, -123272.57523209754, -13091.282617006615, -21151.47812980153, 0.678, -0.738, 0.20400000000000001, 192.0, 21.0, 48.0, 232.0, 240.0, 6.0, 96.0, 0.0, 0.0, 0.0, 1.663591486823714E9, 0.0, 2022-09-19 17:44:46.823
251.0, 35328.25086453568, 51734.69951566452, -39226.57391149687, 937.052182799838, -187500.02235174447, -125088.98974525808, -13021.321656861504, -21135.295466815885, 0.678, -0.738, 0.20400000000000001, 192.0, 0.0, 0.0, 0.0, 0.0, 0.0, 0.0, 0.0, 0.0, 0.0, 1.6635914868267033E9, 0.0, 2022-09-19 17:44:46.826
252.0, 35286.07312274851, 51826.74399933148, -39224.606957984804, 967.4952587479662, -187500.02235174447, -125653.57245845467, -12910.144079940806, -21123.89607714368, 0.678, -0.738, 0.20400000000000001, 192.0, 0.0, 0.0, 0.0, 0.0, 0.0, 0.0, 0.0, 0.0, 0.0, 1.663591486830712E9, 0.0, 2022-09-19 17:44:46.830
253.0, 35761.24885812389, 52010.69885619866, -39257.57578105638, 980.3028083208571, -187500.02235174447, -124909.63934774869, -12828.761378379033, -21122.487917242994, 0.678, -0.738, 0.20400000000000001, 192.0, 0.0, 0.0, 0.0, 0.0, 0.0, 0.0, 0.0, 0.0, 0.0, 1.6635914868347504E9, 0.0, 2022-09-19 17:44:46.834
254.0, 36523.376288816486, 52195.771300288594, -39303.01687753402, 977.1959158415694, -187500.02235174447, -123037.90426706127, -12869.463905032148, -21129.394606279686, 0.678, -0.738, 0.20400000000000001, 192.0, 0.0, 0.0, 0.0, 0.0, 0.0, 0.0, 0.0, 0.0, 0.0, 1.6635914868387492E9, 0.0, 2022-09-19 17:44:46.838
255.0, 36134.09830738286, 51962.150867241726, -39276.70887431013, 933.9676420650056, -187500.02235174447, -123299.24086323273, -13066.15925623885, -21140.771644207438, 0.678, -0.738, 0.20400000000000001, 192.0, 0.0, 0.0, 0.0, 0.0, 0.0, 0.0, 0.0, 0.0, 0.0, 1.6635914868427389E9, 0.0, 2022-09-19 17:44:46.842
0.0, 35338.26444605165, 51751.28451005036, -39219.39900152672, 943.534188691877, -187500.02235174447, -125117.46586769413, -13008.648217755344, -21132.12151910323, 0.678, -0.738, 0.20400000000000001, 192.0, 0.0, 0.0, 0.0, 0.0, 0.0, 0.0, 0.0, 0.0, 0.0, 1.6635914868467667E9, 0.0, 2022-09-19 17:44:46.846
1.0, 35277.22183194421, 51821.53604287339, -39228.40675454221, 964.8801046466953, -187500.02235174447, -125707.90954922553, -12914.681484065233, -21129.014626623946, 0.678, -0.738, 0.20400000000000001, 192.0, 0.0, 0.0, 0.0, 0.0, 0.0, 0.0, 0.0, 0.0, 0.0, 1.6635914868518617E9, 0.0, 2022-09-19 17:44:46.851
2.0, 35747.949570172976, 52012.53169924399, -39252.85956297631, 987.3436078242789, -187500.02235174447, -124976.71693285907, -12828.426102212205, -21123.31493178784, 0.678, -0.738, 0.20400000000000001, 192.0, 0.0, 0.0, 0.0, 0.0, 0.0, 0.0, 0.0, 0.0, 0.0, 1.663591486854765E9, 0.0, 2022-09-19 17:44:46.854
3.0, 36507.05951536411, 52193.4690706097, -39304.805017090446, 973.3290640508013, -187500.02235174447, -123109.0051661736, -12876.102373135374, -21140.212850596054, 0.678, -0.738, 0.20400000000000001, 192.0, 0.0, 0.0, 0.0, 0.0, 0.0, 0.0, 0.0, 0.0, 0.0, 1.663591486858775E9, 0.0, 2022-09-19 17:44:46.858
4.0, 36130.6784904812, 51962.30732945292, -39280.55337435644, 928.2902989733576, -187500.02235174447, -123347.5653347451, -13086.499343693178, -21150.829929212327, 0.674, -0.736, 0.20400000000000001, 192.0, 21.0, 16.0, 233.0, 0.0, 6.0, 96.0, 0.0, 0.0, 0.0, 1.6635914868628447E9, 0.0, 2022-09-19 17:44:46.862
5.0, 35340.07493735253, 51765.88019917968, -39216.58268172535, 949.792677139363, -187500.02235174447, -125161.20823159316, -13012.04568291255, -21129.193440579587, 0.674, -0.736, 0.20400000000000001, 192.0, 0.0, 0.0, 0.0, 0.0, 0.0, 0.0, 0.0, 0.0, 0.0, 1.663591486866798E9, 0.0, 2022-09-19 17:44:46.866
6.0, 35280.7757593126, 51846.01120305195, -39231.29012957694, 969.6410262156757, -187500.02235174447, -125752.34481720267, -12916.715492810667, -21128.679350457114, 0.674, -0.736, 0.20400000000000001, 192.0, 0.0, 0.0, 0.0, 0.0, 0.0, 0.0, 0.0, 0.0, 0.0, 1.6635914868708E9, 0.0, 2022-09-19 17:44:46.870
7.0, 35745.04384339379, 52041.03017342451, -39253.95479845462, 989.0870438917929, -187500.02235174447, -125032.43983178615, -12827.934363834187, -21127.1370800897, 0.674, -0.736, 0.20400000000000001, 192.0, 0.0, 0.0, 0.0, 0.0, 0.0, 0.0, 0.0, 0.0, 0.0, 1.6635914868748243E9, 0.0, 2022-09-19 17:44:46.874
8.0, 36509.965242143306, 52229.72360011621, -39298.144197242764, 986.5165932794325, -187500.02235174447, -123160.6153441209, -12862.02077412853, -21133.149699348178, 0.674, -0.736, 0.20400000000000001, 192.0, 0.0, 0.0, 0.0, 0.0, 0.0, 0.0, 0.0, 0.0, 0.0, 1.6635914868788245E9, 0.0, 2022-09-19 17:44:46.878
9.0, 36137.98751091809, 51993.130385056786, -39276.53006035448, 940.0920200457598, -187500.02235174447, -123391.62062306651, -13071.411916185847, -21147.94655417759, 0.674, -0.736, 0.20400000000000001, 192.0, 0.0, 0.0, 0.0, 0.0, 0.0, 0.0, 0.0, 0.0, 0.0, 1.6635914868828478E9, 0.0, 2022-09-19 17:44:46.882
10.0, 35336.1410303284, 51774.664434750615, -39219.644870715725, 948.6303864276871, -187500.02235174447, -125218.71927007668, -13014.258505613627, -21138.536469761904, 0.674, -0.736, 0.20400000000000001, 192.0, 0.0, 0.0, 0.0, 0.0, 0.0, 0.0, 0.0, 0.0, 0.0, 1.6635914868858385E9, 0.0, 2022-09-19 17:44:46.885
11.0, 35271.83506153048, 51845.9888513075, -39234.44172554514, 972.0103111279383, -187500.02235174447, -125816.56137902277, -12925.097396981408, -21135.56368774935, 0.674, -0.736, 0.20400000000000001, 192.0, 0.0, 0.0, 0.0, 0.0, 0.0, 0.0, 0.0, 0.0, 0.0, 1.6635914868908548E9, 0.0, 2022-09-19 17:44:46.890
12.0, 35735.05261362226, 52037.45389431166, -39258.939237468156, 988.4611950470443, -187500.02235174447, -125097.14813198426, -12837.813834883433, -21129.305199301863, 0.674, -0.736, 0.20400000000000001, 192.0, 0.0, 0.0, 0.0, 0.0, 0.0, 0.0, 0.0, 0.0, 0.0, 1.6635914868949163E9, 0.0, 2022-09-19 17:44:46.894
13.0, 36494.40842800241, 52221.96754479022, -39304.89442406827, 972.434994272589, -187500.02235174447, -123229.21284785424, -12869.64271898779, -21139.9893331515, 0.674, -0.736, 0.20400000000000001, 192.0, 0.0, 0.0, 0.0, 0.0, 0.0, 0.0, 0.0, 0.0, 0.0, 1.6635914868988912E9, 0.0, 2022-09-19 17:44:46.898
14.0, 36129.27033058051, 51988.32475999889, -39282.7214935686, 927.4632844285112, -187500.02235174447, -123442.35908298005, -13073.982366798207, -21151.321667590342, 0.678, -0.736, 0.20800000000000002, 192.0, 21.0, 48.0, 233.0, 0.0, 6.0, 128.0, 0.0, 0.0, 0.0, 1.6635914869028845E9, 0.0, 2022-09-19 17:44:46.902
15.0, 35331.55892271506, 51776.83255396278, -39223.24350157303, 940.7849241238742, -187500.02235174447, -125262.95337235373, -13008.6705694998, -21141.75512096347, 0.678, -0.736, 0.20800000000000002, 192.0, 0.0, 0.0, 0.0, 0.0, 0.0, 0.0, 0.0, 0.0, 0.0, 1.6635914869078817E9, 0.0, 2022-09-19 17:44:46.907
16.0, 35269.1752039403, 51849.7886478649, -39231.20072259912, 966.6905959475752, -187500.02235174447, -125862.60597260071, -12915.821423032454, -21134.37904529322, 0.678, -0.736, 0.20800000000000002, 192.0, 0.0, 0.0, 0.0, 0.0, 0.0, 0.0, 0.0, 0.0, 0.0, 1.6635914869108691E9, 0.0, 2022-09-19 17:44:46.910
17.0, 35732.54921824327, 52036.71628674463, -39253.418356587696, 984.1026048782594, -187500.02235174447, -125150.68055995472, -12825.54272717747, -21122.979655621013, 0.678, -0.736, 0.20800000000000002, 192.0, 0.0, 0.0, 0.0, 0.0, 0.0, 0.0, 0.0, 0.0, 0.0, 1.663591486913876E9, 0.0, 2022-09-19 17:44:46.913
18.0, 36505.40548627442, 52222.369876190416, -39302.838063578376, 972.7702704394187, -187500.02235174447, -123277.17969145534, -12864.07713461842, -21135.42957728262, 0.678, -0.736, 0.20800000000000002, 192.0, 0.0, 0.0, 0.0, 0.0, 0.0, 0.0, 0.0, 0.0, 0.0, 1.6635914869188948E9, 0.0, 2022-09-19 17:44:46.918
19.0, 36143.95542668765, 51987.98948383206, -39280.10633946733, 929.8996245741397, -187500.02235174447, -123486.9955166573, -13077.648052888877, -21153.199214124586, 0.678, -0.736, 0.20800000000000002, 192.0, 0.0, 0.0, 0.0, 0.0, 0.0, 0.0, 0.0, 0.0, 0.0, 1.6635914869228928E9, 0.0, 2022-09-19 17:44:46.922
20.0, 35330.82131514804, 51765.92490266859, -39235.49225753454, 931.7995228528408, -187500.02235174447, -125321.91727422683, -13033.10102618945, -21155.300278103387, 0.678, -0.736, 0.20800000000000002, 192.0, 0.0, 0.0, 0.0, 0.0, 0.0, 0.0, 0.0, 0.0, 0.0, 1.6635914869269023E9, 0.0, 2022-09-19 17:44:46.926
21.0, 35273.08675921998, 51844.80420885137, -39236.967472668584, 964.1201453352148, -187500.02235174447, -125918.59709246125, -12926.080873737441, -21144.683199487114, 0.678, -0.736, 0.20800000000000002, 192.0, 0.0, 0.0, 0.0, 0.0, 0.0, 0.0, 0.0, 0.0, 0.0, 1.663591486931012E9, 0.0, 2022-09-19 17:44:46.931
22.0, 35729.66584320854, 52029.407266307746, -39261.040301446956, 980.9510089100611, -187500.02235174447, -125218.04871774302, -12830.102483046352, -21146.627801254726, 0.678, -0.736, 0.20800000000000002, 192.0, 0.0, 0.0, 0.0, 0.0, 0.0, 0.0, 0.0, 0.0, 0.0, 1.6635914869349318E9, 0.0, 2022-09-19 17:44:46.934
23.0, 36503.75145718473, 52223.129835501895, -39299.01591527652, 981.5992094992649, -187500.02235174447, -123340.77040443069, -12855.427009514215, -21146.784263465914, 0.678, -0.736, 0.20800000000000002, 192.0, 0.0, 0.0, 0.0, 0.0, 0.0, 0.0, 0.0, 0.0, 0.0, 1.6635914869389193E9, 0.0, 2022-09-19 17:44:46.938
24.0, 36148.246961623074, 51996.93018161419, -39281.44744413465, 936.0463542993492, -187500.02235174447, -123528.90503751101, -13075.748154610177, -21157.982487438025, 0.68, -0.734, 0.21, 192.0, 21.0, 64.0, 233.0, 16.0, 6.0, 144.0, 0.0, 0.0, 0.0, 1.6635914869419236E9, 0.0, 2022-09-19 17:44:46.941
25.0, 35341.773669931135, 51794.4233768491, -39219.510760248995, 949.1444765501591, -187500.02235174447, -125356.45071941028, -13015.890182958865, -21137.91062091716, 0.68, -0.734, 0.21, 192.0, 0.0, 0.0, 0.0, 0.0, 0.0, 0.0, 0.0, 0.0, 0.0, 1.6635914869469254E9, 0.0, 2022-09-19 17:44:46.946
26.0, 35274.584326098484, 51878.063604600866, -39224.38344054025, 971.5632762388321, -187500.02235174447, -125969.26849714143, -12911.84281251941, -21131.3392080473, 0.68, -0.734, 0.21, 192.0, 0.0, 0.0, 0.0, 0.0, 0.0, 0.0, 0.0, 0.0, 0.0, 1.6635914869510062E9, 0.0, 2022-09-19 17:44:46.951
27.0, 35728.8835321526, 52062.621958568336, -39255.00533044402, 976.8606396747399, -187500.02235174447, -125275.33623878197, -12832.49411970307, -21142.67154248614, 0.68, -0.734, 0.21, 192.0, 0.0, 0.0, 0.0, 0.0, 0.0, 0.0, 0.0, 0.0, 0.0, 1.663591486954951E9, 0.0, 2022-09-19 17:44:46.954
28.0, 36507.52890199768, 52256.679803929306, -39294.50086289655, 976.3912530411784, -187500.02235174447, -123394.79457077917, -12858.891529904788, -21148.080664644323, 0.68, -0.734, 0.21, 192.0, 0.0, 0.0, 0.0, 0.0, 0.0, 0.0, 0.0, 0.0, 0.0, 1.663591486958972E9, 0.0, 2022-09-19 17:44:46.958
29.0, 36157.38882510529, 52021.6288592373, -39275.859508020825, 932.9171100756062, -187500.02235174447, -123570.92631708698, -13073.11064876445, -21158.80950198287, 0.68, -0.734, 0.21, 192.0, 0.0, 0.0, 0.0, 0.0, 0.0, 0.0, 0.0, 0.0, 0.0, 1.6635914869629796E9, 0.0, 2022-09-19 17:44:46.962
30.0, 35350.55790550207, 51812.41653113563, -39215.64390845822, 952.1396103071703, -187500.02235174447, -125399.41077225338, -13006.81537471001, -21141.352789563276, 0.68, -0.734, 0.21, 192.0, 0.0, 0.0, 0.0, 0.0, 0.0, 0.0, 0.0, 0.0, 0.0, 1.6635914869670162E9, 0.0, 2022-09-19 17:44:46.967
31.0, 35287.05659950455, 51896.3473315653, -39222.41648702818, 980.0345873873935, -187500.02235174447, -126014.35196570778, -12907.998312473097, -21133.820251681835, 0.68, -0.734, 0.21, 192.0, 0.0, 0.0, 0.0, 0.0, 0.0, 0.0, 0.0, 0.0, 0.0, 1.6635914869699805E9, 0.0, 2022-09-19 17:44:46.969
32.0, 35739.634721235605, 52078.625807598335, -39254.29007462145, 988.8635264472398, -187500.02235174447, -125324.331262628, -12833.745817392566, -21138.69293197309, 0.68, -0.734, 0.21, 192.0, 0.0, 0.0, 0.0, 0.0, 0.0, 0.0, 0.0, 0.0, 0.0, 1.6635914869739685E9, 0.0, 2022-09-19 17:44:46.973
33.0, 36510.725201454785, 52277.4892780172, -39300.938165299674, 981.4203955436225, -187500.02235174447, -123453.06556857415, -12858.31038454895, -21145.778434965425, 0.68, -0.734, 0.21, 192.0, 0.0, 0.0, 0.0, 0.0, 0.0, 0.0, 0.0, 0.0, 0.0, 1.6635914869789827E9, 0.0, 2022-09-19 17:44:46.978
34.0, 36154.14782215927, 52034.436408810194, -39298.74769434306, 922.3223832037907, -187500.02235174447, -123631.03015792731, -13092.511962951658, -21171.706458533583, 0.682, -0.736, 0.21, 192.0, 21.0, 80.0, 233.0, 0.0, 6.0, 144.0, 0.0, 0.0, 0.0, 1.6635914869830644E9, 0.0, 2022-09-19 17:44:46.983
35.0, 35338.46561175175, 51819.09970272776, -39237.57096976888, 939.8685026012067, -187500.02235174447, -125463.71674105129, -13044.187491439283, -21156.75314149298, 0.682, -0.736, 0.21, 192.0, 0.0, 0.0, 0.0, 0.0, 0.0, 0.0, 0.0, 0.0, 0.0, 1.6635914869870698E9, 0.0, 2022-09-19 17:44:46.987
36.0, 35265.48716610517, 51898.13547112173, -39229.74785920952, 969.1939913265695, -187500.02235174447, -126088.64916427723, -12921.364655657371, -21141.79982445238, 0.682, -0.736, 0.21, 192.0, 0.0, 0.0, 0.0, 0.0, 0.0, 0.0, 0.0, 0.0, 0.0, 1.6635914869910636E9, 0.0, 2022-09-19 17:44:46.991
37.0, 35726.558950729246, 52095.56842989546, -39243.94121693864, 992.2609916044464, -187500.02235174447, -125395.7003826738, -12815.573849150402, -21133.283809814908, 0.682, -0.736, 0.21, 192.0, 0.0, 0.0, 0.0, 0.0, 0.0, 0.0, 0.0, 0.0, 0.0, 1.6635914869950638E9, 0.0, 2022-09-19 17:44:46.995
38.0, 36505.38313452997, 52296.86824045995, -39289.15879597173, 985.9577996680498, -187500.02235174447, -123519.18202867295, -12845.838111142888, -21142.13510061921, 0.682, -0.736, 0.21, 192.0, 0.0, 0.0, 0.0, 0.0, 0.0, 0.0, 0.0, 0.0, 0.0, 1.663591486998074E9, 0.0, 2022-09-19 17:44:46.998
39.0, 36173.30326715747, 52068.478115615624, -39267.65641780572, 940.2708340014022, -187500.02235174447, -123666.63648684461, -13058.224386957216, -21155.076760658834, 0.682, -0.736, 0.21, 192.0, 0.0, 0.0, 0.0, 0.0, 0.0, 0.0, 0.0, 0.0, 0.0, 1.6635914870021045E9, 0.0, 2022-09-19 17:44:47.002
40.0, 35356.302303827084, 51842.8372553393, -39213.72165843507, 947.1775230380921, -187500.02235174447, -125503.05581129264, -13009.743453233654, -21145.979600665523, 0.682, -0.736, 0.21, 192.0, 0.0, 0.0, 0.0, 0.0, 0.0, 0.0, 0.0, 0.0, 0.0, 1.66359148700708E9, 0.0, 2022-09-19 17:44:47.007
41.0, 35275.16547145432, 51919.637849287734, -39227.57973999736, 969.0598808598377, -187500.02235174447, -126139.70054861314, -12915.329684654438, -21136.524812760927, 0.682, -0.736, 0.21, 192.0, 0.0, 0.0, 0.0, 0.0, 0.0, 0.0, 0.0, 0.0, 0.0, 1.6635914870110683E9, 0.0, 2022-09-19 17:44:47.011
42.0, 35718.42291574751, 52098.58591539692, -39257.79929850093, 976.7935844413739, -187500.02235174447, -125469.37173239849, -12832.20354702515, -21141.62101049674, 0.682, -0.736, 0.21, 192.0, 0.0, 0.0, 0.0, 0.0, 0.0, 0.0, 0.0, 0.0, 0.0, 1.6635914870150728E9, 0.0, 2022-09-19 17:44:47.015
43.0, 36500.4657507498, 52290.095661889995, -39298.12184549831, 974.401947784656, -187500.02235174447, -123589.61237545162, -12852.342468779383, -21147.879498944225, 0.682, -0.736, 0.21, 192.0, 0.0, 0.0, 0.0, 0.0, 0.0, 0.0, 0.0, 0.0, 0.0, 1.6635914870190754E9, 0.0, 2022-09-19 17:44:47.019
44.0, 36169.34700838888, 52059.87269400033, -39284.39787440275, 924.6469646271426, -187500.02235174447, -123723.36521427217, -13074.295291220582, -21163.39160959621, 0.682, -0.736, 0.21, 192.0, 0.0, 0.0, 0.0, 0.0, 0.0, 0.0, 0.0, 0.0, 0.0, 1.6635914870230727E9, 0.0, 2022-09-19 17:44:47.023
45.0, 35357.86692593896, 51847.97815656402, -39216.51562649198, 942.3271944912905, -187500.02235174447, -125548.45220428136, -13013.945581191252, -21138.156490106165, 0.674, -0.738, 0.20400000000000001, 192.0, 21.0, 16.0, 232.0, 240.0, 6.0, 96.0, 0.0, 0.0, 0.0, 1.6635914870260723E9, 0.0, 2022-09-19 17:44:47.026
46.0, 35277.69121857777, 51921.94007896663, -39222.08121086135, 965.7071191915417, -187500.02235174447, -126184.5828514794, -12911.976922986141, -21130.579248735816, 0.674, -0.738, 0.20400000000000001, 192.0, 0.0, 0.0, 0.0, 0.0, 0.0, 0.0, 0.0, 0.0, 0.0, 1.6635914870300767E9, 0.0, 2022-09-19 17:44:47.030
47.0, 35716.74653491337, 52097.22245898515, -39264.10249043733, 962.5555232233434, -187500.02235174447, -125519.86432312302, -12844.809930897944, -21141.777472707927, 0.674, -0.738, 0.20400000000000001, 192.0, 0.0, 0.0, 0.0, 0.0, 0.0, 0.0, 0.0, 0.0, 0.0, 1.6635914870351148E9, 0.0, 2022-09-19 17:44:47.035
48.0, 36490.31805876709, 52288.46398454475, -39303.64272637877, 953.3913079966675, -187500.02235174447, -123648.30805639125, -12863.898320662776, -21153.780359480425, 0.674, -0.738, 0.20400000000000001, 192.0, 0.0, 0.0, 0.0, 0.0, 0.0, 0.0, 0.0, 0.0, 0.0, 1.663591487039136E9, 0.0, 2022-09-19 17:44:47.039
49.0, 36154.79602274847, 52061.10203994537, -39280.463967378615, 911.2359179539583, -187500.02235174447, -123780.87625275568, -13067.656823117355, -21170.253595143986, 0.674, -0.738, 0.20400000000000001, 192.0, 0.0, 0.0, 0.0, 0.0, 0.0, 0.0, 0.0, 0.0, 0.0, 1.663591487043115E9, 0.0, 2022-09-19 17:44:47.043
50.0, 35337.10215533998, 51842.72549661702, -39224.22697832906, 925.1834064940699, -187500.02235174447, -125613.0487457572, -13015.130223647384, -21154.070932158345, 0.674, -0.738, 0.20400000000000001, 192.0, 0.0, 0.0, 0.0, 0.0, 0.0, 0.0, 0.0, 0.0, 0.0, 1.6635914870470958E9, 0.0, 2022-09-19 17:44:47.047
51.0, 35266.18007018329, 51921.403637099706, -39231.71481272159, 954.9335783640836, -187500.02235174447, -126242.38446264082, -12916.782548044033, -21140.548126762882, 0.674, -0.738, 0.20400000000000001, 192.0, 0.0, 0.0, 0.0, 0.0, 0.0, 0.0, 0.0, 0.0, 0.0, 1.6635914870501196E9, 0.0, 2022-09-19 17:44:47.050
52.0, 35717.9311773695, 52112.6004591704, -39259.36392061281, 968.5681424818209, -187500.02235174447, -125567.63000102402, -12832.11414004733, -21141.866879685746, 0.674, -0.738, 0.20400000000000001, 192.0, 0.0, 0.0, 0.0, 0.0, 0.0, 0.0, 0.0, 0.0, 0.0, 1.6635914870542371E9, 0.0, 2022-09-19 17:44:47.054
53.0, 36493.044971590636, 52310.81572900006, -39307.46487468063, 954.3971364971562, -187500.02235174447, -123690.7987226008, -12859.606785727357, -21157.0437141709, 0.674, -0.738, 0.20400000000000001, 192.0, 0.0, 0.0, 0.0, 0.0, 0.0, 0.0, 0.0, 0.0, 0.0, 1.6635914870581193E9, 0.0, 2022-09-19 17:44:47.058
54.0, 36174.532613102514, 52096.28368571802, -39284.26376393602, 913.0017057659276, -187500.02235174447, -123798.221206453, -13074.697622620777, -21157.915432204656, 0.674, -0.738, 0.20400000000000001, 192.0, 0.0, 0.0, 0.0, 0.0, 0.0, 0.0, 0.0, 0.0, 0.0, 1.6635914870631423E9, 0.0, 2022-09-19 17:44:47.063
55.0, 35366.40529232089, 51889.66415997317, -39212.49231249002, 937.7674386224078, -187500.02235174447, -125618.0555365152, -13019.108834160428, -21126.019492866933, 0.676, -0.738, 0.20400000000000001, 192.0, 21.0, 32.0, 232.0, 240.0, 6.0, 96.0, 0.0, 0.0, 0.0, 1.6635914870671377E9, 0.0, 2022-09-19 17:44:47.067
56.0, 35273.466738875715, 51953.03135550396, -39225.724545207566, 955.5147237199217, -187500.02235174447, -126270.43590193224, -12918.682446322733, -21125.661864955648, 0.676, -0.738, 0.20400000000000001, 192.0, 0.0, 0.0, 0.0, 0.0, 0.0, 0.0, 0.0, 0.0, 0.0, 1.6635914870711453E9, 0.0, 2022-09-19 17:44:47.071
57.0, 35715.27131977932, 52135.801569915006, -39249.4620978191, 970.1551163381478, -187500.02235174447, -125613.13815273502, -12825.810948110933, -21127.114728345245, 0.676, -0.738, 0.20400000000000001, 192.0, 0.0, 0.0, 0.0, 0.0, 0.0, 0.0, 0.0, 0.0, 0.0, 1.66359148707516E9, 0.0, 2022-09-19 17:44:47.075
58.0, 36501.3151170391, 52335.84968279001, -39290.20932796113, 967.2270378145025, -187500.02235174447, -123732.88705741013, -12849.772018167021, -21135.720149960536, 0.676, -0.738, 0.20400000000000001, 192.0, 0.0, 0.0, 0.0, 0.0, 0.0, 0.0, 0.0, 0.0, 0.0, 1.6635914870782292E9, 0.0, 2022-09-19 17:44:47.078
59.0, 36183.45095914018, 52116.98140108364, -39274.16077544222, 919.0590285133158, -187500.02235174447, -123831.94998883606, -13068.036802773095, -21149.62293501174, 0.676, -0.738, 0.20400000000000001, 192.0, 0.0, 0.0, 0.0, 0.0, 0.0, 0.0, 0.0, 0.0, 0.0, 1.6635914870821676E9, 0.0, 2022-09-19 17:44:47.082
60.0, 35361.77848121864, 51901.17530836765, -39207.99961185451, 936.6274996551872, -187500.02235174447, -125665.93297313846, -13012.850345712943, -21133.0379406259, 0.676, -0.738, 0.20400000000000001, 192.0, 0.0, 0.0, 0.0, 0.0, 0.0, 0.0, 0.0, 0.0, 0.0, 1.6635914870861764E9, 0.0, 2022-09-19 17:44:47.086
61.0, 35281.53571862409, 51976.05365229293, -39212.76053342349, 971.2503518164577, -187500.02235174447, -126311.16078032981, -12912.021626475052, -21121.07975734231, 0.676, -0.738, 0.20400000000000001, 192.0, 0.0, 0.0, 0.0, 0.0, 0.0, 0.0, 0.0, 0.0, 0.0, 1.6635914870911636E9, 0.0, 2022-09-19 17:44:47.091
62.0, 35728.101221096666, 52153.772372457075, -39240.32023433688, 979.8110699428404, -187500.02235174447, -125649.5044409638, -12821.899392831254, -21127.315894045343, 0.676, -0.738, 0.20400000000000001, 192.0, 0.0, 0.0, 0.0, 0.0, 0.0, 0.0, 0.0, 0.0, 0.0, 1.6635914870951884E9, 0.0, 2022-09-19 17:44:47.095
63.0, 36511.26164332171, 52353.68637486534, -39284.46492963612, 975.5418867518767, -187500.02235174447, -123773.03079045187, -12840.45134072916, -21139.27407732893, 0.676, -0.738, 0.20400000000000001, 192.0, 0.0, 0.0, 0.0, 0.0, 0.0, 0.0, 0.0, 0.0, 0.0, 1.6635914870991993E9, 0.0, 2022-09-19 17:44:47.099
64.0, 36196.86200581336, 52138.528482738555, -39274.36194114231, 929.3855344516677, -187500.02235174447, -123859.37557928271, -13068.77441034012, -21153.489786802507, 0.676, -0.738, 0.20400000000000001, 192.0, 0.0, 0.0, 0.0, 0.0, 0.0, 0.0, 0.0, 0.0, 0.0, 1.6635914871031995E9, 0.0, 2022-09-19 17:44:47.103
65.0, 35363.07488239704, 51907.14322413722, -39221.14243759423, 925.2728134718911, -187500.02235174447, -125696.51015955332, -13026.842537741964, -21153.735655991513, 0.672, -0.738, 0.20400000000000001, 192.0, 21.0, 0.0, 232.0, 240.0, 6.0, 96.0, 0.0, 0.0, 0.0, 1.663591487106225E9, 0.0, 2022-09-19 17:44:47.106
66.0, 35274.584326098484, 51978.62410290529, -39223.60112948431, 954.1512673081479, -187500.02235174447, -126347.37060634741, -12918.369521900358, -21142.98446690851, 0.672, -0.738, 0.20400000000000001, 192.0, 0.0, 0.0, 0.0, 0.0, 0.0, 0.0, 0.0, 0.0, 0.0, 1.6635914871102188E9, 0.0, 2022-09-19 17:44:47.110
67.0, 35715.69600292397, 52166.37875632987, -39245.41643207269, 977.2406193304801, -187500.02235174447, -125693.82795021868, -12830.370703979816, -21136.70362671657, 0.672, -0.738, 0.20400000000000001, 192.0, 0.0, 0.0, 0.0, 0.0, 0.0, 0.0, 0.0, 0.0, 0.0, 1.6635914871142247E9, 0.0, 2022-09-19 17:44:47.114
68.0, 36496.330678025566, 52363.4093837034, -39294.12088324081, 968.0317006148936, -187500.02235174447, -123817.4213549401, -12849.63790770029, -21147.1418913772, 0.672, -0.738, 0.20400000000000001, 192.0, 0.0, 0.0, 0.0, 0.0, 0.0, 0.0, 0.0, 0.0, 0.0, 1.6635914871183634E9, 0.0, 2022-09-19 17:44:47.118
69.0, 36186.982534764116, 52142.574148484964, -39278.072330721894, 921.987107036961, -187500.02235174447, -123885.57182378434, -13066.025145772117, -21156.864900215256, 0.672, -0.738, 0.20400000000000001, 192.0, 0.0, 0.0, 0.0, 0.0, 0.0, 0.0, 0.0, 0.0, 0.0, 1.6635914871232533E9, 0.0, 2022-09-19 17:44:47.123
70.0, 35370.38390283393, 51923.12472142276, -39209.631289199744, 936.4486856995447, -187500.02235174447, -125702.47807532288, -13012.962104435219, -21136.077777871822, 0.672, -0.738, 0.20400000000000001, 192.0, 0.0, 0.0, 0.0, 0.0, 0.0, 0.0, 0.0, 0.0, 0.0, 1.6635914871272635E9, 0.0, 2022-09-19 17:44:47.127
71.0, 35286.542509382074, 51999.56768745991, -39209.161902566186, 963.471944746011, -187500.02235174447, -126349.47167032621, -12905.405510116281, -21121.07975734231, 0.672, -0.738, 0.20400000000000001, 192.0, 0.0, 0.0, 0.0, 0.0, 0.0, 0.0, 0.0, 0.0, 0.0, 1.6635914871312475E9, 0.0, 2022-09-19 17:44:47.131
72.0, 35724.12261058362, 52185.37773911688, -39227.91501616419, 981.822726943818, -187500.02235174447, -125705.29439512425, -12815.216221239118, -21115.827097395315, 0.672, -0.738, 0.20400000000000001, 192.0, 0.0, 0.0, 0.0, 0.0, 0.0, 0.0, 0.0, 0.0, 0.0, 1.6635914871342769E9, 0.0, 2022-09-19 17:44:47.134
73.0, 36505.629003718976, 52375.99341583174, -39281.55920285692, 971.1609448386365, -187500.02235174447, -123832.64289291417, -12843.82645414191, -21134.490804015495, 0.672, -0.738, 0.20400000000000001, 192.0, 0.0, 0.0, 0.0, 0.0, 0.0, 0.0, 0.0, 0.0, 0.0, 1.663591487138273E9, 0.0, 2022-09-19 17:44:47.138
74.0, 36203.85810182787, 52157.08043063646, -39263.67780729268, 922.8364733262626, -187500.02235174447, -123889.46102731956, -13056.6821165898, -21150.718170490047, 0.672, -0.738, 0.20400000000000001, 192.0, 0.0, 0.0, 0.0, 0.0, 0.0, 0.0, 0.0, 0.0, 0.0, 1.6635914871422727E9, 0.0, 2022-09-19 17:44:47.142
75.0, 35371.38973133442, 51929.003230214505, -39208.55840546589, 926.6809733725755, -187500.02235174447, -125719.06306970872, -13014.571430036001, -21141.531603518917, 0.674, -0.736, 0.202, 192.0, 21.0, 16.0, 233.0, 0.0, 6.0, 80.0, 0.0, 0.0, 0.0, 1.6635914871462708E9, 0.0, 2022-09-19 17:44:47.146
76.0, 35276.908907521836, 51997.39956824775, -39214.548672979916, 954.1512673081479, -187500.02235174447, -126380.36178116343, -12910.367597385359, -21133.149699348178, 0.674, -0.736, 0.202, 192.0, 0.0, 0.0, 0.0, 0.0, 0.0, 0.0, 0.0, 0.0, 0.0, 1.6635914871515064E9, 0.0, 2022-09-19 17:44:47.151
77.0, 35712.25383427785, 52175.9676547012, -39242.24248436004, 971.4515175165556, -187500.02235174447, -125742.21947696443, -12829.834262112889, -21129.595771979784, 0.674, -0.736, 0.202, 192.0, 0.0, 0.0, 0.0, 0.0, 0.0, 0.0, 0.0, 0.0, 0.0, 1.6635914871553268E9, 0.0, 2022-09-19 17:44:47.155
78.0, 36496.35302977002, 52370.74075588474, -39293.07035125141, 960.6556249446422, -187500.02235174447, -123864.67294271862, -12853.63886995779, -21137.37417905023, 0.674, -0.736, 0.202, 192.0, 0.0, 0.0, 0.0, 0.0, 0.0, 0.0, 0.0, 0.0, 0.0, 1.6635914871593187E9, 0.0, 2022-09-19 17:44:47.159
79.0, 36199.633622125824, 52158.35448007041, -39271.99265623005, 922.8364733262626, -187500.02235174447, -123904.25788214897, -13059.587843368989, -21143.722074475536, 0.674, -0.736, 0.202, 192.0, 0.0, 0.0, 0.0, 0.0, 0.0, 0.0, 0.0, 0.0, 0.0, 1.6635914871623144E9, 0.0, 2022-09-19 17:44:47.162
80.0, 35364.12541438644, 51930.38903837074, -39201.98699259603, 938.0133078114162, -187500.02235174447, -125733.74816581586, -13001.987397907664, -21131.65213246967, 0.674, -0.736, 0.202, 192.0, 0.0, 0.0, 0.0, 0.0, 0.0, 0.0, 0.0, 0.0, 0.0, 1.6635914871663165E9, 0.0, 2022-09-19 17:44:47.166
81.0, 35276.752445310645, 52009.35775153134, -39198.41071348319, 971.3397587942791, -187500.02235174447, -126391.93998479129, -12891.949759954186, -21119.537486974896, 0.674, -0.736, 0.202, 192.0, 0.0, 0.0, 0.0, 0.0, 0.0, 0.0, 0.0, 0.0, 0.0, 1.6635914871703637E9, 0.0, 2022-09-19 17:44:47.170
82.0, 35706.420028975015, 52188.55168682953, -39230.9101499212, 981.8450786882734, -187500.02235174447, -125767.29813424328, -12818.591334651868, -21120.43155675311, 0.674, -0.736, 0.202, 192.0, 0.0, 0.0, 0.0, 0.0, 0.0, 0.0, 0.0, 0.0, 0.0, 1.66359148717433E9, 0.0, 2022-09-19 17:44:47.174
83.0, 36496.01775360319, 52387.39280550394, -39286.63304884828, 968.210514570536, -187500.02235174447, -123894.42311458864, -12848.386210010793, -21133.104995859267, 0.674, -0.736, 0.202, 192.0, 0.0, 0.0, 0.0, 0.0, 0.0, 0.0, 0.0, 0.0, 0.0, 1.663591487179342E9, 0.0, 2022-09-19 17:44:47.179
84.0, 36214.74340137761, 52177.197000646236, -39265.018911959996, 923.9987640379387, -187500.02235174447, -123917.93714975563, -13055.497474133668, -21141.19632735209, 0.674, -0.736, 0.202, 192.0, 0.0, 0.0, 0.0, 0.0, 0.0, 0.0, 0.0, 0.0, 0.0, 1.6635914871833427E9, 0.0, 2022-09-19 17:44:47.183
85.0, 35383.59378380702, 51949.633890346755, -39197.404884982694, 934.7723048653967, -187500.02235174447, -125743.71704384293, -12998.656987983823, -21127.80763242336, 0.678, -0.738, 0.20800000000000002, 192.0, 21.0, 48.0, 232.0, 240.0, 6.0, 128.0, 0.0, 0.0, 0.0, 1.6635914871873584E9, 0.0, 2022-09-19 17:44:47.187
86.0, 35282.630954102395, 52015.079798111896, -39209.25130954401, 953.7489359079524, -187500.02235174447, -126417.82330487053, -12900.55518156948, -21123.784318421403, 0.678, -0.738, 0.20800000000000002, 192.0, 0.0, 0.0, 0.0, 0.0, 0.0, 0.0, 0.0, 0.0, 0.0, 1.6635914871903813E9, 0.0, 2022-09-19 17:44:47.190
87.0, 35707.6270231756, 52195.99481773315, -39235.82753370137, 969.5292674933992, -187500.02235174447, -125801.11632360416, -12819.44070094117, -21125.99714112248, 0.678, -0.738, 0.20800000000000002, 192.0, 0.0, 0.0, 0.0, 0.0, 0.0, 0.0, 0.0, 0.0, 0.0, 1.6635914871943703E9, 0.0, 2022-09-19 17:44:47.194
88.0, 36503.393829273446, 52405.74358770175, -39282.430920890685, 969.9315988935947, -187500.02235174447, -123930.36471967277, -12838.082055816896, -21133.440272026095, 0.678, -0.738, 0.20800000000000002, 192.0, 0.0, 0.0, 0.0, 0.0, 0.0, 0.0, 0.0, 0.0, 0.0, 1.6635914871984036E9, 0.0, 2022-09-19 17:44:47.198
89.0, 36222.45475321469, 52185.75771877262, -39279.704008067136, 916.7567988344192, -187500.02235174447, -123948.78255710394, -13066.271014961127, -21155.166167636653, 0.678, -0.738, 0.20800000000000002, 192.0, 0.0, 0.0, 0.0, 0.0, 0.0, 0.0, 0.0, 0.0, 0.0, 1.663591487202405E9, 0.0, 2022-09-19 17:44:47.202
90.0, 35385.471330341265, 51948.60571010181, -39217.52145499247, 930.4137146966118, -187500.02235174447, -125780.10568381616, -13012.246848612649, -21144.593792509295, 0.678, -0.738, 0.20800000000000002, 192.0, 0.0, 0.0, 0.0, 0.0, 0.0, 0.0, 0.0, 0.0, 0.0, 1.663591487206396E9, 0.0, 2022-09-19 17:44:47.206
91.0, 35284.93318378129, 52018.231394080096, -39219.04137361543, 964.9471598800612, -187500.02235174447, -126456.62593324494, -12902.097451936896, -21133.37321679273, 0.678, -0.738, 0.20800000000000002, 192.0, 0.0, 0.0, 0.0, 0.0, 0.0, 0.0, 0.0, 0.0, 0.0, 1.6635914872113972E9, 0.0, 2022-09-19 17:44:47.211
92.0, 35709.10223830965, 52193.51377409861, -39245.68465300616, 977.307674563846, -187500.02235174447, -125842.28823689083, -12822.771110865011, -21134.98254239351, 0.678, -0.738, 0.20800000000000002, 192.0, 0.0, 0.0, 0.0, 0.0, 0.0, 0.0, 0.0, 0.0, 0.0, 1.6635914872144291E9, 0.0, 2022-09-19 17:44:47.214
93.0, 36498.25292804872, 52396.53466898617, -39292.846833806856, 969.95395063805, -187500.02235174447, -123975.89522312823, -12841.188948296183, -21147.879498944225, 0.678, -0.738, 0.20800000000000002, 192.0, 0.0, 0.0, 0.0, 0.0, 0.0, 0.0, 0.0, 0.0, 0.0, 1.663591487218419E9, 0.0, 2022-09-19 17:44:47.218
94.0, 36228.69088991772, 52196.53125960008, -39278.16173769972, 923.9093570601175, -187500.02235174447, -123975.44818823913, -13057.82205555702, -21165.112693919265, 0.678, -0.738, 0.20800000000000002, 192.0, 0.0, 0.0, 0.0, 0.0, 0.0, 0.0, 0.0, 0.0, 0.0, 1.66359148722242E9, 0.0, 2022-09-19 17:44:47.222
95.0, 35386.18658616383, 51958.90986429571, -39220.3601265383, 928.4020576956342, -187500.02235174447, -125810.36994580865, -13017.253639370638, -21154.741484492002, 0.678, -0.744, 0.21, 192.0, 21.0, 48.0, 232.0, 192.0, 6.0, 144.0, 0.0, 0.0, 0.0, 1.6635914872264228E9, 0.0, 2022-09-19 17:44:47.226
96.0, 35279.79228255657, 52022.36646680433, -39226.9091876637, 954.6877091750753, -187500.02235174447, -126498.53545409864, -12917.006065488586, -21147.678333244126, 0.678, -0.744, 0.21, 192.0, 0.0, 0.0, 0.0, 0.0, 0.0, 0.0, 0.0, 0.0, 0.0, 1.6635914872304475E9, 0.0, 2022-09-19 17:44:47.230
97.0, 35706.01769757482, 52208.37768416139, -39253.53011530997, 973.664340217631, -187500.02235174447, -125893.60784216021, -12836.562137193936, -21141.151623863178, 0.678, -0.744, 0.21, 192.0, 0.0, 0.0, 0.0, 0.0, 0.0, 0.0, 0.0, 0.0, 0.0, 1.6635914872344522E9, 0.0, 2022-09-19 17:44:47.234
98.0, 36501.82920716157, 52413.276125583194, -39293.78560707398, 974.0443198733711, -187500.02235174447, -124024.28674987398, -12838.640849428279, -21145.84549019879, 0.678, -0.744, 0.21, 192.0, 0.0, 0.0, 0.0, 0.0, 0.0, 0.0, 0.0, 0.0, 0.0, 1.6635914872395442E9, 0.0, 2022-09-19 17:44:47.239
99.0, 36229.40614574029, 52199.12406195689, -39288.085912237875, 926.6362698836649, -187500.02235174447, -124015.39075558077, -13062.694735848278, -21167.079647431332, 0.678, -0.744, 0.21, 192.0, 0.0, 0.0, 0.0, 0.0, 0.0, 0.0, 0.0, 0.0, 0.0, 1.663591487242448E9, 0.0, 2022-09-19 17:44:47.242
100.0, 35396.98247873574, 51967.895265566745, -39229.05495513141, 941.4778282019888, -187500.02235174447, -125837.41555659958, -13027.20016565325, -21152.90864144667, 0.678, -0.744, 0.21, 192.0, 0.0, 0.0, 0.0, 0.0, 0.0, 0.0, 0.0, 0.0, 0.0, 1.6635914872454653E9, 0.0, 2022-09-19 17:44:47.245
101.0, 35291.77281758461, 52028.3790860628, -39229.636100487245, 969.2610465599355, -187500.02235174447, -126526.78805909015, -12917.877783522343, -21143.118577375244, 0.678, -0.744, 0.21, 192.0, 0.0, 0.0, 0.0, 0.0, 0.0, 0.0, 0.0, 0.0, 0.0, 1.6635914872506485E9, 0.0, 2022-09-19 17:44:47.250
102.0, 35707.15763654204, 52197.15710844483, -39256.10056592233, 980.7721949544186, -187500.02235174447, -125930.5776274893, -12832.471767958614, -21148.81827221135, 0.678, -0.744, 0.21, 192.0, 0.0, 0.0, 0.0, 0.0, 0.0, 0.0, 0.0, 0.0, 0.0, 1.6635914872544775E9, 0.0, 2022-09-19 17:44:47.254
103.0, 36499.37051527149, 52398.389863775956, -39302.43573217818, 978.8946484201728, -187500.02235174447, -124066.57625038341, -12843.11119831934, -21157.513100804463, 0.678, -0.744, 0.21, 192.0, 0.0, 0.0, 0.0, 0.0, 0.0, 0.0, 0.0, 0.0, 0.0, 1.663591487258484E9, 0.0, 2022-09-19 17:44:47.258
104.0, 36232.89301787532, 52181.667349537296, -39293.8750140518, 930.5254734188883, -187500.02235174447, -124049.41011064174, -13066.561587639046, -21171.482941089027, 0.678, -0.744, 0.21, 192.0, 0.0, 0.0, 0.0, 0.0, 0.0, 0.0, 0.0, 0.0, 0.0, 1.663591487262505E9, 0.0, 2022-09-19 17:44:47.262
105.0, 35398.21182468079, 51945.96820425609, -39227.57973999736, 937.1862932665698, -187500.02235174447, -125871.14433898263, -13020.695808016755, -21163.883347974224, 0.672, -0.732, 0.212, 192.0, 21.0, 0.0, 233.0, 32.0, 6.0, 160.0, 0.0, 0.0, 0.0, 1.663591487267513E9, 0.0, 2022-09-19 17:44:47.267
106.0, 35294.47737866371, 52016.44325452367, -39232.363013310794, 967.1599825811365, -187500.02235174447, -126556.44882398234, -12914.994408487608, -21149.98056292302, 0.672, -0.732, 0.212, 192.0, 0.0, 0.0, 0.0, 0.0, 0.0, 0.0, 0.0, 0.0, 0.0, 1.6635914872705026E9, 0.0, 2022-09-19 17:44:47.270
107.0, 35718.668784936526, 52203.30383817004, -39257.6651880342, 979.7663664539298, -187500.02235174447, -125956.63976152419, -12833.54465169247, -21146.180766365622, 0.672, -0.732, 0.212, 192.0, 0.0, 0.0, 0.0, 0.0, 0.0, 0.0, 0.0, 0.0, 0.0, 1.6635914872745945E9, 0.0, 2022-09-19 17:44:47.274
108.0, 36505.40548627442, 52401.60851497752, -39308.15777875874, 967.3387965367791, -187500.02235174447, -124100.48384672211, -12846.486311732091, -21160.374124094742, 0.672, -0.732, 0.212, 192.0, 0.0, 0.0, 0.0, 0.0, 0.0, 0.0, 0.0, 0.0, 0.0, 1.6635914872785404E9, 0.0, 2022-09-19 17:44:47.278
109.0, 36246.21465757068, 52192.99968397614, -39298.34536294286, 924.1999297380364, -187500.02235174447, -124065.45866316065, -13070.584901641001, -21176.243862658008, 0.672, -0.732, 0.212, 192.0, 0.0, 0.0, 0.0, 0.0, 0.0, 0.0, 0.0, 0.0, 0.0, 1.6635914872825303E9, 0.0, 2022-09-19 17:44:47.282
110.0, 35409.56651086408, 51957.14407648374, -39234.329966822865, 929.5196449183995, -187500.02235174447, -125884.28716472235, -13022.171023150806, -21171.773513766948, 0.672, -0.732, 0.212, 192.0, 0.0, 0.0, 0.0, 0.0, 0.0, 0.0, 0.0, 0.0, 0.0, 1.6635914872865949E9, 0.0, 2022-09-19 17:44:47.286
111.0, 35299.5288729106, 52030.033115152495, -39222.505894006004, 966.3106162918349, -187500.02235174447, -126577.77238819271, -12901.35984436987, -21151.768702479447, 0.672, -0.732, 0.212, 192.0, 0.0, 0.0, 0.0, 0.0, 0.0, 0.0, 0.0, 0.0, 0.0, 1.6635914872905548E9, 0.0, 2022-09-19 17:44:47.290
112.0, 35717.10416282465, 52214.56911737551, -39245.505839050515, 987.4106630576448, -187500.02235174447, -125983.21598568154, -12819.597163152357, -21145.219641354044, 0.672, -0.732, 0.212, 192.0, 0.0, 0.0, 0.0, 0.0, 0.0, 0.0, 0.0, 0.0, 0.0, 1.6635914872955885E9, 0.0, 2022-09-19 17:44:47.295
113.0, 36512.043954377645, 52423.982611177285, -39289.04703724945, 982.4485757885666, -187500.02235174447, -124116.15241958528, -12826.414445211227, -21156.283754859418, 0.672, -0.732, 0.212, 192.0, 0.0, 0.0, 0.0, 0.0, 0.0, 0.0, 0.0, 0.0, 0.0, 1.6635914872985485E9, 0.0, 2022-09-19 17:44:47.298
114.0, 36255.73650070864, 52214.43500690878, -39280.77689180099, 930.5925286522543, -187500.02235174447, -124067.17974748371, -13051.652974087356, -21178.032002214433, 0.672, -0.732, 0.212, 192.0, 0.0, 0.0, 0.0, 0.0, 0.0, 0.0, 0.0, 0.0, 0.0, 1.6635914873016112E9, 0.0, 2022-09-19 17:44:47.301
115.0, 35406.83959804053, 51966.59886438833, -39230.35135630982, 928.3573542067236, -187500.02235174447, -125892.8702345932, -13025.523784819101, -21173.29343238991, 0.666, -0.732, 0.21, 192.0, 20.0, 208.0, 233.0, 32.0, 6.0, 144.0, 0.0, 0.0, 0.0, 1.6635914873065755E9, 0.0, 2022-09-19 17:44:47.306
116.0, 35285.5813843705, 52026.814463950934, -39233.99469065603, 957.3922702541674, -187500.02235174447, -126599.40887682544, -12922.012856246574, -21161.424656084142, 0.666, -0.732, 0.21, 192.0, 0.0, 0.0, 0.0, 0.0, 0.0, 0.0, 0.0, 0.0, 0.0, 1.6635914873105705E9, 0.0, 2022-09-19 17:44:47.310
117.0, 35694.93123232499, 52204.309666670524, -39264.90715323772, 966.7800029253964, -187500.02235174447, -126019.06818378785, -12842.664163430234, -21167.1467026647, 0.666, -0.732, 0.21, 192.0, 0.0, 0.0, 0.0, 0.0, 0.0, 0.0, 0.0, 0.0, 0.0, 1.6635914873145814E9, 0.0, 2022-09-19 17:44:47.314
118.0, 36484.59601218653, 52422.59680302106, -39310.70587762664, 957.7498981654524, -187500.02235174447, -124162.26406839659, -12852.342468779383, -21178.85901675928, 0.666, -0.732, 0.21, 192.0, 0.0, 0.0, 0.0, 0.0, 0.0, 0.0, 0.0, 0.0, 0.0, 1.6635914873186269E9, 0.0, 2022-09-19 17:44:47.318
119.0, 36247.734576193645, 52230.01417279413, -39289.60583086083, 921.3389064477572, -187500.02235174447, -124091.8337216179, -13054.066962488529, -21180.602452826795, 0.666, -0.732, 0.21, 192.0, 0.0, 0.0, 0.0, 0.0, 0.0, 0.0, 0.0, 0.0, 0.0, 1.6635914873236077E9, 0.0, 2022-09-19 17:44:47.323
120.0, 35411.22053995378, 51987.944780343154, -39227.557388252906, 930.9054530746286, -187500.02235174447, -125903.06263006481, -13018.058302171028, -21168.130179420732, 0.666, -0.732, 0.21, 192.0, 0.0, 0.0, 0.0, 0.0, 0.0, 0.0, 0.0, 0.0, 0.0, 1.6635914873266008E9, 0.0, 2022-09-19 17:44:47.326
121.0, 35295.483207164194, 52062.97958647962, -39221.2094928276, 966.0870988472818, -187500.02235174447, -126606.00264143976, -12899.616408302356, -21154.18269088062, 0.666, -0.732, 0.21, 192.0, 0.0, 0.0, 0.0, 0.0, 0.0, 0.0, 0.0, 0.0, 0.0, 1.663591487329601E9, 0.0, 2022-09-19 17:44:47.329
122.0, 35704.14015104058, 52241.54767293307, -39247.91982745169, 982.2697618329241, -187500.02235174447, -126028.97000658156, -12820.312418974927, -21156.641382770704, 0.666, -0.732, 0.21, 192.0, 0.0, 0.0, 0.0, 0.0, 0.0, 0.0, 0.0, 0.0, 0.0, 1.663591487334591E9, 0.0, 2022-09-19 17:44:47.334
123.0, 36499.616384460496, 52450.268262656726, -39286.18601395917, 989.6234857587202, -187500.02235174447, -124168.09787369941, -12823.86634634332, -21159.167129894155, 0.666, -0.732, 0.21, 192.0, 0.0, 0.0, 0.0, 0.0, 0.0, 0.0, 0.0, 0.0, 0.0, 1.6635914873386245E9, 0.0, 2022-09-19 17:44:47.338
124.0, 36260.095090877425, 52250.28720501509, -39277.71470281061, 945.277624759391, -187500.02235174447, -124090.38085822832, -13041.214709426727, -21172.66758354516, 0.666, -0.732, 0.21, 192.0, 0.0, 0.0, 0.0, 0.0, 0.0, 0.0, 0.0, 0.0, 0.0, 1.6635914873426244E9, 0.0, 2022-09-19 17:44:47.342
125.0, 35416.62966211196, 52007.05552185244, -39220.695402705125, 946.2834532598798, -187500.02235174447, -125905.74483939944, -13008.447052055246, -21161.849339228793, 0.668, -0.734, 0.212, 192.0, 20.0, 224.0, 233.0, 16.0, 6.0, 160.0, 0.0, 0.0, 0.0, 1.663591487346616E9, 0.0, 2022-09-19 17:44:47.346
126.0, 35294.83500657499, 52064.275987658024, -39224.62930972926, 971.0268343719047, -187500.02235174447, -126621.78297302521, -12906.83602176142, -21151.500481545983, 0.668, -0.734, 0.212, 192.0, 0.0, 0.0, 0.0, 0.0, 0.0, 0.0, 0.0, 0.0, 0.0, 1.6635914873506212E9, 0.0, 2022-09-19 17:44:47.350
127.0, 35702.95550858444, 52239.558367676545, -39247.405737329216, 990.3834450702007, -187500.02235174447, -126050.49473649201, -12814.791538094467, -21150.338190834307, 0.668, -0.734, 0.212, 192.0, 0.0, 0.0, 0.0, 0.0, 0.0, 0.0, 0.0, 0.0, 0.0, 1.6635914873546457E9, 0.0, 2022-09-19 17:44:47.354
128.0, 36487.8146633881, 52439.4276665959, -39304.76031360153, 978.9617036535387, -187500.02235174447, -124202.87718807189, -12836.405674982749, -21170.34300212181, 0.668, -0.734, 0.212, 192.0, 0.0, 0.0, 0.0, 0.0, 0.0, 0.0, 0.0, 0.0, 0.0, 1.6635914873576624E9, 0.0, 2022-09-19 17:44:47.357
129.0, 36259.960980410695, 52233.92572807381, -39289.71758958311, 933.2076827535252, -187500.02235174447, -124106.8987973808, -13053.754038066154, -21178.300223147897, 0.668, -0.734, 0.212, 192.0, 0.0, 0.0, 0.0, 0.0, 0.0, 0.0, 0.0, 0.0, 0.0, 1.663591487362648E9, 0.0, 2022-09-19 17:44:47.362
130.0, 35419.46833365779, 51992.90686761223, -39222.97528063956, 943.9588718365279, -187500.02235174447, -125922.08396459627, -13017.119528903906, -21160.03884792791, 0.668, -0.734, 0.212, 192.0, 0.0, 0.0, 0.0, 0.0, 0.0, 0.0, 0.0, 0.0, 0.0, 1.663591487366668E9, 0.0, 2022-09-19 17:44:47.366
131.0, 35299.64063163288, 52056.63169105431, -39221.54476899443, 978.7605379534409, -187500.02235174447, -126644.26882794725, -12899.906980980275, -21149.37706582273, 0.668, -0.734, 0.212, 192.0, 0.0, 0.0, 0.0, 0.0, 0.0, 0.0, 0.0, 0.0, 0.0, 1.663591487370677E9, 0.0, 2022-09-19 17:44:47.370
132.0, 35716.768886657825, 52236.76439961963, -39243.203609371616, 1002.7439597539855, -187500.02235174447, -126069.22549834556, -12811.885811315276, -21139.028208139924, 0.668, -0.734, 0.212, 192.0, 0.0, 0.0, 0.0, 0.0, 0.0, 0.0, 0.0, 0.0, 0.0, 1.6635914873746755E9, 0.0, 2022-09-19 17:44:47.374
133.0, 36512.78156194467, 52445.86496899903, -39290.79047331696, 996.306657350857, -187500.02235174447, -124208.73334511917, -12820.15595676374, -21154.18269088062, 0.668, -0.734, 0.212, 192.0, 0.0, 0.0, 0.0, 0.0, 0.0, 0.0, 0.0, 0.0, 0.0, 1.663591487378701E9, 0.0, 2022-09-19 17:44:47.378
134.0, 36284.95023071173, 52250.51072245964, -39274.026664975485, 952.7654591519189, -187500.02235174447, -124106.0941345804, -13032.318715133515, -21164.531548563427, 0.668, -0.734, 0.212, 192.0, 0.0, 0.0, 0.0, 0.0, 0.0, 0.0, 0.0, 0.0, 0.0, 1.663591487382693E9, 0.0, 2022-09-19 17:44:47.382
135.0, 35443.94349383635, 52009.60362072034, -39208.20077755461, 959.4262789996004, -187500.02235174447, -125916.60778720473, -12993.67254897029, -21148.639458255704, 0.67, -0.732, 0.218, 192.0, 20.0, 240.0, 233.0, 32.0, 6.0, 208.0, 0.0, 0.0, 0.0, 1.6635914873857117E9, 0.0, 2022-09-19 17:44:47.385
136.0, 35317.05264056357, 52067.852266770875, -39212.24644330102, 983.8343839447957, -187500.02235174447, -126645.83345005912, -12891.949759954186, -21139.363484306752, 0.67, -0.732, 0.218, 192.0, 0.0, 0.0, 0.0, 0.0, 0.0, 0.0, 0.0, 0.0, 0.0, 1.6635914873897023E9, 0.0, 2022-09-19 17:44:47.389
137.0, 35721.68627043799, 52239.08898104298, -39241.661339004204, 991.4786805485107, -187500.02235174447, -126088.06801892139, -12814.880945072287, -21143.833833197812, 0.67, -0.732, 0.218, 192.0, 0.0, 0.0, 0.0, 0.0, 0.0, 0.0, 0.0, 0.0, 0.0, 1.6635914873947608E9, 0.0, 2022-09-19 17:44:47.394
138.0, 36512.401582288934, 52445.9767277213, -39287.102435481844, 987.8353462022957, -187500.02235174447, -124240.00343561215, -12817.317285217916, -21155.635554270215, 0.67, -0.732, 0.218, 192.0, 0.0, 0.0, 0.0, 0.0, 0.0, 0.0, 0.0, 0.0, 0.0, 1.663591487398732E9, 0.0, 2022-09-19 17:44:47.398
139.0, 36277.64121027484, 52237.658469397844, -39284.75550231404, 936.6722031440978, -187500.02235174447, -124139.62175126336, -13044.187491439283, -21175.10392369079, 0.67, -0.732, 0.218, 192.0, 0.0, 0.0, 0.0, 0.0, 0.0, 0.0, 0.0, 0.0, 0.0, 1.6635914874037375E9, 0.0, 2022-09-19 17:44:47.403
140.0, 35426.82205758358, 51988.97296058809, -39228.71967896458, 935.7110781325196, -187500.02235174447, -125962.7864912494, -13018.572392293501, -21168.15253116519, 0.67, -0.732, 0.218, 192.0, 0.0, 0.0, 0.0, 0.0, 0.0, 0.0, 0.0, 0.0, 0.0, 1.6635914874077277E9, 0.0, 2022-09-19 17:44:47.407
141.0, 35302.38989620088, 52057.74927827708, -39224.1599230957, 970.0210058714159, -187500.02235174447, -126697.1530553285, -12903.371501370848, -21150.293487345396, 0.67, -0.732, 0.218, 192.0, 0.0, 0.0, 0.0, 0.0, 0.0, 0.0, 0.0, 0.0, 0.0, 1.6635914874107423E9, 0.0, 2022-09-19 17:44:47.410
142.0, 35710.28688076579, 52237.63611765339, -39246.01992917299, 988.9082299361504, -187500.02235174447, -126140.92989455818, -12816.11029101733, -21148.684161744615, 0.67, -0.732, 0.218, 192.0, 0.0, 0.0, 0.0, 0.0, 0.0, 0.0, 0.0, 0.0, 0.0, 1.6635914874137528E9, 0.0, 2022-09-19 17:44:47.413
143.0, 36506.187797330356, 52443.965070720325, -39297.54070014247, 981.6886164770862, -187500.02235174447, -124286.42800884582, -12823.888698087776, -21161.111731661767, 0.67, -0.732, 0.218, 192.0, 0.0, 0.0, 0.0, 0.0, 0.0, 0.0, 0.0, 0.0, 0.0, 1.6635914874177537E9, 0.0, 2022-09-19 17:44:47.417
144.0, 36291.45458834822, 52250.44366722628, -39284.39787440275, 940.8072758683296, -187500.02235174447, -124158.1066439279, -13039.717142548221, -21171.61705155576, 0.67, -0.732, 0.218, 192.0, 0.0, 0.0, 0.0, 0.0, 0.0, 0.0, 0.0, 0.0, 0.0, 1.6635914874227407E9, 0.0, 2022-09-19 17:44:47.422
