%OpenBCI Raw EEG Data
%Number of channels = 8
%Sample Rate = 250 Hz
%Board = OpenBCI_GUI$BoardCytonSerial
Sample Index, EXG Channel 0, EXG Channel 1, EXG Channel 2, EXG Channel 3, EXG Channel 4, EXG Channel 5, EXG Channel 6, EXG Channel 7, Accel Channel 0, Accel Channel 1, Accel Channel 2, Other, Other, Other, Other, Other, Other, Other, Analog Channel 0, Analog Channel 1, Analog Channel 2, Timestamp, Other, Timestamp (Formatted)
16.0, 9951.06368673607, 43271.27853289587, -19399.682509861294, -10606.103909743299, 13030.307058132537, -187500.02235174447, 26810.91747414082, -18481.137571470448, 0.0, 0.0, 0.0, 192.0, 0.0, 0.0, 0.0, 0.0, 0.0, 0.0, 0.0, 0.0, 0.0, 1.6635865880456936E9, 0.0, 2022-09-19 16:23:08.045
17.0, 9941.519491853654, 43257.5098583114, -19401.157724995344, -10599.845421295813, 13006.614209009911, -187500.02235174447, 26756.692142092248, -18476.197835945826, 0.0, 0.0, 0.0, 192.0, 0.0, 0.0, 0.0, 0.0, 0.0, 0.0, 0.0, 0.0, 0.0, 1.66358658804572E9, 0.0, 2022-09-19 16:23:08.045
0.0, 0.0, 0.0, 0.0, 0.0, 0.0, 0.0, 0.0, 0.0, 0.65, -0.724, 0.32, 192.0, 20.0, 80.0, 233.0, 96.0, 10.0, 0.0, 0.0, 0.0, 0.0, 1.6635865881113677E9, 0.0, 2022-09-19 16:23:08.111
1.0, 9868.026956084605, 43332.85758887024, -19338.863413198404, -10923.252811819651, 12519.234421161942, -187500.02235174447, 27397.89663528164, -18387.751983136175, 0.65, -0.724, 0.32, 192.0, 0.0, 0.0, 0.0, 0.0, 0.0, 0.0, 0.0, 0.0, 0.0, 1.6635865881283877E9, 0.0, 2022-09-19 16:23:08.128
2.0, 9866.015299083627, 43329.34836499076, -19345.524233046082, -10924.705675209247, 12515.434624604539, -187500.02235174447, 27399.148332971137, -18391.931759349318, 0.65, -0.724, 0.32, 192.0, 0.0, 0.0, 0.0, 0.0, 0.0, 0.0, 0.0, 0.0, 0.0, 1.6635865881314232E9, 0.0, 2022-09-19 16:23:08.131
3.0, 9859.33212749149, 43317.18901600707, -19351.73801800466, -10923.945715897766, 12501.353025597695, -187500.02235174447, 27355.137748138637, -18393.965768094753, 0.65, -0.724, 0.32, 192.0, 0.0, 0.0, 0.0, 0.0, 0.0, 0.0, 0.0, 0.0, 0.0, 1.6635865881354291E9, 0.0, 2022-09-19 16:23:08.135
4.0, 9856.471104201211, 43311.39991419315, -19346.64182026885, -10921.06234086303, 12497.486173806927, -187500.02235174447, 27332.36132053868, -18393.45167797228, 0.65, -0.724, 0.32, 192.0, 0.0, 0.0, 0.0, 0.0, 0.0, 0.0, 0.0, 0.0, 0.0, 1.6635865881393833E9, 0.0, 2022-09-19 16:23:08.139
5.0, 9855.509979189632, 43312.11517001571, -19339.39985506533, -10921.419968774315, 12498.961388940977, -187500.02235174447, 27344.185393355536, -18393.317567505546, 0.65, -0.724, 0.32, 192.0, 0.0, 0.0, 0.0, 0.0, 0.0, 0.0, 0.0, 0.0, 0.0, 1.6635865881423895E9, 0.0, 2022-09-19 16:23:08.142
6.0, 9858.035726313083, 43317.97132706301, -19337.410549808807, -10922.559907741537, 12505.823374488757, -187500.02235174447, 27385.67023106459, -18387.237893013706, 0.65, -0.724, 0.32, 192.0, 0.0, 0.0, 0.0, 0.0, 0.0, 0.0, 0.0, 0.0, 0.0, 1.6635865881464148E9, 0.0, 2022-09-19 16:23:08.146
7.0, 9853.43126695529, 43314.14917876115, -19342.8643754559, -10929.086617122486, 12497.597932529205, -187500.02235174447, 27387.592481087744, -18395.88801811791, 0.65, -0.724, 0.32, 192.0, 0.0, 0.0, 0.0, 0.0, 0.0, 0.0, 0.0, 0.0, 0.0, 1.663586588150499E9, 0.0, 2022-09-19 16:23:08.150
8.0, 9846.23400524068, 43300.246393709946, -19347.379427835873, -10929.645410733869, 12469.501789748883, -187500.02235174447, 27334.752957195396, -18397.07266057404, 0.654, -0.716, 0.328, 192.0, 20.0, 112.0, 233.0, 160.0, 10.0, 64.0, 0.0, 0.0, 0.0, 1.663586588154441E9, 0.0, 2022-09-19 16:23:08.154
9.0, 9844.512920917621, 43294.591402362756, -19348.608773780918, -10931.92528866831, 12452.089780818198, -187500.02235174447, 27306.656814415077, -18401.341843765003, 0.654, -0.716, 0.328, 192.0, 0.0, 0.0, 0.0, 0.0, 0.0, 0.0, 0.0, 0.0, 0.0, 1.66358658815846E9, 0.0, 2022-09-19 16:23:08.158
10.0, 9845.474045929199, 43299.32997218728, -19348.02762842508, -10938.183777115795, 12453.564995952249, -187500.02235174447, 27320.157268066083, -18406.706262434276, 0.654, -0.716, 0.328, 192.0, 0.0, 0.0, 0.0, 0.0, 0.0, 0.0, 0.0, 0.0, 0.0, 1.6635865881634881E9, 0.0, 2022-09-19 16:23:08.163
11.0, 9851.352554720945, 43307.71187635802, -19346.30654410202, -10938.831977705, 12468.071278103744, -187500.02235174447, 27362.536175553345, -18400.514829220156, 0.654, -0.716, 0.328, 192.0, 0.0, 0.0, 0.0, 0.0, 0.0, 0.0, 0.0, 0.0, 0.0, 1.6635865881674707E9, 0.0, 2022-09-19 16:23:08.167
12.0, 9852.671307643808, 43306.46017866852, -19349.860471470412, -10936.462692792737, 12466.529007736328, -187500.02235174447, 27367.878242478164, -18390.389488981902, 0.654, -0.716, 0.328, 192.0, 0.0, 0.0, 0.0, 0.0, 0.0, 0.0, 0.0, 0.0, 0.0, 1.663586588170431E9, 0.0, 2022-09-19 16:23:08.170
13.0, 9846.882205829885, 43292.13271047267, -19353.615564538904, -10935.63567824789, 12443.08202780271, -187500.02235174447, 27315.888084875118, -18395.753907651175, 0.654, -0.716, 0.328, 192.0, 0.0, 0.0, 0.0, 0.0, 0.0, 0.0, 0.0, 0.0, 0.0, 1.6635865881745148E9, 0.0, 2022-09-19 16:23:08.174
14.0, 9852.671307643808, 43286.99180924795, -19347.871166213892, -10933.534614269092, 12431.995562552878, -187500.02235174447, 27286.674354872033, -18400.045442586594, 0.654, -0.716, 0.328, 192.0, 0.0, 0.0, 0.0, 0.0, 0.0, 0.0, 0.0, 0.0, 0.0, 1.6635865881794727E9, 0.0, 2022-09-19 16:23:08.179
15.0, 9856.828732112495, 43292.490338383956, -19348.944049947746, -10931.947640412765, 12434.968344565434, -187500.02235174447, 27298.431372455525, -18400.760698409165, 0.654, -0.716, 0.328, 192.0, 0.0, 0.0, 0.0, 0.0, 0.0, 0.0, 0.0, 0.0, 0.0, 1.6635865881835153E9, 0.0, 2022-09-19 16:23:08.183
16.0, 9858.974499580205, 43299.44173090956, -19350.88865171536, -10933.825186947011, 12444.020801069833, -187500.02235174447, 27339.446823531012, -18401.766526909654, 0.654, -0.716, 0.328, 192.0, 0.0, 0.0, 0.0, 0.0, 0.0, 0.0, 0.0, 0.0, 0.0, 1.663586588186496E9, 0.0, 2022-09-19 16:23:08.186
17.0, 9855.018240811616, 43297.5194808864, -19356.945974462746, -10935.792140459078, 12440.735094634903, -187500.02235174447, 27343.89482067762, -18402.392375754403, 0.654, -0.716, 0.328, 192.0, 0.0, 0.0, 0.0, 0.0, 0.0, 0.0, 0.0, 0.0, 0.0, 1.6635865881904843E9, 0.0, 2022-09-19 16:23:08.190
18.0, 9849.206787253235, 43285.5165941139, -19360.768122764603, -10934.92042242532, 12426.295867716774, -187500.02235174447, 27290.384744451614, -18403.48761123271, 0.66, -0.706, 0.324, 192.0, 20.0, 160.0, 233.0, 240.0, 10.0, 32.0, 0.0, 0.0, 0.0, 1.663586588194506E9, 0.0, 2022-09-19 16:23:08.194
19.0, 9853.967708822216, 43280.956838245016, -19358.108265174422, -10935.63567824789, 12425.424149683018, -187500.02235174447, 27258.086473713694, -18405.298102533594, 0.66, -0.706, 0.324, 192.0, 0.0, 0.0, 0.0, 0.0, 0.0, 0.0, 0.0, 0.0, 0.0, 1.6635865881985717E9, 0.0, 2022-09-19 16:23:08.198
20.0, 9858.549816435554, 43284.734283057966, -19352.72149476069, -10941.603594017459, 12439.036362056298, -187500.02235174447, 27264.702590072466, -18411.578942725533, 0.66, -0.706, 0.324, 192.0, 0.0, 0.0, 0.0, 0.0, 0.0, 0.0, 0.0, 0.0, 0.0, 1.663586588203579E9, 0.0, 2022-09-19 16:23:08.203
21.0, 9862.841351370973, 43295.01608550741, -19350.955706948724, -10942.765884729133, 12463.46681874595, -187500.02235174447, 27306.88033185963, -18406.97448336774, 0.66, -0.706, 0.324, 192.0, 0.0, 0.0, 0.0, 0.0, 0.0, 0.0, 0.0, 0.0, 0.0, 1.6635865882075534E9, 0.0, 2022-09-19 16:23:08.207
22.0, 9858.818037369017, 43295.37371341869, -19352.67679127178, -10937.580280015503, 12471.647557216593, -187500.02235174447, 27319.151439565594, -18399.374890252937, 0.66, -0.706, 0.324, 192.0, 0.0, 0.0, 0.0, 0.0, 0.0, 0.0, 0.0, 0.0, 0.0, 1.663586588210506E9, 0.0, 2022-09-19 16:23:08.210
23.0, 9851.397258209856, 43285.96362900301, -19357.39300935185, -10935.322753825516, 12459.219987299442, -187500.02235174447, 27271.743389575888, -18398.97255885274, 0.66, -0.706, 0.324, 192.0, 0.0, 0.0, 0.0, 0.0, 0.0, 0.0, 0.0, 0.0, 0.0, 1.663586588214577E9, 0.0, 2022-09-19 16:23:08.214
24.0, 9853.23010125519, 43280.08512021126, -19352.408570338317, -10932.372323557416, 12457.454199487473, -187500.02235174447, 27237.34405485917, -18397.296178018594, 0.66, -0.706, 0.324, 192.0, 0.0, 0.0, 0.0, 0.0, 0.0, 0.0, 0.0, 0.0, 0.0, 1.663586588218594E9, 0.0, 2022-09-19 16:23:08.218
25.0, 9858.527464691098, 43285.74011155845, -19339.422206809784, -10927.857271177445, 12474.553283995781, -187500.02235174447, 27243.82606075121, -18388.78016338112, 0.66, -0.706, 0.324, 192.0, 0.0, 0.0, 0.0, 0.0, 0.0, 0.0, 0.0, 0.0, 0.0, 1.6635865882225668E9, 0.0, 2022-09-19 16:23:08.222
26.0, 9863.735421149186, 43294.74786457394, -19333.521346273585, -10928.818396189023, 12495.027481916844, -187500.02235174447, 27277.085456500707, -18394.278692517128, 0.66, -0.706, 0.324, 192.0, 0.0, 0.0, 0.0, 0.0, 0.0, 0.0, 0.0, 0.0, 0.0, 1.6635865882265809E9, 0.0, 2022-09-19 16:23:08.226
27.0, 9861.343784492468, 43298.72647508699, -19334.236602096153, -10932.729951468702, 12501.420080831062, -187500.02235174447, 27293.02225029734, -18399.732518164223, 0.66, -0.706, 0.324, 192.0, 0.0, 0.0, 0.0, 0.0, 0.0, 0.0, 0.0, 0.0, 0.0, 1.6635865882316031E9, 0.0, 2022-09-19 16:23:08.231
28.0, 9853.028935555094, 43288.73524531547, -19339.243392854143, -10933.176986357807, 12481.907007921578, -187500.02235174447, 27244.340150873682, -18403.800535655086, 0.658, -0.6980000000000001, 0.326, 192.0, 20.0, 144.0, 234.0, 48.0, 10.0, 48.0, 0.0, 0.0, 0.0, 1.6635865882355964E9, 0.0, 2022-09-19 16:23:08.235
29.0, 9850.033801798083, 43283.66139932411, -19341.545622533038, -10932.104102623953, 12472.51927525035, -187500.02235174447, 27207.169199844506, -18398.905503619375, 0.658, -0.6980000000000001, 0.326, 192.0, 0.0, 0.0, 0.0, 0.0, 0.0, 0.0, 0.0, 0.0, 0.0, 1.663586588238641E9, 0.0, 2022-09-19 16:23:08.238
30.0, 9855.80055186755, 43290.1657569606, -19338.081102142467, -10932.931117168799, 12482.80107769979, -187500.02235174447, 27210.499609768347, -18397.5420472076, 0.658, -0.6980000000000001, 0.326, 192.0, 0.0, 0.0, 0.0, 0.0, 0.0, 0.0, 0.0, 0.0, 0.0, 1.6635865882425976E9, 0.0, 2022-09-19 16:23:08.242
31.0, 9861.969633337216, 43303.44269316705, -19330.235639838655, -10936.060361392541, 12503.454089576495, -187500.02235174447, 27250.419825365523, -18401.788878654108, 0.658, -0.6980000000000001, 0.326, 192.0, 0.0, 0.0, 0.0, 0.0, 0.0, 0.0, 0.0, 0.0, 0.0, 1.6635865882466176E9, 0.0, 2022-09-19 16:23:08.246
32.0, 9857.588691423976, 43308.40478043613, -19335.19772710773, -10938.228480604706, 12509.8019850018, -187500.02235174447, 27272.883328543106, -18398.63728268591, 0.658, -0.6980000000000001, 0.326, 192.0, 0.0, 0.0, 0.0, 0.0, 0.0, 0.0, 0.0, 0.0, 0.0, 1.6635865882506225E9, 0.0, 2022-09-19 16:23:08.250
33.0, 9847.306888974535, 43295.910155285615, -19342.596154522438, -10935.300402081062, 12488.389013813618, -187500.02235174447, 27226.39170007607, -18391.507076204667, 0.658, -0.6980000000000001, 0.326, 192.0, 0.0, 0.0, 0.0, 0.0, 0.0, 0.0, 0.0, 0.0, 0.0, 1.6635865882546315E9, 0.0, 2022-09-19 16:23:08.254
34.0, 9845.563452907021, 43289.47285288249, -19339.77983472107, -10928.147843855364, 12477.436659030516, -187500.02235174447, 27188.19256880195, -18384.555683679067, 0.658, -0.6980000000000001, 0.326, 192.0, 0.0, 0.0, 0.0, 0.0, 0.0, 0.0, 0.0, 0.0, 0.0, 1.663586588258654E9, 0.0, 2022-09-19 16:23:08.258
35.0, 9845.608156395932, 43291.171585461096, -19340.606849265918, -10934.562794514037, 12482.175228855041, -187500.02235174447, 27187.074981579186, -18395.038651828607, 0.658, -0.6980000000000001, 0.326, 192.0, 0.0, 0.0, 0.0, 0.0, 0.0, 0.0, 0.0, 0.0, 0.0, 1.6635865882636533E9, 0.0, 2022-09-19 16:23:08.263
36.0, 9848.737400619675, 43297.877108797686, -19338.97517192068, -10941.089503894986, 12496.390938328617, -187500.02235174447, 27222.43544130748, -18402.772355410143, 0.658, -0.6980000000000001, 0.326, 192.0, 0.0, 0.0, 0.0, 0.0, 0.0, 0.0, 0.0, 0.0, 0.0, 1.6635865882666168E9, 0.0, 2022-09-19 16:23:08.266
37.0, 9850.592595409466, 43306.34841994625, -19342.283230100064, -10938.854329449456, 12506.292761122319, -187500.02235174447, 27251.112729443637, -18401.543009465102, 0.658, -0.6980000000000001, 0.326, 192.0, 0.0, 0.0, 0.0, 0.0, 0.0, 0.0, 0.0, 0.0, 0.0, 1.663586588270742E9, 0.0, 2022-09-19 16:23:08.270
38.0, 9843.685906372775, 43300.26874545441, -19349.83811972596, -10940.083675394497, 12498.156726140587, -187500.02235174447, 27212.8241911917, -18399.888980375406, 0.662, -0.704, 0.33, 192.0, 20.0, 176.0, 234.0, 0.0, 10.0, 80.0, 0.0, 0.0, 0.0, 1.6635865882747047E9, 0.0, 2022-09-19 16:23:08.274
39.0, 9828.978458521184, 43293.406759906626, -19350.44161682625, -10942.721181240224, 12495.385109828128, -187500.02235174447, 27175.206205273415, -18403.35350076598, 0.662, -0.704, 0.33, 192.0, 0.0, 0.0, 0.0, 0.0, 0.0, 0.0, 0.0, 0.0, 0.0, 1.6635865882786E9, 0.0, 2022-09-19 16:23:08.278
40.0, 9839.483778415177, 43304.13559724517, -19339.511613787607, -10941.983573673198, 12510.919572224568, -187500.02235174447, 27183.5657576997, -18412.36125378147, 0.662, -0.704, 0.33, 192.0, 0.0, 0.0, 0.0, 0.0, 0.0, 0.0, 0.0, 0.0, 0.0, 1.6635865882826395E9, 0.0, 2022-09-19 16:23:08.282
41.0, 9847.642165141364, 43315.356172961736, -19338.59519226494, -10942.855291706956, 12527.370456143673, -187500.02235174447, 27222.524848285302, -18413.009454370673, 0.662, -0.704, 0.33, 192.0, 0.0, 0.0, 0.0, 0.0, 0.0, 0.0, 0.0, 0.0, 0.0, 1.663586588286712E9, 0.0, 2022-09-19 16:23:08.286
42.0, 9854.347688477956, 43321.569957920314, -19339.288096343054, -10939.569585272026, 12535.059456236299, -187500.02235174447, 27251.87268875512, -18400.44777398679, 0.662, -0.704, 0.33, 192.0, 0.0, 0.0, 0.0, 0.0, 0.0, 0.0, 0.0, 0.0, 0.0, 1.6635865882916932E9, 0.0, 2022-09-19 16:23:08.291
43.0, 9850.27967098709, 43315.91496657312, -19345.524233046082, -10936.797968959567, 12520.821395018267, -187500.02235174447, 27216.512229026823, -18403.12998332143, 0.662, -0.704, 0.33, 192.0, 0.0, 0.0, 0.0, 0.0, 0.0, 0.0, 0.0, 0.0, 0.0, 1.6635865882946963E9, 0.0, 2022-09-19 16:23:08.294
44.0, 9844.647031384353, 43310.05880952583, -19342.30558184452, -10936.574451515015, 12509.600819301704, -187500.02235174447, 27180.503568709322, -18403.97934961073, 0.662, -0.704, 0.33, 192.0, 0.0, 0.0, 0.0, 0.0, 0.0, 0.0, 0.0, 0.0, 0.0, 1.663586588297688E9, 0.0, 2022-09-19 16:23:08.297
45.0, 9840.89193831586, 43310.61760313721, -19339.39985506533, -10939.502530038659, 12512.081862936242, -187500.02235174447, 27182.492873965846, -18401.766526909654, 0.662, -0.704, 0.33, 192.0, 0.0, 0.0, 0.0, 0.0, 0.0, 0.0, 0.0, 0.0, 0.0, 1.6635865883027203E9, 0.0, 2022-09-19 16:23:08.302
46.0, 9851.151389020848, 43324.0733532993, -19337.209384108708, -10936.797968959567, 12528.108063710699, -187500.02235174447, 27217.51805752731, -18402.101803076483, 0.662, -0.704, 0.33, 192.0, 0.0, 0.0, 0.0, 0.0, 0.0, 0.0, 0.0, 0.0, 0.0, 1.6635865883066711E9, 0.0, 2022-09-19 16:23:08.306
47.0, 9860.874397858906, 43339.674870929106, -19334.929506174267, -10934.518091025126, 12554.751343101425, -187500.02235174447, 27256.96888649093, -18403.174686810336, 0.662, -0.704, 0.33, 192.0, 0.0, 0.0, 0.0, 0.0, 0.0, 0.0, 0.0, 0.0, 0.0, 1.6635865883107207E9, 0.0, 2022-09-19 16:23:08.310
48.0, 9860.539121692076, 43339.65251918465, -19339.35515157642, -10934.227518347207, 12561.702735627025, -187500.02235174447, 27232.046691423264, -18402.012396098664, 0.66, -0.7020000000000001, 0.33, 192.0, 20.0, 160.0, 234.0, 16.0, 10.0, 80.0, 0.0, 0.0, 0.0, 1.6635865883147216E9, 0.0, 2022-09-19 16:23:08.314
49.0, 9858.482761202189, 43338.7808011509, -19340.428035310273, -10932.148806112864, 12556.405372191117, -187500.02235174447, 27199.077868351684, -18396.580922196023, 0.66, -0.7020000000000001, 0.33, 192.0, 0.0, 0.0, 0.0, 0.0, 0.0, 0.0, 0.0, 0.0, 0.0, 1.6635865883197372E9, 0.0, 2022-09-19 16:23:08.319
50.0, 9859.734458891686, 43340.4795337295, -19342.0150091666, -10930.87475667891, 12552.449113422528, -187500.02235174447, 27199.837827663163, -18392.40114598288, 0.66, -0.7020000000000001, 0.33, 192.0, 0.0, 0.0, 0.0, 0.0, 0.0, 0.0, 0.0, 0.0, 0.0, 1.6635865883227336E9, 0.0, 2022-09-19 16:23:08.322
51.0, 9865.05417407205, 43347.497981488465, -19340.517442288095, -10930.092445622975, 12556.695944869036, -187500.02235174447, 27233.879534468597, -18393.58578843901, 0.66, -0.7020000000000001, 0.33, 192.0, 0.0, 0.0, 0.0, 0.0, 0.0, 0.0, 0.0, 0.0, 0.0, 1.6635865883267395E9, 0.0, 2022-09-19 16:23:08.326
52.0, 9865.4788572167, 43353.62235946922, -19338.77400622058, -10930.762997956634, 12560.29457572634, -187500.02235174447, 27269.754084319364, -18392.82582912753, 0.66, -0.7020000000000001, 0.33, 192.0, 0.0, 0.0, 0.0, 0.0, 0.0, 0.0, 0.0, 0.0, 0.0, 1.663586588330764E9, 0.0, 2022-09-19 16:23:08.330
53.0, 9856.828732112495, 43346.045118098875, -19344.25018361213, -10934.518091025126, 12543.061380751298, -187500.02235174447, 27242.82023225072, -18397.206771040772, 0.66, -0.7020000000000001, 0.33, 192.0, 0.0, 0.0, 0.0, 0.0, 0.0, 0.0, 0.0, 0.0, 0.0, 1.6635865883347633E9, 0.0, 2022-09-19 16:23:08.334
54.0, 9849.206787253235, 43339.4290017401, -19347.424131324784, -10933.154634613353, 12521.536650840837, -187500.02235174447, 27203.95054864294, -18394.613968683956, 0.66, -0.7020000000000001, 0.33, 192.0, 0.0, 0.0, 0.0, 0.0, 0.0, 0.0, 0.0, 0.0, 0.0, 1.663586588338819E9, 0.0, 2022-09-19 16:23:08.338
55.0, 9858.371002479911, 43342.24532154147, -19344.361942334406, -10932.662896235335, 12513.825299003756, -187500.02235174447, 27204.688156209966, -18395.843314628997, 0.66, -0.7020000000000001, 0.33, 192.0, 0.0, 0.0, 0.0, 0.0, 0.0, 0.0, 0.0, 0.0, 0.0, 1.6635865883428154E9, 0.0, 2022-09-19 16:23:08.342
56.0, 9867.892845617873, 43351.90127514616, -19341.724436488683, -10934.49573928067, 12521.022560718366, -187500.02235174447, 27240.518002571822, -18406.102765333984, 0.66, -0.7020000000000001, 0.33, 192.0, 0.0, 0.0, 0.0, 0.0, 0.0, 0.0, 0.0, 0.0, 0.0, 1.6635865883458276E9, 0.0, 2022-09-19 16:23:08.345
57.0, 9864.76360139413, 43355.92458914812, -19344.339590589952, -10937.759093971144, 12531.706694568002, -187500.02235174447, 27280.572328635735, -18409.25436130218, 0.66, -0.7020000000000001, 0.33, 192.0, 0.0, 0.0, 0.0, 0.0, 0.0, 0.0, 0.0, 0.0, 0.0, 1.663586588349732E9, 0.0, 2022-09-19 16:23:08.349
58.0, 9857.298118746057, 43345.79924890986, -19354.53198606157, -10937.69203873778, 12519.770863028869, -187500.02235174447, 27256.29833415727, -18406.013358356162, 0.664, -0.7020000000000001, 0.33, 192.0, 20.0, 192.0, 234.0, 16.0, 10.0, 80.0, 0.0, 0.0, 0.0, 1.6635865883538952E9, 0.0, 2022-09-19 16:23:08.353
59.0, 9858.035726313083, 43341.10538257425, -19352.72149476069, -10932.953468913254, 12509.109080923687, -187500.02235174447, 27222.48014479639, -18400.537180964613, 0.664, -0.7020000000000001, 0.33, 192.0, 0.0, 0.0, 0.0, 0.0, 0.0, 0.0, 0.0, 0.0, 0.0, 1.6635865883577745E9, 0.0, 2022-09-19 16:23:08.357
60.0, 9855.465275700722, 43339.51840871792, -19350.2180993817, -10934.11575962493, 12510.181964657542, -187500.02235174447, 27223.597732019156, -18404.046404844095, 0.664, -0.7020000000000001, 0.33, 192.0, 0.0, 0.0, 0.0, 0.0, 0.0, 0.0, 0.0, 0.0, 0.0, 1.6635865883627543E9, 0.0, 2022-09-19 16:23:08.362
61.0, 9858.259243757635, 43346.112173332236, -19349.01110518111, -10934.585146258492, 12519.234421161942, -187500.02235174447, 27256.92418300202, -18405.186343811314, 0.664, -0.7020000000000001, 0.33, 192.0, 0.0, 0.0, 0.0, 0.0, 0.0, 0.0, 0.0, 0.0, 0.0, 1.6635865883668745E9, 0.0, 2022-09-19 16:23:08.366
62.0, 9866.819961884017, 43362.473650273525, -19340.606849265918, -10935.501567781159, 12549.074000009776, -187500.02235174447, 27310.322500505747, -18406.683910689822, 0.664, -0.7020000000000001, 0.33, 192.0, 0.0, 0.0, 0.0, 0.0, 0.0, 0.0, 0.0, 0.0, 0.0, 1.6635865883708503E9, 0.0, 2022-09-19 16:23:08.370
63.0, 9863.891883360373, 43362.317188062334, -19342.417340566797, -10932.059399135042, 12556.67359312458, -187500.02235174447, 27299.817180611753, -18401.83358214302, 0.664, -0.7020000000000001, 0.33, 192.0, 0.0, 0.0, 0.0, 0.0, 0.0, 0.0, 0.0, 0.0, 0.0, 1.663586588373809E9, 0.0, 2022-09-19 16:23:08.373
64.0, 9853.610080910932, 43352.84004841329, -19344.406645823317, -10928.7289892112, 12541.519110383882, -187500.02235174447, 27261.10395921516, -18400.157201308873, 0.664, -0.7020000000000001, 0.33, 192.0, 0.0, 0.0, 0.0, 0.0, 0.0, 0.0, 0.0, 0.0, 0.0, 1.6635865883778117E9, 0.0, 2022-09-19 16:23:08.377
65.0, 9859.600348424954, 43351.90127514616, -19348.094683658444, -10931.142977612375, 12533.986572502443, -187500.02235174447, 27258.377046391615, -18410.55076248059, 0.664, -0.7020000000000001, 0.33, 192.0, 0.0, 0.0, 0.0, 0.0, 0.0, 0.0, 0.0, 0.0, 0.0, 1.6635865883818705E9, 0.0, 2022-09-19 16:23:08.381
66.0, 9872.810229398041, 43356.326920548316, -19342.663209755803, -10929.69011422278, 12539.283935938352, -187500.02235174447, 27294.341003220205, -18409.20965781327, 0.664, -0.7020000000000001, 0.33, 192.0, 0.0, 0.0, 0.0, 0.0, 0.0, 0.0, 0.0, 0.0, 0.0, 1.663586588386861E9, 0.0, 2022-09-19 16:23:08.386
67.0, 9873.749002665163, 43361.24430432848, -19340.78566322156, -10926.180890343296, 12545.229499963463, -187500.02235174447, 27343.023102643863, -18404.53814322211, 0.664, -0.7020000000000001, 0.33, 192.0, 0.0, 0.0, 0.0, 0.0, 0.0, 0.0, 0.0, 0.0, 0.0, 1.663586588390905E9, 0.0, 2022-09-19 16:23:08.390
68.0, 9869.837447385484, 43354.784650180896, -19348.58642203646, -10928.706637466747, 12530.38794164514, -187500.02235174447, 27331.6013612272, -18404.806364155575, 0.662, -0.7000000000000001, 0.336, 192.0, 20.0, 176.0, 234.0, 32.0, 10.0, 128.0, 0.0, 0.0, 0.0, 1.6635865883949158E9, 0.0, 2022-09-19 16:23:08.394
69.0, 9861.880226359395, 43343.586426208785, -19350.598079037438, -10931.63471599039, 12512.61830480317, -187500.02235174447, 27291.234110740916, -18409.142602579905, 0.662, -0.7000000000000001, 0.336, 192.0, 0.0, 0.0, 0.0, 0.0, 0.0, 0.0, 0.0, 0.0, 0.0, 1.6635865883988717E9, 0.0, 2022-09-19 16:23:08.398
70.0, 9855.957014078738, 43338.28906277288, -19351.82742498248, -10938.630812004902, 12505.309284366285, -187500.02235174447, 27283.25453797037, -18412.942399137308, 0.662, -0.7000000000000001, 0.336, 192.0, 0.0, 0.0, 0.0, 0.0, 0.0, 0.0, 0.0, 0.0, 0.0, 1.6635865884018953E9, 0.0, 2022-09-19 16:23:08.401
71.0, 9860.382659480889, 43344.368737264725, -19344.406645823317, -10931.277088079107, 12514.51820308187, -187500.02235174447, 27315.150477308092, -18407.98031186823, 0.662, -0.7000000000000001, 0.336, 192.0, 0.0, 0.0, 0.0, 0.0, 0.0, 0.0, 0.0, 0.0, 0.0, 1.6635865884059007E9, 0.0, 2022-09-19 16:23:08.405
72.0, 9862.28255775959, 43349.71080418954, -19340.942125432746, -10929.712465967235, 12529.024485233365, -187500.02235174447, 27363.586707542745, -18407.68973919031, 0.662, -0.7000000000000001, 0.336, 192.0, 0.0, 0.0, 0.0, 0.0, 0.0, 0.0, 0.0, 0.0, 0.0, 1.663586588409884E9, 0.0, 2022-09-19 16:23:08.409
73.0, 9855.197054767259, 43341.95474886355, -19343.69139000075, -10923.655143219847, 12520.843746762723, -187500.02235174447, 27351.919096937072, -18396.647977429388, 0.662, -0.7000000000000001, 0.336, 192.0, 0.0, 0.0, 0.0, 0.0, 0.0, 0.0, 0.0, 0.0, 0.0, 1.6635865884149508E9, 0.0, 2022-09-19 16:23:08.414
74.0, 9844.579976150988, 43332.254091769944, -19351.380390093374, -10928.55017525556, 12503.923476210055, -187500.02235174447, 27308.132029549128, -18403.711128677267, 0.662, -0.7000000000000001, 0.336, 192.0, 0.0, 0.0, 0.0, 0.0, 0.0, 0.0, 0.0, 0.0, 0.0, 1.6635865884189272E9, 0.0, 2022-09-19 16:23:08.418
75.0, 9853.990060566672, 43333.170513292614, -19344.67486675678, -10923.230460075196, 12502.470612820462, -187500.02235174447, 27298.207855010973, -18401.49830597619, 0.662, -0.7000000000000001, 0.336, 192.0, 0.0, 0.0, 0.0, 0.0, 0.0, 0.0, 0.0, 0.0, 0.0, 1.6635865884228928E9, 0.0, 2022-09-19 16:23:08.422
76.0, 9862.461371715233, 43337.3279377613, -19336.69529398624, -10921.151747840851, 12514.384092615139, -187500.02235174447, 27321.967759366962, -18403.10763157697, 0.662, -0.7000000000000001, 0.336, 192.0, 0.0, 0.0, 0.0, 0.0, 0.0, 0.0, 0.0, 0.0, 0.0, 1.66358658842698E9, 0.0, 2022-09-19 16:23:08.426
77.0, 9865.4788572167, 43341.284196529894, -19333.45429104022, -10917.620172216913, 12536.758188814902, -187500.02235174447, 27364.2572598764, -18391.26120701566, 0.662, -0.7000000000000001, 0.336, 192.0, 0.0, 0.0, 0.0, 0.0, 0.0, 0.0, 0.0, 0.0, 0.0, 1.6635865884299695E9, 0.0, 2022-09-19 16:23:08.429
78.0, 9861.008508325638, 43337.81967613932, -19335.957686419213, -10916.390826271872, 12550.48215991046, -187500.02235174447, 27356.4565010615, -18394.05517507257, 0.662, -0.7000000000000001, 0.336, 192.0, 0.0, 0.0, 0.0, 0.0, 0.0, 0.0, 0.0, 0.0, 0.0, 1.6635865884339228E9, 0.0, 2022-09-19 16:23:08.433
79.0, 9853.990060566672, 43327.87314985671, -19343.557279534016, -10918.134262339385, 12543.19549121803, -187500.02235174447, 27308.668471416055, -18393.518733205645, 0.662, -0.7000000000000001, 0.336, 192.0, 20.0, 176.0, 234.0, 32.0, 10.0, 128.0, 0.0, 0.0, 0.0, 1.663586588438036E9, 0.0, 2022-09-19 16:23:08.438
80.0, 9858.505112946643, 43328.05196381235, -19339.489262043153, -10913.261582048128, 12542.39082841764, -187500.02235174447, 27296.82204685474, -18388.243721514194, 0.662, -0.7000000000000001, 0.336, 192.0, 0.0, 0.0, 0.0, 0.0, 0.0, 0.0, 0.0, 0.0, 0.0, 1.6635865884420016E9, 0.0, 2022-09-19 16:23:08.442
81.0, 9867.311700262035, 43333.63989992618, -19335.845927696937, -10910.579372713491, 12549.901014554622, -187500.02235174447, 27317.720927920454, -18387.595520924988, 0.662, -0.7000000000000001, 0.336, 192.0, 0.0, 0.0, 0.0, 0.0, 0.0, 0.0, 0.0, 0.0, 0.0, 1.6635865884469693E9, 0.0, 2022-09-19 16:23:08.446
82.0, 9876.185342810792, 43341.686527930084, -19327.598133992928, -10909.528840724093, 12564.273186239385, -187500.02235174447, 27359.473986562967, -18389.853047114975, 0.662, -0.7000000000000001, 0.336, 192.0, 0.0, 0.0, 0.0, 0.0, 0.0, 0.0, 0.0, 0.0, 0.0, 1.6635865884509597E9, 0.0, 2022-09-19 16:23:08.450
83.0, 9872.162028808836, 43338.66904242862, -19331.375578805873, -10914.06624484852, 12563.379116461172, -187500.02235174447, 27352.92492543756, -18390.16597153735, 0.662, -0.7000000000000001, 0.336, 192.0, 0.0, 0.0, 0.0, 0.0, 0.0, 0.0, 0.0, 0.0, 0.0, 1.6635865884549448E9, 0.0, 2022-09-19 16:23:08.454
84.0, 9866.484685717189, 43325.45916145553, -19340.338628332454, -10913.507451237138, 12546.90588079761, -187500.02235174447, 27304.578102180734, -18387.4390587138, 0.662, -0.7000000000000001, 0.336, 192.0, 0.0, 0.0, 0.0, 0.0, 0.0, 0.0, 0.0, 0.0, 0.0, 1.663586588457972E9, 0.0, 2022-09-19 16:23:08.457
85.0, 9864.070697316016, 43323.15693177664, -19340.808014966013, -10913.775672170601, 12543.597822618225, -187500.02235174447, 27293.245767741893, -18388.26607325865, 0.662, -0.7000000000000001, 0.336, 192.0, 0.0, 0.0, 0.0, 0.0, 0.0, 0.0, 0.0, 0.0, 0.0, 1.6635865884619894E9, 0.0, 2022-09-19 16:23:08.461
86.0, 9866.529389206098, 43329.21425452403, -19341.187994621756, -10914.379169270895, 12549.67749711007, -187500.02235174447, 27316.804506397788, -18385.44975345728, 0.662, -0.7000000000000001, 0.336, 192.0, 0.0, 0.0, 0.0, 0.0, 0.0, 0.0, 0.0, 0.0, 0.0, 1.6635865884661071E9, 0.0, 2022-09-19 16:23:08.466
87.0, 9868.004604340149, 43334.153990048646, -19341.478567299673, -10922.626962974902, 12560.316927470796, -187500.02235174447, 27360.56922204128, -18389.83069537052, 0.662, -0.7000000000000001, 0.336, 192.0, 0.0, 0.0, 0.0, 0.0, 0.0, 0.0, 0.0, 0.0, 0.0, 1.6635865884700177E9, 0.0, 2022-09-19 16:23:08.470
88.0, 9866.417630483822, 43327.314356245326, -19344.49605280114, -10919.631829217891, 12552.851444822723, -187500.02235174447, 27354.80247197181, -18388.377831980924, 0.662, -0.7000000000000001, 0.336, 192.0, 0.0, 0.0, 0.0, 0.0, 0.0, 0.0, 0.0, 0.0, 0.0, 1.6635865884740217E9, 0.0, 2022-09-19 16:23:08.474
89.0, 9859.309775747035, 43316.45140844004, -19342.953782433724, -10917.508413494637, 12536.33350567025, -187500.02235174447, 27309.719003405455, -18390.076564559527, 0.668, -0.7020000000000001, 0.332, 192.0, 20.0, 224.0, 234.0, 16.0, 10.0, 96.0, 0.0, 0.0, 0.0, 1.6635865884791105E9, 0.0, 2022-09-19 16:23:08.479
90.0, 9859.689755402775, 43311.80224559334, -19339.690427743248, -10913.708616937234, 12529.069188722277, -187500.02235174447, 27295.436238698512, -18388.221369769737, 0.668, -0.7020000000000001, 0.332, 192.0, 0.0, 0.0, 0.0, 0.0, 0.0, 0.0, 0.0, 0.0, 0.0, 1.6635865884819808E9, 0.0, 2022-09-19 16:23:08.481
91.0, 9863.936586849284, 43315.53498691738, -19338.259916098108, -10913.216878559218, 12535.9088225256, -187500.02235174447, 27315.5975121972, -18391.238855271204, 0.668, -0.7020000000000001, 0.332, 192.0, 0.0, 0.0, 0.0, 0.0, 0.0, 0.0, 0.0, 0.0, 0.0, 1.663586588486038E9, 0.0, 2022-09-19 16:23:08.486
92.0, 9869.390412496377, 43326.55439693385, -19338.662247498305, -10915.250887304652, 12556.360668702206, -187500.02235174447, 27367.542966311332, -18395.30687276207, 0.668, -0.7020000000000001, 0.332, 192.0, 0.0, 0.0, 0.0, 0.0, 0.0, 0.0, 0.0, 0.0, 0.0, 1.6635865884910295E9, 0.0, 2022-09-19 16:23:08.491
93.0, 9870.440944485777, 43328.34253649027, -19341.992657422146, -10908.9253436238, 12567.178913018575, -187500.02235174447, 27377.265975149392, -18385.516808690645, 0.668, -0.7020000000000001, 0.332, 192.0, 0.0, 0.0, 0.0, 0.0, 0.0, 0.0, 0.0, 0.0, 0.0, 1.6635865884940543E9, 0.0, 2022-09-19 16:23:08.494
94.0, 9862.19315078177, 43321.7264201315, -19346.373599335384, -10909.886468635377, 12561.099238526731, -187500.02235174447, 27338.5527537528, -18387.30494824707, 0.668, -0.7020000000000001, 0.332, 192.0, 0.0, 0.0, 0.0, 0.0, 0.0, 0.0, 0.0, 0.0, 0.0, 1.6635865884980848E9, 0.0, 2022-09-19 16:23:08.498
95.0, 9858.102781546448, 43318.59717590776, -19341.322105088486, -10906.578410455992, 12551.689154111047, -187500.02235174447, 27323.688843690023, -18384.846256356985, 0.668, -0.7020000000000001, 0.332, 192.0, 0.0, 0.0, 0.0, 0.0, 0.0, 0.0, 0.0, 0.0, 0.0, 1.6635865885020654E9, 0.0, 2022-09-19 16:23:08.502
96.0, 9859.890921102873, 43318.41836195211, -19335.354189318918, -10909.81941340201, 12554.036087278853, -187500.02235174447, 27346.42056780107, -18392.06586981605, 0.668, -0.7020000000000001, 0.332, 192.0, 0.0, 0.0, 0.0, 0.0, 0.0, 0.0, 0.0, 0.0, 0.0, 1.6635865885071056E9, 0.0, 2022-09-19 16:23:08.507
97.0, 9864.785953138586, 43323.53691143238, -19334.59423000744, -10914.557983226536, 12563.446171694539, -187500.02235174447, 27393.13571371266, -18396.089183818007, 0.668, -0.7020000000000001, 0.332, 192.0, 0.0, 0.0, 0.0, 0.0, 0.0, 0.0, 0.0, 0.0, 0.0, 1.6635865885100904E9, 0.0, 2022-09-19 16:23:08.510
98.0, 9859.3768309804, 43318.19484450756, -19343.87020395639, -10913.708616937234, 12553.499645411926, -187500.02235174447, 27399.528312626877, -18394.233989028216, 0.668, -0.7020000000000001, 0.332, 192.0, 0.0, 0.0, 0.0, 0.0, 0.0, 0.0, 0.0, 0.0, 0.0, 1.6635865885140805E9, 0.0, 2022-09-19 16:23:08.514
99.0, 9853.341859977469, 43306.01314377942, -19349.413436581308, -10909.931172124288, 12533.494834124427, -187500.02235174447, 27357.350570839713, -18389.36130873696, 0.662, -0.7020000000000001, 0.326, 192.0, 20.0, 176.0, 234.0, 16.0, 10.0, 48.0, 0.0, 0.0, 0.0, 1.6635865885180259E9, 0.0, 2022-09-19 16:23:08.518
100.0, 9848.71504887522, 43297.09479774175, -19347.73705574716, -10908.523012223604, 12524.487081108939, -187500.02235174447, 27335.64702697361, -18384.06394530105, 0.662, -0.7020000000000001, 0.326, 192.0, 0.0, 0.0, 0.0, 0.0, 0.0, 0.0, 0.0, 0.0, 0.0, 1.663586588522097E9, 0.0, 2022-09-19 16:23:08.522
101.0, 9848.80445585304, 43296.15602447463, -19341.903250444324, -10912.367512269917, 12522.497775852416, -187500.02235174447, 27348.543983524323, -18393.49638146119, 0.662, -0.7020000000000001, 0.326, 192.0, 0.0, 0.0, 0.0, 0.0, 0.0, 0.0, 0.0, 0.0, 0.0, 1.6635865885261204E9, 0.0, 2022-09-19 16:23:08.526
102.0, 9857.342822234968, 43304.73909434547, -19334.147195118334, -10917.575468728002, 12537.853424293211, -187500.02235174447, 27399.528312626877, -18400.02309084214, 0.662, -0.7020000000000001, 0.326, 192.0, 0.0, 0.0, 0.0, 0.0, 0.0, 0.0, 0.0, 0.0, 0.0, 1.6635865885301228E9, 0.0, 2022-09-19 16:23:08.530
103.0, 9858.259243757635, 43301.40868442162, -19338.416378309295, -10918.49189025067, 12538.188700460041, -187500.02235174447, 27413.81107733382, -18395.843314628997, 0.662, -0.7020000000000001, 0.326, 192.0, 0.0, 0.0, 0.0, 0.0, 0.0, 0.0, 0.0, 0.0, 0.0, 1.663586588535133E9, 0.0, 2022-09-19 16:23:08.535
104.0, 9849.765580864618, 43289.38344590467, -19348.25114586963, -10919.318904795517, 12524.464729364483, -187500.02235174447, 27371.186300657548, -18396.35740475147, 0.662, -0.7020000000000001, 0.326, 192.0, 0.0, 0.0, 0.0, 0.0, 0.0, 0.0, 0.0, 0.0, 0.0, 1.6635865885381272E9, 0.0, 2022-09-19 16:23:08.538
105.0, 9846.837502340974, 43289.45050113803, -19348.54171854755, -10923.632791475391, 12520.664932807082, -187500.02235174447, 27351.337951581238, -18402.481782732222, 0.662, -0.7020000000000001, 0.326, 192.0, 0.0, 0.0, 0.0, 0.0, 0.0, 0.0, 0.0, 0.0, 0.0, 1.6635865885422251E9, 0.0, 2022-09-19 16:23:08.542
106.0, 9854.504150689143, 43293.36205641771, -19347.44648306924, -10923.901012408855, 12523.257735163896, -187500.02235174447, 27364.525480809865, -18402.034747843118, 0.662, -0.7020000000000001, 0.326, 192.0, 0.0, 0.0, 0.0, 0.0, 0.0, 0.0, 0.0, 0.0, 0.0, 1.6635865885461493E9, 0.0, 2022-09-19 16:23:08.546
107.0, 9860.76263913663, 43302.19099547756, -19338.34932307593, -10916.524936738604, 12540.267412694386, -187500.02235174447, 27409.76541158741, -18396.759736151664, 0.662, -0.7020000000000001, 0.326, 192.0, 0.0, 0.0, 0.0, 0.0, 0.0, 0.0, 0.0, 0.0, 0.0, 1.6635865885501475E9, 0.0, 2022-09-19 16:23:08.550
108.0, 9858.303947246546, 43308.203614736034, -19340.20451786572, -10915.608515215936, 12561.680383882569, -187500.02235174447, 27434.32997874379, -18395.68685241781, 0.662, -0.7020000000000001, 0.326, 192.0, 0.0, 0.0, 0.0, 0.0, 0.0, 0.0, 0.0, 0.0, 0.0, 1.6635865885541682E9, 0.0, 2022-09-19 16:23:08.554
109.0, 9846.904557574338, 43301.09575999925, -19344.585459778962, -10913.172175070307, 12558.506436169915, -187500.02235174447, 27396.242606191947, -18394.725727406232, 0.664, -0.706, 0.328, 192.0, 20.0, 192.0, 233.0, 240.0, 10.0, 64.0, 0.0, 0.0, 0.0, 1.6635865885582044E9, 0.0, 2022-09-19 16:23:08.558
110.0, 9853.386563466378, 43298.70412334253, -19339.0645788985, -10912.412215758826, 12546.503549397416, -187500.02235174447, 27372.4603500915, -18393.809305883566, 0.664, -0.706, 0.328, 192.0, 0.0, 0.0, 0.0, 0.0, 0.0, 0.0, 0.0, 0.0, 0.0, 1.6635865885631032E9, 0.0, 2022-09-19 16:23:08.563
111.0, 9862.90840660434, 43302.79449257785, -19331.9120206728, -10911.808718658534, 12546.995287775433, -187500.02235174447, 27386.22902467597, -18394.68102391732, 0.664, -0.706, 0.328, 192.0, 0.0, 0.0, 0.0, 0.0, 0.0, 0.0, 0.0, 0.0, 0.0, 1.6635865885661871E9, 0.0, 2022-09-19 16:23:08.566
112.0, 9864.897711860862, 43310.48349267048, -19329.25216308262, -10919.318904795517, 12557.858235580712, -187500.02235174447, 27431.11132754223, -18405.856896144975, 0.664, -0.706, 0.328, 192.0, 0.0, 0.0, 0.0, 0.0, 0.0, 0.0, 0.0, 0.0, 0.0, 1.663586588570207E9, 0.0, 2022-09-19 16:23:08.570
113.0, 9861.164970536825, 43308.51653915841, -19333.83427069596, -10917.195489072263, 12554.147846001131, -187500.02235174447, 27451.04908359636, -18398.704337919276, 0.664, -0.706, 0.328, 192.0, 0.0, 0.0, 0.0, 0.0, 0.0, 0.0, 0.0, 0.0, 0.0, 1.6635865885741985E9, 0.0, 2022-09-19 16:23:08.574
114.0, 9852.648955899353, 43298.927640787086, -19338.52813703157, -10911.316980280517, 12531.259659678897, -187500.02235174447, 27412.022937777394, -18388.601349425477, 0.664, -0.706, 0.328, 192.0, 0.0, 0.0, 0.0, 0.0, 0.0, 0.0, 0.0, 0.0, 0.0, 1.6635865885782287E9, 0.0, 2022-09-19 16:23:08.578
115.0, 9852.917176832816, 43292.11035872822, -19337.857584697915, -10904.991436599665, 12519.86027000669, -187500.02235174447, 27385.692582809043, -18384.287462745604, 0.664, -0.706, 0.328, 192.0, 0.0, 0.0, 0.0, 0.0, 0.0, 0.0, 0.0, 0.0, 0.0, 1.663586588582255E9, 0.0, 2022-09-19 16:23:08.582
116.0, 9852.939528577272, 43293.674980840085, -19339.042227154045, -10907.360721511928, 12521.581354329748, -187500.02235174447, 27396.04144049185, -18391.59648318249, 0.664, -0.706, 0.328, 192.0, 0.0, 0.0, 0.0, 0.0, 0.0, 0.0, 0.0, 0.0, 0.0, 1.6635865885863066E9, 0.0, 2022-09-19 16:23:08.586
117.0, 9859.33212749149, 43306.124902501695, -19337.142328875343, -10910.802890158046, 12537.853424293211, -187500.02235174447, 27444.298856770856, -18392.73642214971, 0.664, -0.706, 0.328, 192.0, 0.0, 0.0, 0.0, 0.0, 0.0, 0.0, 0.0, 0.0, 0.0, 1.6635865885913267E9, 0.0, 2022-09-19 16:23:08.591
118.0, 9853.587729166476, 43305.29788795685, -19346.708875502216, -10916.457881505237, 12539.61921210518, -187500.02235174447, 27467.567022748834, -18394.099878561483, 0.664, -0.706, 0.328, 192.0, 0.0, 0.0, 0.0, 0.0, 0.0, 0.0, 0.0, 0.0, 0.0, 1.6635865885943067E9, 0.0, 2022-09-19 16:23:08.594
119.0, 9840.869586571407, 43284.019027235394, -19356.051904684533, -10919.296553051061, 12516.216935660475, -187500.02235174447, 27420.740118114965, -18398.033785585616, 0.664, -0.706, 0.33, 192.0, 20.0, 192.0, 233.0, 240.0, 10.0, 80.0, 0.0, 0.0, 0.0, 1.6635865885974126E9, 0.0, 2022-09-19 16:23:08.597
120.0, 9846.703391874242, 43281.76150104541, -19343.73609348966, -10907.941866867766, 12509.734929768436, -187500.02235174447, 27392.17458870108, -18391.328262249026, 0.664, -0.706, 0.33, 192.0, 0.0, 0.0, 0.0, 0.0, 0.0, 0.0, 0.0, 0.0, 0.0, 1.6635865886023233E9, 0.0, 2022-09-19 16:23:08.602
121.0, 9853.85595009994, 43290.18810870506, -19333.498994529127, -10896.453070217738, 12519.368531628674, -187500.02235174447, 27402.791667317353, -18376.35259346397, 0.664, -0.706, 0.33, 192.0, 0.0, 0.0, 0.0, 0.0, 0.0, 0.0, 0.0, 0.0, 0.0, 1.6635865886063278E9, 0.0, 2022-09-19 16:23:08.606
122.0, 9857.409877468333, 43297.96651577551, -19335.331837574464, -10903.449166232249, 12533.494834124427, -187500.02235174447, 27440.72257765801, -18393.83165762802, 0.664, -0.706, 0.33, 192.0, 0.0, 0.0, 0.0, 0.0, 0.0, 0.0, 0.0, 0.0, 0.0, 1.6635865886102817E9, 0.0, 2022-09-19 16:23:08.610
123.0, 9858.706278646741, 43304.157948989625, -19339.77983472107, -10910.087634335476, 12548.67166860958, -187500.02235174447, 27470.025714638916, -18398.816096641553, 0.664, -0.706, 0.33, 192.0, 0.0, 0.0, 0.0, 0.0, 0.0, 0.0, 0.0, 0.0, 0.0, 1.663586588614297E9, 0.0, 2022-09-19 16:23:08.614
124.0, 9851.33020297649, 43292.84796629524, -19343.959610934213, -10903.471517976704, 12540.982668516956, -187500.02235174447, 27428.742042629965, -18381.269977244137, 0.664, -0.706, 0.33, 192.0, 0.0, 0.0, 0.0, 0.0, 0.0, 0.0, 0.0, 0.0, 0.0, 1.6635865886182861E9, 0.0, 2022-09-19 16:23:08.618
125.0, 9851.173740765304, 43285.069559224794, -19338.148157375832, -10900.20816328623, 12525.783482287346, -187500.02235174447, 27390.073524722284, -18382.074640044528, 0.664, -0.706, 0.33, 192.0, 0.0, 0.0, 0.0, 0.0, 0.0, 0.0, 0.0, 0.0, 0.0, 1.6635865886222367E9, 0.0, 2022-09-19 16:23:08.622
126.0, 9858.080429801992, 43288.489376126454, -19329.699197971728, -10901.459860975727, 12526.275220665362, -187500.02235174447, 27393.694507324042, -18388.601349425477, 0.664, -0.706, 0.33, 192.0, 0.0, 0.0, 0.0, 0.0, 0.0, 0.0, 0.0, 0.0, 0.0, 1.6635865886253617E9, 0.0, 2022-09-19 16:23:08.625
127.0, 9866.037650828082, 43294.94903027404, -19323.55246824652, -10903.15859355433, 12536.109988225699, -187500.02235174447, 27427.736214129476, -18393.183457038816, 0.664, -0.706, 0.33, 192.0, 0.0, 0.0, 0.0, 0.0, 0.0, 0.0, 0.0, 0.0, 0.0, 1.6635865886302958E9, 0.0, 2022-09-19 16:23:08.630
128.0, 9867.982252595693, 43297.43007390858, -19327.464023526194, -10901.236343531173, 12540.513281883394, -187500.02235174447, 27456.167633076628, -18390.054212815074, 0.664, -0.706, 0.33, 192.0, 0.0, 0.0, 0.0, 0.0, 0.0, 0.0, 0.0, 0.0, 0.0, 1.6635865886343167E9, 0.0, 2022-09-19 16:23:08.634
129.0, 9857.722801890708, 43282.58851559026, -19337.477605042175, -10901.705730164735, 12516.954543227499, -187500.02235174447, 27416.00154829044, -18390.054212815074, 0.664, -0.71, 0.328, 192.0, 20.0, 192.0, 233.0, 208.0, 10.0, 64.0, 0.0, 0.0, 0.0, 1.663586588638328E9, 0.0, 2022-09-19 16:23:08.638
130.0, 9855.532330934087, 43275.368902131195, -19338.17050912029, -10900.141108052863, 12502.42590933155, -187500.02235174447, 27378.405914116614, -18389.942454092798, 0.664, -0.71, 0.328, 192.0, 0.0, 0.0, 0.0, 0.0, 0.0, 0.0, 0.0, 0.0, 0.0, 1.6635865886423619E9, 0.0, 2022-09-19 16:23:08.642
131.0, 9858.505112946643, 43276.6653033096, -19332.78373870656, -10895.469593461705, 12505.778670999845, -187500.02235174447, 27380.28346065086, -18384.890959845896, 0.664, -0.71, 0.328, 192.0, 0.0, 0.0, 0.0, 0.0, 0.0, 0.0, 0.0, 0.0, 0.0, 1.6635865886453397E9, 0.0, 2022-09-19 16:23:08.645
132.0, 9865.389450238878, 43282.05207372333, -19323.68657871325, -10896.274256262095, 12517.155708927598, -187500.02235174447, 27414.146353500648, -18389.607177925966, 0.664, -0.71, 0.328, 192.0, 0.0, 0.0, 0.0, 0.0, 0.0, 0.0, 0.0, 0.0, 0.0, 1.663586588649344E9, 0.0, 2022-09-19 16:23:08.649
133.0, 9865.970595594716, 43285.82951853627, -19322.837212423947, -10905.460823233227, 12523.503604352905, -187500.02235174447, 27445.61760969372, -18409.723747935743, 0.664, -0.71, 0.328, 192.0, 0.0, 0.0, 0.0, 0.0, 0.0, 0.0, 0.0, 0.0, 0.0, 1.6635865886533515E9, 0.0, 2022-09-19 16:23:08.653
134.0, 9857.253415257146, 43276.73235854296, -19330.414453794296, -10908.21008780123, 12506.784499500334, -187500.02235174447, 27413.76637384491, -18411.333073536527, 0.664, -0.71, 0.328, 192.0, 0.0, 0.0, 0.0, 0.0, 0.0, 0.0, 0.0, 0.0, 0.0, 1.6635865886583848E9, 0.0, 2022-09-19 16:23:08.658
135.0, 9850.592595409466, 43268.81984100579, -19332.001427650623, -10902.711558665223, 12493.239342360419, -187500.02235174447, 27378.718838538985, -18396.35740475147, 0.664, -0.71, 0.328, 192.0, 0.0, 0.0, 0.0, 0.0, 0.0, 0.0, 0.0, 0.0, 0.0, 1.6635865886623647E9, 0.0, 2022-09-19 16:23:08.662
136.0, 9854.682964644786, 43271.12207068468, -19330.280343327566, -10903.382110998882, 12494.491040049916, -187500.02235174447, 27379.188225172547, -18401.543009465102, 0.664, -0.71, 0.328, 192.0, 0.0, 0.0, 0.0, 0.0, 0.0, 0.0, 0.0, 0.0, 0.0, 1.6635865886663165E9, 0.0, 2022-09-19 16:23:08.666
137.0, 9860.829694369995, 43283.974323746486, -19329.095700871432, -10905.34906451095, 12506.650389033603, -187500.02235174447, 27416.29212096836, -18405.812192656063, 0.664, -0.71, 0.328, 192.0, 0.0, 0.0, 0.0, 0.0, 0.0, 0.0, 0.0, 0.0, 0.0, 1.6635865886704457E9, 0.0, 2022-09-19 16:23:08.670
138.0, 9857.655746657341, 43289.87518428268, -19336.87410794188, -10901.951599353742, 12508.773804756858, -187500.02235174447, 27451.026731851904, -18403.06292808806, 0.664, -0.71, 0.328, 192.0, 0.0, 0.0, 0.0, 0.0, 0.0, 0.0, 0.0, 0.0, 0.0, 1.663586588673365E9, 0.0, 2022-09-19 16:23:08.673
139.0, 9855.174703022803, 43281.82855627877, -19344.92073594579, -10891.53568643757, 12491.697071993003, -187500.02235174447, 27420.673062881597, -18392.512904705156, 0.666, -0.71, 0.328, 192.0, 20.0, 208.0, 233.0, 208.0, 10.0, 64.0, 0.0, 0.0, 0.0, 1.663586588677359E9, 0.0, 2022-09-19 16:23:08.677
140.0, 9856.471104201211, 43279.88395451116, -19341.076235899476, -10888.58525616947, 12481.057641632276, -187500.02235174447, 27384.530292097366, -18390.590654682, 0.666, -0.71, 0.328, 192.0, 0.0, 0.0, 0.0, 0.0, 0.0, 0.0, 0.0, 0.0, 0.0, 1.6635865886813917E9, 0.0, 2022-09-19 16:23:08.681
141.0, 9857.655746657341, 43283.884916768664, -19338.52813703157, -10896.564828940014, 12485.975025412445, -187500.02235174447, 27389.045344477337, -18398.145544307896, 0.666, -0.71, 0.328, 192.0, 0.0, 0.0, 0.0, 0.0, 0.0, 0.0, 0.0, 0.0, 0.0, 1.6635865886864202E9, 0.0, 2022-09-19 16:23:08.686
142.0, 9856.404048967845, 43287.93058251507, -19339.422206809784, -10902.689206920768, 12502.247095375908, -187500.02235174447, 27422.818830349308, -18403.331149021524, 0.666, -0.71, 0.328, 192.0, 0.0, 0.0, 0.0, 0.0, 0.0, 0.0, 0.0, 0.0, 0.0, 1.663586588690374E9, 0.0, 2022-09-19 16:23:08.690
143.0, 9858.840389113473, 43298.86058555372, -19334.39306430734, -10902.935076109778, 12537.965183015489, -187500.02235174447, 27467.969354149027, -18400.22425654224, 0.666, -0.71, 0.328, 192.0, 0.0, 0.0, 0.0, 0.0, 0.0, 0.0, 0.0, 0.0, 0.0, 1.6635865886943836E9, 0.0, 2022-09-19 16:23:08.694
144.0, 9863.578958937998, 43299.88876579866, -19330.92854391677, -10890.082823047975, 12547.330563942262, -187500.02235174447, 27451.227897552002, -18386.03089881312, 0.666, -0.71, 0.328, 192.0, 0.0, 0.0, 0.0, 0.0, 0.0, 0.0, 0.0, 0.0, 0.0, 1.663586588698416E9, 0.0, 2022-09-19 16:23:08.698
145.0, 9850.525540176099, 43290.724550571984, -19334.68363698526, -10889.904009092334, 12529.33740965574, -187500.02235174447, 27409.29602495385, -18385.807381368566, 0.666, -0.71, 0.328, 192.0, 0.0, 0.0, 0.0, 0.0, 0.0, 0.0, 0.0, 0.0, 0.0, 1.6635865887014184E9, 0.0, 2022-09-19 16:23:08.701
146.0, 9862.796647882062, 43287.37178890369, -19331.219116594686, -10891.133355037375, 12514.361740870685, -187500.02235174447, 27404.892731296153, -18387.841390113997, 0.666, -0.71, 0.328, 192.0, 0.0, 0.0, 0.0, 0.0, 0.0, 0.0, 0.0, 0.0, 0.0, 1.6635865887053957E9, 0.0, 2022-09-19 16:23:08.705
147.0, 9871.513828219633, 43294.94903027404, -19329.1627561048, -10889.211105014218, 12512.260676891885, -187500.02235174447, 27436.520449700412, -18386.522637191134, 0.666, -0.71, 0.328, 192.0, 0.0, 0.0, 0.0, 0.0, 0.0, 0.0, 0.0, 0.0, 0.0, 1.6635865887094116E9, 0.0, 2022-09-19 16:23:08.709
148.0, 9870.530351463598, 43302.973306533495, -19330.794433450035, -10891.53568643757, 12512.797118758812, -187500.02235174447, 27479.704019988065, -18384.26511100115, 0.666, -0.71, 0.328, 192.0, 0.0, 0.0, 0.0, 0.0, 0.0, 0.0, 0.0, 0.0, 0.0, 1.663586588713441E9, 0.0, 2022-09-19 16:23:08.713
149.0, 9863.131924048892, 43296.98303901948, -19335.44359629674, -10893.055605060532, 12496.86032496218, -187500.02235174447, 27461.71086570154, -18385.181532523817, 0.67, -0.706, 0.332, 192.0, 20.0, 240.0, 233.0, 240.0, 10.0, 96.0, 0.0, 0.0, 0.0, 1.6635865887184649E9, 0.0, 2022-09-19 16:23:08.718
150.0, 9856.404048967845, 43288.2658586819, -19335.577706763474, -10892.608570171426, 12476.408478785574, -187500.02235174447, 27420.51660067041, -18385.092125545994, 0.67, -0.706, 0.332, 192.0, 0.0, 0.0, 0.0, 0.0, 0.0, 0.0, 0.0, 0.0, 0.0, 1.663586588722417E9, 0.0, 2022-09-19 16:23:08.722
151.0, 9857.007546068138, 43294.07731224028, -19329.20745959371, -10898.196506285252, 12477.95074915299, -187500.02235174447, 27422.23768499347, -18385.002718568172, 0.67, -0.706, 0.332, 192.0, 0.0, 0.0, 0.0, 0.0, 0.0, 0.0, 0.0, 0.0, 0.0, 1.6635865887264564E9, 0.0, 2022-09-19 16:23:08.726
152.0, 9858.594519924465, 43300.02287626539, -19328.760424704604, -10904.320884266006, 12486.04208064581, -187500.02235174447, 27452.703112686053, -18391.484724460213, 0.67, -0.706, 0.332, 192.0, 0.0, 0.0, 0.0, 0.0, 0.0, 0.0, 0.0, 0.0, 0.0, 1.6635865887294328E9, 0.0, 2022-09-19 16:23:08.729
153.0, 9861.589653681476, 43304.783797834374, -19329.319218315988, -10913.485099492682, 12496.010958672878, -187500.02235174447, 27493.316232361347, -18399.754869908676, 0.67, -0.706, 0.332, 192.0, 0.0, 0.0, 0.0, 0.0, 0.0, 0.0, 0.0, 0.0, 0.0, 1.6635865887334497E9, 0.0, 2022-09-19 16:23:08.733
154.0, 9862.28255775959, 43304.917908301104, -19333.610753251407, -10912.322808781006, 12490.847705703702, -187500.02235174447, 27479.860482199252, -18395.955073351273, 0.67, -0.706, 0.332, 192.0, 0.0, 0.0, 0.0, 0.0, 0.0, 0.0, 0.0, 0.0, 0.0, 1.6635865887374556E9, 0.0, 2022-09-19 16:23:08.737
155.0, 9858.795685624562, 43296.60305936373, -19339.042227154045, -10909.372378512906, 12474.776801440335, -187500.02235174447, 27437.794499134365, -18387.282596502613, 0.67, -0.706, 0.332, 192.0, 0.0, 0.0, 0.0, 0.0, 0.0, 0.0, 0.0, 0.0, 0.0, 1.6635865887415655E9, 0.0, 2022-09-19 16:23:08.741
156.0, 9857.879264101895, 43293.406759906626, -19336.024741652578, -10909.752358168646, 12469.010051370866, -187500.02235174447, 27429.99374031946, -18386.25441625767, 0.67, -0.706, 0.332, 192.0, 0.0, 0.0, 0.0, 0.0, 0.0, 0.0, 0.0, 0.0, 0.0, 1.6635865887465088E9, 0.0, 2022-09-19 16:23:08.746
157.0, 9852.827769854995, 43296.15602447463, -19334.035436396058, -10911.808718658534, 12476.319071807751, -187500.02235174447, 27457.57579297731, -18383.840427856496, 0.67, -0.706, 0.332, 192.0, 0.0, 0.0, 0.0, 0.0, 0.0, 0.0, 0.0, 0.0, 0.0, 1.6635865887505052E9, 0.0, 2022-09-19 16:23:08.750
158.0, 9856.962842579227, 43306.08019901278, -19336.87410794188, -10920.749416440656, 12492.166458626565, -187500.02235174447, 27507.442534857102, -18390.389488981902, 0.67, -0.706, 0.332, 192.0, 0.0, 0.0, 0.0, 0.0, 0.0, 0.0, 0.0, 0.0, 0.0, 1.6635865887545905E9, 0.0, 2022-09-19 16:23:08.754
159.0, 9860.270900758613, 43303.30858270032, -19338.72930273167, -10923.610439730935, 12495.228647616941, -187500.02235174447, 27499.127685919728, -18381.717012133242, 0.664, -0.708, 0.33, 192.0, 20.0, 192.0, 233.0, 224.0, 10.0, 80.0, 0.0, 0.0, 0.0, 1.663586588757485E9, 0.0, 2022-09-19 16:23:08.757
160.0, 9856.582862923487, 43298.54766113134, -19332.1131863729, -10918.134262339385, 12491.987644670922, -187500.02235174447, 27456.972295877018, -18377.939567320296, 0.664, -0.708, 0.33, 192.0, 0.0, 0.0, 0.0, 0.0, 0.0, 0.0, 0.0, 0.0, 0.0, 1.66358658876147E9, 0.0, 2022-09-19 16:23:08.761
161.0, 9862.19315078177, 43302.1686437331, -19322.90426765731, -10916.97197162771, 12492.188810371019, -187500.02235174447, 27448.299819028358, -18382.16404702235, 0.664, -0.708, 0.33, 192.0, 0.0, 0.0, 0.0, 0.0, 0.0, 0.0, 0.0, 0.0, 0.0, 1.663586588765622E9, 0.0, 2022-09-19 16:23:08.765
162.0, 9863.690717660274, 43308.56124264732, -19318.97036063318, -10916.659047205336, 12503.208220387485, -187500.02235174447, 27471.746798961976, -18379.817113854544, 0.664, -0.708, 0.33, 192.0, 0.0, 0.0, 0.0, 0.0, 0.0, 0.0, 0.0, 0.0, 0.0, 1.6635865887695725E9, 0.0, 2022-09-19 16:23:08.769
163.0, 9864.897711860862, 43313.29981247185, -19323.507764757607, -10918.536593739582, 12515.47932809345, -187500.02235174447, 27512.359918637267, -18383.527503434125, 0.664, -0.708, 0.33, 192.0, 0.0, 0.0, 0.0, 0.0, 0.0, 0.0, 0.0, 0.0, 0.0, 1.6635865887745345E9, 0.0, 2022-09-19 16:23:08.774
164.0, 9860.226197269702, 43308.918870558606, -19336.047093397035, -10921.487024007682, 12508.304418123296, -187500.02235174447, 27502.569854565845, -18386.567340680045, 0.664, -0.708, 0.33, 192.0, 0.0, 0.0, 0.0, 0.0, 0.0, 0.0, 0.0, 0.0, 0.0, 1.6635865887785745E9, 0.0, 2022-09-19 16:23:08.778
165.0, 9850.726705876197, 43300.581669876774, -19345.97126793519, -10928.952506655754, 12488.903103936089, -187500.02235174447, 27457.24051681048, -18390.83652387101, 0.664, -0.708, 0.33, 192.0, 0.0, 0.0, 0.0, 0.0, 0.0, 0.0, 0.0, 0.0, 0.0, 1.663586588781592E9, 0.0, 2022-09-19 16:23:08.781
166.0, 9854.750019878153, 43303.2191757225, -19339.645724254337, -10931.411198545838, 12483.42692654454, -187500.02235174447, 27448.299819028358, -18391.59648318249, 0.664, -0.708, 0.33, 192.0, 0.0, 0.0, 0.0, 0.0, 0.0, 0.0, 0.0, 0.0, 0.0, 1.6635865887856271E9, 0.0, 2022-09-19 16:23:08.785
167.0, 9865.076525816505, 43309.99175429246, -19331.554392761518, -10934.607498002946, 12488.456069046983, -187500.02235174447, 27473.62434549622, -18393.719898905743, 0.664, -0.708, 0.33, 192.0, 0.0, 0.0, 0.0, 0.0, 0.0, 0.0, 0.0, 0.0, 0.0, 1.6635865887896328E9, 0.0, 2022-09-19 16:23:08.789
168.0, 9870.217427041225, 43318.977155563494, -19331.755558461617, -10940.888338194889, 12495.921551695055, -187500.02235174447, 27519.49012511851, -18396.6926809183, 0.664, -0.708, 0.33, 192.0, 0.0, 0.0, 0.0, 0.0, 0.0, 0.0, 0.0, 0.0, 0.0, 1.6635865887935832E9, 0.0, 2022-09-19 16:23:08.793
169.0, 9869.14454330737, 43317.85956834073, -19338.326971331477, -10939.390771316383, 12483.762202711368, -187500.02235174447, 27514.416279127156, -18394.412802983858, 0.66, -0.708, 0.334, 192.0, 20.0, 160.0, 233.0, 224.0, 10.0, 112.0, 0.0, 0.0, 0.0, 1.6635865887976215E9, 0.0, 2022-09-19 16:23:08.797
170.0, 9852.38073496589, 43309.09768451425, -19343.31141034501, -10944.710486496746, 12460.60579545567, -187500.02235174447, 27470.20452859456, -18400.87245713144, 0.66, -0.708, 0.334, 192.0, 0.0, 0.0, 0.0, 0.0, 0.0, 0.0, 0.0, 0.0, 0.0, 1.6635865888016098E9, 0.0, 2022-09-19 16:23:08.801
171.0, 9860.04738331406, 43309.254146725434, -19335.10832012991, -10943.995230674176, 12453.877920374623, -187500.02235174447, 27456.681723199097, -18396.647977429388, 0.66, -0.708, 0.334, 192.0, 0.0, 0.0, 0.0, 0.0, 0.0, 0.0, 0.0, 0.0, 0.0, 1.6635865888066163E9, 0.0, 2022-09-19 16:23:08.806
172.0, 9867.825790384506, 43313.67979212759, -19326.59230549244, -10941.849463206467, 12458.996469854888, -187500.02235174447, 27476.798293208874, -18387.237893013706, 0.66, -0.708, 0.334, 192.0, 0.0, 0.0, 0.0, 0.0, 0.0, 0.0, 0.0, 0.0, 0.0, 1.663586588809627E9, 0.0, 2022-09-19 16:23:08.809
173.0, 9865.501208961155, 43323.179283521094, -19324.35713104691, -10946.342163841982, 12474.933263651523, -187500.02235174447, 27521.837058286317, -18391.73059364922, 0.66, -0.708, 0.334, 192.0, 0.0, 0.0, 0.0, 0.0, 0.0, 0.0, 0.0, 0.0, 0.0, 1.6635865888136787E9, 0.0, 2022-09-19 16:23:08.813
174.0, 9869.14454330737, 43327.783742878884, -19320.423224022776, -10938.474349793714, 12487.651406246592, -187500.02235174447, 27526.419165899657, -18386.03089881312, 0.66, -0.708, 0.334, 192.0, 0.0, 0.0, 0.0, 0.0, 0.0, 0.0, 0.0, 0.0, 0.0, 1.6635865888176324E9, 0.0, 2022-09-19 16:23:08.817
175.0, 9865.23298802769, 43320.83235035329, -19329.565087504994, -10939.346067827471, 12488.053737646787, -187500.02235174447, 27483.34735433428, -18384.332166234515, 0.66, -0.708, 0.334, 192.0, 0.0, 0.0, 0.0, 0.0, 0.0, 0.0, 0.0, 0.0, 0.0, 1.663586588821636E9, 0.0, 2022-09-19 16:23:08.821
176.0, 9860.472066458711, 43318.66423114112, -19330.950895661223, -10938.273184093618, 12485.863266690169, -187500.02235174447, 27468.326982060313, -18381.560549922055, 0.66, -0.708, 0.334, 192.0, 0.0, 0.0, 0.0, 0.0, 0.0, 0.0, 0.0, 0.0, 0.0, 1.6635865888258173E9, 0.0, 2022-09-19 16:23:08.825
177.0, 9864.13775254938, 43324.4756846995, -19325.228849080664, -10940.35189632796, 12485.9973771569, -187500.02235174447, 27486.275432857925, -18394.01047158366, 0.66, -0.708, 0.334, 192.0, 0.0, 0.0, 0.0, 0.0, 0.0, 0.0, 0.0, 0.0, 0.0, 1.6635865888296723E9, 0.0, 2022-09-19 16:23:08.829
178.0, 9870.329185763501, 43336.255054027446, -19321.49610775663, -10943.816416718533, 12500.257790119385, -187500.02235174447, 27535.583381126333, -18394.993948339696, 0.66, -0.708, 0.334, 192.0, 0.0, 0.0, 0.0, 0.0, 0.0, 0.0, 0.0, 0.0, 0.0, 1.6635865888346725E9, 0.0, 2022-09-19 16:23:08.834
179.0, 9869.345709007468, 43334.019879581916, -19330.280343327566, -10941.983573673198, 12494.938074939022, -187500.02235174447, 27536.633913115733, -18383.460448200756, 0.66, -0.708, 0.334, 192.0, 0.0, 0.0, 0.0, 0.0, 0.0, 0.0, 0.0, 0.0, 0.0, 1.6635865888376324E9, 0.0, 2022-09-19 16:23:08.837
180.0, 9864.473028716211, 43325.36975447771, -19335.912982930302, -10935.523919525614, 12478.598949742192, -187500.02235174447, 27490.365802093245, -18370.764657350144, 0.654, -0.706, 0.338, 192.0, 20.0, 112.0, 233.0, 240.0, 10.0, 144.0, 0.0, 0.0, 0.0, 1.6635865888416498E9, 0.0, 2022-09-19 16:23:08.841
181.0, 9858.66157515783, 43316.02672529539, -19339.042227154045, -10943.034105662598, 12468.98769962641, -187500.02235174447, 27464.43777852509, -18378.20778825376, 0.654, -0.706, 0.338, 192.0, 0.0, 0.0, 0.0, 0.0, 0.0, 0.0, 0.0, 0.0, 0.0, 1.663586588845706E9, 0.0, 2022-09-19 16:23:08.845
182.0, 9858.61687166892, 43320.98881256447, -19336.53883177505, -10955.394620346382, 12475.939092152012, -187500.02235174447, 27479.502854287966, -18393.45167797228, 0.654, -0.706, 0.338, 192.0, 0.0, 0.0, 0.0, 0.0, 0.0, 0.0, 0.0, 0.0, 0.0, 1.6635865888496823E9, 0.0, 2022-09-19 16:23:08.849
183.0, 9863.735421149186, 43332.65642317014, -19330.59326774994, -10954.813474990544, 12493.03817666032, -187500.02235174447, 27527.31323567787, -18394.099878561483, 0.654, -0.706, 0.338, 192.0, 0.0, 0.0, 0.0, 0.0, 0.0, 0.0, 0.0, 0.0, 0.0, 1.6635865888537033E9, 0.0, 2022-09-19 16:23:08.853
184.0, 9856.873435601407, 43333.103458059246, -19335.912982930302, -10954.746419757179, 12491.585313270727, -187500.02235174447, 27534.577552625844, -18394.815134384055, 0.654, -0.706, 0.338, 192.0, 0.0, 0.0, 0.0, 0.0, 0.0, 0.0, 0.0, 0.0, 0.0, 1.663586588857692E9, 0.0, 2022-09-19 16:23:08.857
185.0, 9849.43030469779, 43324.922719588605, -19344.406645823317, -10953.651184278868, 12476.922568908045, -187500.02235174447, 27488.86823521474, -18382.11934353344, 0.654, -0.706, 0.338, 192.0, 0.0, 0.0, 0.0, 0.0, 0.0, 0.0, 0.0, 0.0, 0.0, 1.663586588862724E9, 0.0, 2022-09-19 16:23:08.862
186.0, 9846.479874429688, 43321.94993757605, -19343.222003367187, -10956.64631803588, 12478.822467186747, -187500.02235174447, 27469.48927277199, -18382.34286097799, 0.654, -0.706, 0.338, 192.0, 0.0, 0.0, 0.0, 0.0, 0.0, 0.0, 0.0, 0.0, 0.0, 1.6635865888657541E9, 0.0, 2022-09-19 16:23:08.865
187.0, 9845.13876976237, 43327.35905973423, -19340.40568356582, -10962.055440194064, 12491.071223148254, -187500.02235174447, 27483.459113056557, -18392.60231168298, 0.654, -0.706, 0.338, 192.0, 0.0, 0.0, 0.0, 0.0, 0.0, 0.0, 0.0, 0.0, 0.0, 1.663586588869718E9, 0.0, 2022-09-19 16:23:08.869
188.0, 9861.835522870484, 43346.64861519916, -19332.515517773096, -10958.143884914385, 12518.899144995112, -187500.02235174447, 27533.661131103174, -18387.819038369544, 0.654, -0.706, 0.338, 192.0, 0.0, 0.0, 0.0, 0.0, 0.0, 0.0, 0.0, 0.0, 0.0, 1.663586588873678E9, 0.0, 2022-09-19 16:23:08.873
189.0, 9870.28448227459, 43355.477554259014, -19329.67684622727, -10949.31494585454, 12543.82134006278, -187500.02235174447, 27550.73786386703, -18378.319546976036, 0.654, -0.706, 0.338, 192.0, 0.0, 0.0, 0.0, 0.0, 0.0, 0.0, 0.0, 0.0, 0.0, 1.6635865888777373E9, 0.0, 2022-09-19 16:23:08.877
190.0, 9864.696546160763, 43351.409536768144, -19332.739035217648, -10944.26345160764, 12548.62696512067, -187500.02235174447, 27510.25885465847, -18370.675250372322, 0.666, -0.71, 0.34, 192.0, 20.0, 208.0, 233.0, 208.0, 10.0, 160.0, 0.0, 0.0, 0.0, 1.6635865888817616E9, 0.0, 2022-09-19 16:23:08.881
191.0, 9862.66253741533, 43350.96250187904, -19326.860526425902, -10939.189605616284, 12545.900052297122, -187500.02235174447, 27489.158807892658, -18369.490607916192, 0.666, -0.71, 0.34, 192.0, 0.0, 0.0, 0.0, 0.0, 0.0, 0.0, 0.0, 0.0, 0.0, 1.6635865888858397E9, 0.0, 2022-09-19 16:23:08.885
192.0, 9864.294214760568, 43358.04800487137, -19322.568991490483, -10936.59680325947, 12548.559909887304, -187500.02235174447, 27503.106296432772, -18362.02512526812, 0.666, -0.71, 0.34, 192.0, 0.0, 0.0, 0.0, 0.0, 0.0, 0.0, 0.0, 0.0, 0.0, 1.6635865888907244E9, 0.0, 2022-09-19 16:23:08.890
193.0, 9868.697508418263, 43363.658292729655, -19320.82555542297, -10942.162387628841, 12552.203244233518, -187500.02235174447, 27540.433709673132, -18365.66845961433, 0.666, -0.71, 0.34, 192.0, 0.0, 0.0, 0.0, 0.0, 0.0, 0.0, 0.0, 0.0, 0.0, 1.6635865888937645E9, 0.0, 2022-09-19 16:23:08.893
194.0, 9867.199941539759, 43362.92068516263, -19326.59230549244, -10950.656050521857, 12541.027372005865, -187500.02235174447, 27549.21794524407, -18376.911387075354, 0.666, -0.71, 0.34, 192.0, 0.0, 0.0, 0.0, 0.0, 0.0, 0.0, 0.0, 0.0, 0.0, 1.663586588897719E9, 0.0, 2022-09-19 16:23:08.897
195.0, 9858.482761202189, 43354.62818796971, -19336.985866664156, -10950.343126099484, 12513.177098414553, -187500.02235174447, 27502.905130732674, -18378.5877679095, 0.666, -0.71, 0.34, 192.0, 0.0, 0.0, 0.0, 0.0, 0.0, 0.0, 0.0, 0.0, 0.0, 1.6635865889018717E9, 0.0, 2022-09-19 16:23:08.901
196.0, 9856.269938501113, 43350.381356523205, -19338.192860864743, -10944.732838241202, 12493.75343248289, -187500.02235174447, 27473.736104218497, -18386.477933702223, 0.666, -0.71, 0.34, 192.0, 0.0, 0.0, 0.0, 0.0, 0.0, 0.0, 0.0, 0.0, 0.0, 1.6635865889057968E9, 0.0, 2022-09-19 16:23:08.905
197.0, 9862.774296137608, 43360.238475827995, -19331.59909625043, -10944.218748118728, 12495.340406339217, -187500.02235174447, 27488.130627647715, -18380.91234933285, 0.666, -0.71, 0.34, 192.0, 0.0, 0.0, 0.0, 0.0, 0.0, 0.0, 0.0, 0.0, 0.0, 1.6635865889097905E9, 0.0, 2022-09-19 16:23:08.909
198.0, 9857.789857124073, 43370.16265036615, -19332.9625526622, -10951.326602855517, 12505.532801810838, -187500.02235174447, 27532.96822702506, -18384.756849379166, 0.666, -0.71, 0.34, 192.0, 0.0, 0.0, 0.0, 0.0, 0.0, 0.0, 0.0, 0.0, 0.0, 1.6635865889138272E9, 0.0, 2022-09-19 16:23:08.913
199.0, 9868.697508418263, 43370.90025793317, -19337.74582597564, -10955.796951746577, 12505.33163611074, -187500.02235174447, 27549.50851792199, -18388.44488721429, 0.666, -0.71, 0.34, 192.0, 0.0, 0.0, 0.0, 0.0, 0.0, 0.0, 0.0, 0.0, 0.0, 1.6635865889188275E9, 0.0, 2022-09-19 16:23:08.918
200.0, 9866.864665372928, 43359.38910953869, -19346.842985968946, -10961.317832627039, 12487.494944035405, -187500.02235174447, 27506.459058101067, -18391.82000062704, 0.662, -0.708, 0.334, 192.0, 20.0, 176.0, 233.0, 224.0, 10.0, 112.0, 0.0, 0.0, 0.0, 1.6635865889217927E9, 0.0, 2022-09-19 16:23:08.921
201.0, 9860.04738331406, 43354.11409784724, -19343.69139000075, -10968.135114685907, 12473.390993284107, -187500.02235174447, 27475.85951994175, -18393.63049192792, 0.662, -0.708, 0.334, 192.0, 0.0, 0.0, 0.0, 0.0, 0.0, 0.0, 0.0, 0.0, 0.0, 1.6635865889248505E9, 0.0, 2022-09-19 16:23:08.924
202.0, 9862.327261248502, 43358.71855720503, -19338.818709709492, -10976.271149667638, 12472.787496183813, -187500.02235174447, 27484.420238068134, -18399.933683864318, 0.662, -0.708, 0.334, 192.0, 0.0, 0.0, 0.0, 0.0, 0.0, 0.0, 0.0, 0.0, 0.0, 1.663586588929848E9, 0.0, 2022-09-19 16:23:08.929
203.0, 9872.162028808836, 43369.670911988134, -19333.074311384476, -10977.41108863486, 12487.919627180056, -187500.02235174447, 27527.87202928925, -18402.906465876873, 0.662, -0.708, 0.334, 192.0, 0.0, 0.0, 0.0, 0.0, 0.0, 0.0, 0.0, 0.0, 0.0, 1.663586588933839E9, 0.0, 2022-09-19 16:23:08.933
204.0, 9870.820924141517, 43374.1859643681, -19333.744863718137, -10977.545199101593, 12507.097423922709, -187500.02235174447, 27552.078968534348, -18401.45360248728, 0.662, -0.708, 0.334, 192.0, 0.0, 0.0, 0.0, 0.0, 0.0, 0.0, 0.0, 0.0, 0.0, 1.6635865889378376E9, 0.0, 2022-09-19 16:23:08.937
205.0, 9864.09304906047, 43372.73310097851, -19338.014046909102, -10972.046669965586, 12516.932191483045, -187500.02235174447, 27518.953683251584, -18387.528465691623, 0.662, -0.708, 0.334, 192.0, 0.0, 0.0, 0.0, 0.0, 0.0, 0.0, 0.0, 0.0, 0.0, 1.6635865889418654E9, 0.0, 2022-09-19 16:23:08.941
206.0, 9858.57216818001, 43369.89442943269, -19336.896459686337, -10970.616158320447, 12512.57360131426, -187500.02235174447, 27489.985822437506, -18389.808343626064, 0.662, -0.708, 0.334, 192.0, 0.0, 0.0, 0.0, 0.0, 0.0, 0.0, 0.0, 0.0, 0.0, 1.6635865889460208E9, 0.0, 2022-09-19 16:23:08.946
207.0, 9870.28448227459, 43373.00132191197, -19331.73320671716, -10975.622949078435, 12513.042987947822, -187500.02235174447, 27495.953738207074, -18397.474991974235, 0.662, -0.708, 0.334, 192.0, 0.0, 0.0, 0.0, 0.0, 0.0, 0.0, 0.0, 0.0, 0.0, 1.663586588948856E9, 0.0, 2022-09-19 16:23:08.948
208.0, 9873.167857309325, 43379.08099640381, -19334.0130846516, -10982.730803815222, 12524.732950297946, -187500.02235174447, 27532.565895624866, -18402.772355410143, 0.662, -0.708, 0.334, 192.0, 0.0, 0.0, 0.0, 0.0, 0.0, 0.0, 0.0, 0.0, 0.0, 1.6635865889528956E9, 0.0, 2022-09-19 16:23:08.952
209.0, 9870.060964830038, 43384.490118562004, -19341.38916032185, -10985.301254427583, 12530.119720711675, -187500.02235174447, 27557.666904648177, -18402.951169365784, 0.662, -0.708, 0.334, 192.0, 0.0, 0.0, 0.0, 0.0, 0.0, 0.0, 0.0, 0.0, 0.0, 1.6635865889579024E9, 0.0, 2022-09-19 16:23:08.957
210.0, 9860.270900758613, 43375.08003414632, -19346.97709643568, -10980.495629369692, 12507.320941367263, -187500.02235174447, 27514.617444827254, -18401.11832632045, 0.67, -0.712, 0.334, 192.0, 20.0, 240.0, 233.0, 192.0, 10.0, 112.0, 0.0, 0.0, 0.0, 1.6635865889618664E9, 0.0, 2022-09-19 16:23:08.961
211.0, 9859.198017024759, 43369.13447012121, -19345.59128827945, -10975.488838611704, 12488.411365558073, -187500.02235174447, 27477.96058392055, -18401.095974575994, 0.67, -0.712, 0.334, 192.0, 0.0, 0.0, 0.0, 0.0, 0.0, 0.0, 0.0, 0.0, 0.0, 1.6635865889658892E9, 0.0, 2022-09-19 16:23:08.965
212.0, 9860.606176925443, 43372.21901085604, -19343.24435511164, -10974.617120577946, 12484.768031211857, -187500.02235174447, 27481.179235122116, -18404.225218799736, 0.67, -0.712, 0.334, 192.0, 0.0, 0.0, 0.0, 0.0, 0.0, 0.0, 0.0, 0.0, 0.0, 1.663586588969916E9, 0.0, 2022-09-19 16:23:08.969
213.0, 9864.51773220512, 43381.204412127074, -19336.91881143079, -10973.521885099637, 12489.57365626975, -187500.02235174447, 27518.77486929594, -18394.971596595242, 0.67, -0.712, 0.334, 192.0, 0.0, 0.0, 0.0, 0.0, 0.0, 0.0, 0.0, 0.0, 0.0, 1.6635865889729548E9, 0.0, 2022-09-19 16:23:08.972
214.0, 9867.557569451043, 43387.552307552374, -19334.705988729715, -10972.493704854693, 12490.735946981424, -187500.02235174447, 27549.173241755158, -18390.34478549299, 0.67, -0.712, 0.334, 192.0, 0.0, 0.0, 0.0, 0.0, 0.0, 0.0, 0.0, 0.0, 0.0, 1.6635865889769156E9, 0.0, 2022-09-19 16:23:08.976
215.0, 9860.673232158808, 43375.6388277577, -19343.44552081174, -10971.912559498855, 12472.60868222817, -187500.02235174447, 27510.370613380746, -18390.322433748537, 0.67, -0.712, 0.334, 192.0, 0.0, 0.0, 0.0, 0.0, 0.0, 0.0, 0.0, 0.0, 0.0, 1.6635865889809544E9, 0.0, 2022-09-19 16:23:08.980
216.0, 9856.649918156852, 43369.82737419932, -19342.64085801135, -10975.958225245266, 12460.18111231102, -187500.02235174447, 27476.06068564185, -18391.909407604864, 0.67, -0.712, 0.334, 192.0, 0.0, 0.0, 0.0, 0.0, 0.0, 0.0, 0.0, 0.0, 0.0, 1.6635865889860013E9, 0.0, 2022-09-19 16:23:08.986
217.0, 9861.76846763712, 43375.59412426879, -19337.74582597564, -10977.165219445851, 12467.937167637012, -187500.02235174447, 27483.369706078734, -18395.575093695534, 0.67, -0.712, 0.334, 192.0, 0.0, 0.0, 0.0, 0.0, 0.0, 0.0, 0.0, 0.0, 0.0, 1.6635865889899328E9, 0.0, 2022-09-19 16:23:08.989
218.0, 9870.485647974689, 43386.74764475199, -19335.39889280783, -10974.684175811313, 12485.192714356508, -187500.02235174447, 27524.072232731847, -18392.22233202724, 0.67, -0.712, 0.334, 192.0, 0.0, 0.0, 0.0, 0.0, 0.0, 0.0, 0.0, 0.0, 0.0, 1.6635865889939353E9, 0.0, 2022-09-19 16:23:08.993
219.0, 9864.316566505024, 43389.49690931999, -19343.959610934213, -10980.585036347513, 12491.697071993003, -187500.02235174447, 27557.488090692532, -18395.6421489289, 0.67, -0.712, 0.334, 192.0, 0.0, 0.0, 0.0, 0.0, 0.0, 0.0, 0.0, 0.0, 0.0, 1.663586588997942E9, 0.0, 2022-09-19 16:23:08.997
220.0, 9854.772371622608, 43377.00228416947, -19352.78854999406, -10980.674443325335, 12473.458048517472, -187500.02235174447, 27521.97116875305, -18390.255378515172, 0.666, -0.714, 0.332, 192.0, 20.0, 208.0, 233.0, 176.0, 10.0, 96.0, 0.0, 0.0, 0.0, 1.6635865890011315E9, 0.0, 2022-09-19 16:23:09.001
221.0, 9857.499284446154, 43373.04602540088, -19343.73609348966, -10972.001966476675, 12459.287042532807, -187500.02235174447, 27486.76717123594, -18388.713108147753, 0.666, -0.714, 0.332, 192.0, 0.0, 0.0, 0.0, 0.0, 0.0, 0.0, 0.0, 0.0, 0.0, 1.6635865890049372E9, 0.0, 2022-09-19 16:23:09.004
222.0, 9858.594519924465, 43374.02950215692, -19343.423169067286, -10975.51119035616, 12457.18597855401, -187500.02235174447, 27484.599052023776, -18400.850105386988, 0.666, -0.714, 0.332, 192.0, 0.0, 0.0, 0.0, 0.0, 0.0, 0.0, 0.0, 0.0, 0.0, 1.663586589009031E9, 0.0, 2022-09-19 16:23:09.009
223.0, 9866.685851417285, 43384.87009821774, -19340.15981437681, -10975.868818267443, 12480.834124187724, -187500.02235174447, 27525.145116465705, -18403.12998332143, 0.666, -0.714, 0.332, 192.0, 0.0, 0.0, 0.0, 0.0, 0.0, 0.0, 0.0, 0.0, 0.0, 1.6635865890130067E9, 0.0, 2022-09-19 16:23:09.013
224.0, 9877.593502711476, 43402.68443854862, -19326.905229914813, -10967.241044907696, 12522.117796196675, -187500.02235174447, 27573.760160655995, -18391.73059364922, 0.666, -0.714, 0.332, 192.0, 0.0, 0.0, 0.0, 0.0, 0.0, 0.0, 0.0, 0.0, 0.0, 1.6635865890180244E9, 0.0, 2022-09-19 16:23:09.018
225.0, 9868.85397062945, 43396.82828150133, -19330.705026472217, -10957.540387814091, 12528.398636388618, -187500.02235174447, 27546.267514975967, -18379.705355132264, 0.666, -0.714, 0.332, 192.0, 0.0, 0.0, 0.0, 0.0, 0.0, 0.0, 0.0, 0.0, 0.0, 1.663586589022028E9, 0.0, 2022-09-19 16:23:09.022
226.0, 9859.868569358418, 43385.764167995956, -19334.147195118334, -10957.36157385845, 12517.468633349972, -187500.02235174447, 27505.587340067308, -18382.901654589376, 0.666, -0.714, 0.332, 192.0, 0.0, 0.0, 0.0, 0.0, 0.0, 0.0, 0.0, 0.0, 0.0, 1.6635865890259583E9, 0.0, 2022-09-19 16:23:09.025
227.0, 9863.176627537803, 43386.3900168407, -19331.48733752815, -10961.854274493966, 12510.80781350229, -187500.02235174447, 27500.2899766314, -18385.44975345728, 0.666, -0.714, 0.332, 192.0, 0.0, 0.0, 0.0, 0.0, 0.0, 0.0, 0.0, 0.0, 0.0, 1.6635865890290685E9, 0.0, 2022-09-19 16:23:09.029
228.0, 9867.870493873417, 43391.888545976704, -19329.54273576054, -10962.591882060991, 12516.440453105028, -187500.02235174447, 27531.045977001904, -18383.97453832323, 0.666, -0.714, 0.332, 192.0, 0.0, 0.0, 0.0, 0.0, 0.0, 0.0, 0.0, 0.0, 0.0, 1.6635865890330045E9, 0.0, 2022-09-19 16:23:09.033
229.0, 9875.76065966614, 43400.717485036555, -19326.860526425902, -10957.518036069636, 12529.493871866927, -187500.02235174447, 27569.3568669983, -18379.817113854544, 0.666, -0.714, 0.332, 192.0, 0.0, 0.0, 0.0, 0.0, 0.0, 0.0, 0.0, 0.0, 0.0, 1.663586589037035E9, 0.0, 2022-09-19 16:23:09.037
230.0, 9868.585749695987, 43394.66016228917, -19334.326009073975, -10954.992288946187, 12524.151804942108, -187500.02235174447, 27542.73593935203, -18376.620814397433, 0.664, -0.708, 0.328, 192.0, 20.0, 192.0, 233.0, 224.0, 10.0, 64.0, 0.0, 0.0, 0.0, 1.663586589041041E9, 0.0, 2022-09-19 16:23:09.041
231.0, 9857.208711768237, 43382.29964760538, -19343.423169067286, -10964.000041961675, 12511.187793158031, -187500.02235174447, 27496.847807985283, -18387.461410458258, 0.664, -0.708, 0.328, 192.0, 0.0, 0.0, 0.0, 0.0, 0.0, 0.0, 0.0, 0.0, 0.0, 1.663586589045992E9, 0.0, 2022-09-19 16:23:09.045
232.0, 9862.28255775959, 43380.95854293806, -19342.573802777984, -10964.178855917318, 12509.466708834972, -187500.02235174447, 27487.862406714252, -18384.510980190156, 0.664, -0.708, 0.328, 192.0, 0.0, 0.0, 0.0, 0.0, 0.0, 0.0, 0.0, 0.0, 0.0, 1.663586589050008E9, 0.0, 2022-09-19 16:23:09.050
233.0, 9869.412764240833, 43391.53091806542, -19334.504823029616, -10962.860102994455, 12524.800005531313, -187500.02235174447, 27521.05474723038, -18386.29911974658, 0.664, -0.708, 0.328, 192.0, 0.0, 0.0, 0.0, 0.0, 0.0, 0.0, 0.0, 0.0, 0.0, 1.6635865890541399E9, 0.0, 2022-09-19 16:23:09.054
234.0, 9869.368060751924, 43398.57171756884, -19328.02281713758, -10964.916463484344, 12536.579374859259, -187500.02235174447, 27564.484186707043, -18389.383660481413, 0.664, -0.708, 0.328, 192.0, 0.0, 0.0, 0.0, 0.0, 0.0, 0.0, 0.0, 0.0, 0.0, 1.663586589057072E9, 0.0, 2022-09-19 16:23:09.057
235.0, 9867.155238050847, 43392.84967098828, -19328.045168882032, -10962.010736705153, 12524.91176425359, -187500.02235174447, 27541.797166084907, -18379.101858031972, 0.664, -0.708, 0.328, 192.0, 0.0, 0.0, 0.0, 0.0, 0.0, 0.0, 0.0, 0.0, 0.0, 1.6635865890611017E9, 0.0, 2022-09-19 16:23:09.061
236.0, 9861.56730193702, 43382.70197900558, -19327.73224445966, -10959.59674830398, 12507.879734978646, -187500.02235174447, 27493.495046316988, -18373.625680640424, 0.664, -0.708, 0.328, 192.0, 0.0, 0.0, 0.0, 0.0, 0.0, 0.0, 0.0, 0.0, 0.0, 1.6635865890650403E9, 0.0, 2022-09-19 16:23:09.065
237.0, 9862.841351370973, 43381.94201969409, -19329.699197971728, -10969.006832719664, 12503.0517581763, -187500.02235174447, 27486.454246813566, -18386.612044168956, 0.664, -0.708, 0.328, 192.0, 0.0, 0.0, 0.0, 0.0, 0.0, 0.0, 0.0, 0.0, 0.0, 1.663586589069052E9, 0.0, 2022-09-19 16:23:09.069
238.0, 9861.097915303459, 43385.473595318035, -19334.46011954071, -10976.092335711997, 12504.705787265992, -187500.02235174447, 27513.902189004682, -18390.188323281804, 0.664, -0.708, 0.328, 192.0, 0.0, 0.0, 0.0, 0.0, 0.0, 0.0, 0.0, 0.0, 0.0, 1.6635865890751383E9, 0.0, 2022-09-19 16:23:09.075
239.0, 9862.99781358216, 43390.52508956493, -19336.002389908124, -10977.813420035056, 12512.57360131426, -187500.02235174447, 27554.627067402253, -18390.92593084883, 0.664, -0.708, 0.328, 192.0, 0.0, 0.0, 0.0, 0.0, 0.0, 0.0, 0.0, 0.0, 0.0, 1.6635865890780227E9, 0.0, 2022-09-19 16:23:09.078
240.0, 9859.153313535848, 43388.759301752965, -19341.947953933235, -10975.667652567347, 12517.736854283436, -187500.02235174447, 27539.83021257284, -18390.76946863764, 0.664, -0.706, 0.33, 192.0, 20.0, 192.0, 233.0, 240.0, 10.0, 80.0, 0.0, 0.0, 0.0, 1.6635865890820425E9, 0.0, 2022-09-19 16:23:09.082
241.0, 9856.33699373448, 43380.846784215784, -19347.64764876934, -10971.800800776578, 12515.814604260278, -187500.02235174447, 27495.752572506975, -18383.77337262313, 0.664, -0.706, 0.33, 192.0, 0.0, 0.0, 0.0, 0.0, 0.0, 0.0, 0.0, 0.0, 0.0, 1.6635865890850708E9, 0.0, 2022-09-19 16:23:09.085
242.0, 9849.407952953334, 43376.42113881363, -19344.518404545594, -10970.727917042723, 12513.490022836928, -187500.02235174447, 27489.091752659293, -18381.35938422196, 0.664, -0.706, 0.33, 192.0, 0.0, 0.0, 0.0, 0.0, 0.0, 0.0, 0.0, 0.0, 0.0, 1.6635865890890646E9, 0.0, 2022-09-19 16:23:09.089
243.0, 9852.224272754702, 43381.405577827165, -19333.521346273585, -10969.140943186396, 12519.390883373128, -187500.02235174447, 27516.047956472394, -18379.571244665534, 0.664, -0.706, 0.33, 192.0, 0.0, 0.0, 0.0, 0.0, 0.0, 0.0, 0.0, 0.0, 0.0, 1.6635865890930727E9, 0.0, 2022-09-19 16:23:09.093
244.0, 9867.691679917774, 43383.81956622834, -19327.374616548375, -10967.26339665215, 12525.269392164873, -187500.02235174447, 27555.342323224824, -18377.40312545337, 0.664, -0.706, 0.33, 192.0, 0.0, 0.0, 0.0, 0.0, 0.0, 0.0, 0.0, 0.0, 0.0, 1.6635865890970504E9, 0.0, 2022-09-19 16:23:09.097
245.0, 9860.986156581183, 43372.01784515594, -19335.577706763474, -10970.236178664707, 12510.070205935264, -187500.02235174447, 27535.4492706596, -18383.102820289474, 0.664, -0.706, 0.33, 192.0, 0.0, 0.0, 0.0, 0.0, 0.0, 0.0, 0.0, 0.0, 0.0, 1.6635865891021092E9, 0.0, 2022-09-19 16:23:09.102
246.0, 9856.225235012202, 43362.51835376243, -19339.15398587632, -10973.477181610726, 12496.32388309525, -187500.02235174447, 27493.942081206096, -18390.63535817091, 0.664, -0.706, 0.33, 192.0, 0.0, 0.0, 0.0, 0.0, 0.0, 0.0, 0.0, 0.0, 0.0, 1.663586589106086E9, 0.0, 2022-09-19 16:23:09.106
247.0, 9855.979365823194, 43363.47947877401, -19338.841061453946, -10968.336280386005, 12497.352063340195, -187500.02235174447, 27488.041220669893, -18381.560549922055, 0.664, -0.706, 0.33, 192.0, 0.0, 0.0, 0.0, 0.0, 0.0, 0.0, 0.0, 0.0, 0.0, 1.6635865891090884E9, 0.0, 2022-09-19 16:23:09.109
248.0, 9860.382659480889, 43369.06741488784, -19335.085968385454, -10969.543274586591, 12510.114909424175, -187500.02235174447, 27517.076136717336, -18384.19805576778, 0.664, -0.706, 0.33, 192.0, 0.0, 0.0, 0.0, 0.0, 0.0, 0.0, 0.0, 0.0, 0.0, 1.6635865891131177E9, 0.0, 2022-09-19 16:23:09.113
249.0, 9859.3768309804, 43373.24719110098, -19333.051959640023, -10972.35959438796, 12522.609534574693, -187500.02235174447, 27562.22666051706, -18380.219445254737, 0.664, -0.706, 0.33, 192.0, 0.0, 0.0, 0.0, 0.0, 0.0, 0.0, 0.0, 0.0, 0.0, 1.6635865891171556E9, 0.0, 2022-09-19 16:23:09.117
250.0, 9851.777237865595, 43365.401728797166, -19340.495090543638, -10972.046669965586, 12510.405482102095, -187500.02235174447, 27548.54739291041, -18379.146561520884, 0.67, -0.704, 0.33, 192.0, 20.0, 240.0, 234.0, 0.0, 10.0, 80.0, 0.0, 0.0, 0.0, 1.6635865891211617E9, 0.0, 2022-09-19 16:23:09.121
251.0, 9849.184435508781, 43355.879885659204, -19345.323067345988, -10974.192437433296, 12487.09261263521, -187500.02235174447, 27500.312328375858, -18382.946358078287, 0.67, -0.704, 0.33, 192.0, 0.0, 0.0, 0.0, 0.0, 0.0, 0.0, 0.0, 0.0, 0.0, 1.6635865891251566E9, 0.0, 2022-09-19 16:23:09.125
252.0, 9847.038668041072, 43357.220990326525, -19338.326971331477, -10977.969882246243, 12487.405537057584, -187500.02235174447, 27491.550444549375, -18388.86957035894, 0.67, -0.704, 0.33, 192.0, 0.0, 0.0, 0.0, 0.0, 0.0, 0.0, 0.0, 0.0, 0.0, 1.6635865891291063E9, 0.0, 2022-09-19 16:23:09.129
253.0, 9847.440999441267, 43361.62428398422, -19333.498994529127, -10979.042765980097, 12498.335540096228, -187500.02235174447, 27514.081002960327, -18389.29425350359, 0.67, -0.704, 0.33, 192.0, 0.0, 0.0, 0.0, 0.0, 0.0, 0.0, 0.0, 0.0, 0.0, 1.6635865891341605E9, 0.0, 2022-09-19 16:23:09.134
254.0, 9854.48179894469, 43364.12767936321, -19330.25799158311, -10978.528675857626, 12507.902086723101, -187500.02235174447, 27553.062445290383, -18385.226236012728, 0.67, -0.704, 0.33, 192.0, 0.0, 0.0, 0.0, 0.0, 0.0, 0.0, 0.0, 0.0, 0.0, 1.6635865891371815E9, 0.0, 2022-09-19 16:23:09.137
255.0, 9852.358383221434, 43358.9867781385, -19335.39889280783, -10979.869780524943, 12502.962351198477, -187500.02235174447, 27540.724282351053, -18385.919140090842, 0.67, -0.704, 0.33, 192.0, 0.0, 0.0, 0.0, 0.0, 0.0, 0.0, 0.0, 0.0, 0.0, 1.663586589141163E9, 0.0, 2022-09-19 16:23:09.141
0.0, 9852.09016228797, 43353.242379813484, -19337.74582597564, -10976.986405490208, 12501.643598275614, -187500.02235174447, 27496.62429054073, -18385.44975345728, 0.67, -0.704, 0.33, 192.0, 0.0, 0.0, 0.0, 0.0, 0.0, 0.0, 0.0, 0.0, 0.0, 1.6635865891461525E9, 0.0, 2022-09-19 16:23:09.146
1.0, 9855.062944300525, 43353.62235946922, -19333.58840150695, -10975.578245589524, 12501.66595002007, -187500.02235174447, 27483.459113056557, -18388.087259303007, 0.67, -0.704, 0.33, 192.0, 0.0, 0.0, 0.0, 0.0, 0.0, 0.0, 0.0, 0.0, 0.0, 1.6635865891492512E9, 0.0, 2022-09-19 16:23:09.149
2.0, 9861.90257810385, 43358.91972290513, -19330.72737821667, -10974.88534151141, 12505.823374488757, -187500.02235174447, 27504.06742144435, -18388.377831980924, 0.67, -0.704, 0.33, 192.0, 0.0, 0.0, 0.0, 0.0, 0.0, 0.0, 0.0, 0.0, 0.0, 1.6635865891532629E9, 0.0, 2022-09-19 16:23:09.153
3.0, 9865.702374661252, 43362.741871206985, -19331.73320671716, -10976.874646767932, 12512.707711780991, -187500.02235174447, 27547.921544065663, -18391.8423523715, 0.67, -0.704, 0.33, 192.0, 0.0, 0.0, 0.0, 0.0, 0.0, 0.0, 0.0, 0.0, 0.0, 1.6635865891572561E9, 0.0, 2022-09-19 16:23:09.157
4.0, 9860.717935647719, 43353.95763563605, -19338.483433542664, -10978.238103179707, 12500.391900586117, -187500.02235174447, 27544.479375419545, -18399.956035608775, 0.668, -0.706, 0.332, 192.0, 20.0, 224.0, 233.0, 240.0, 10.0, 96.0, 0.0, 0.0, 0.0, 1.6635865891622727E9, 0.0, 2022-09-19 16:23:09.162
5.0, 9853.632432655386, 43341.86534188573, -19345.993619679644, -10979.981539247221, 12475.268539818353, -187500.02235174447, 27497.25013938548, -18395.73155590672, 0.668, -0.706, 0.332, 192.0, 0.0, 0.0, 0.0, 0.0, 0.0, 0.0, 0.0, 0.0, 0.0, 1.663586589165234E9, 0.0, 2022-09-19 16:23:09.165
6.0, 9854.124171033403, 43334.06458307083, -19349.726361003683, -10981.769678803645, 12459.599966955182, -187500.02235174447, 27475.121912374725, -18397.251474529683, 0.668, -0.706, 0.332, 192.0, 0.0, 0.0, 0.0, 0.0, 0.0, 0.0, 0.0, 0.0, 0.0, 1.6635865891692836E9, 0.0, 2022-09-19 16:23:09.169
7.0, 9859.62270016941, 43339.16078080664, -19345.479529557175, -10981.03207123662, 12465.254958302374, -187500.02235174447, 27496.333717862814, -18399.59840769749, 0.668, -0.706, 0.332, 192.0, 0.0, 0.0, 0.0, 0.0, 0.0, 0.0, 0.0, 0.0, 0.0, 1.66358658917334E9, 0.0, 2022-09-19 16:23:09.173
8.0, 9868.04930782906, 43350.56017047884, -19335.041264896547, -10973.41012637736, 12479.224798586942, -187500.02235174447, 27544.613485886275, -18388.78016338112, 0.668, -0.706, 0.332, 192.0, 0.0, 0.0, 0.0, 0.0, 0.0, 0.0, 0.0, 0.0, 0.0, 1.6635865891772745E9, 0.0, 2022-09-19 16:23:09.177
9.0, 9868.04930782906, 43346.06746984333, -19334.728340474172, -10972.381946132416, 12469.32297579324, -187500.02235174447, 27543.674712619155, -18387.707279647264, 0.668, -0.706, 0.332, 192.0, 0.0, 0.0, 0.0, 0.0, 0.0, 0.0, 0.0, 0.0, 0.0, 1.6635865891814053E9, 0.0, 2022-09-19 16:23:09.181
10.0, 9856.135828034381, 43332.72347840351, -19338.483433542664, -10973.11955369944, 12447.328859249219, -187500.02235174447, 27497.58541555231, -18388.26607325865, 0.668, -0.706, 0.332, 192.0, 0.0, 0.0, 0.0, 0.0, 0.0, 0.0, 0.0, 0.0, 0.0, 1.663586589185249E9, 0.0, 2022-09-19 16:23:09.185
11.0, 9857.85691235744, 43328.18607427908, -19331.10735787241, -10971.666690309847, 12441.070370801732, -187500.02235174447, 27479.97224092153, -18386.50028544668, 0.668, -0.706, 0.332, 192.0, 0.0, 0.0, 0.0, 0.0, 0.0, 0.0, 0.0, 0.0, 0.0, 1.6635865891892896E9, 0.0, 2022-09-19 16:23:09.189
12.0, 9868.228121784703, 43327.224949267504, -19324.1112618579, -10970.750268787178, 12445.160740037054, -187500.02235174447, 27490.365802093245, -18388.4895907032, 0.668, -0.706, 0.332, 192.0, 0.0, 0.0, 0.0, 0.0, 0.0, 0.0, 0.0, 0.0, 0.0, 1.6635865891933057E9, 0.0, 2022-09-19 16:23:09.193
13.0, 9874.307796276546, 43336.29975751636, -19321.786680434547, -10976.02528047863, 12460.784609411314, -187500.02235174447, 27535.02458751495, -18396.178590795826, 0.668, -0.706, 0.332, 192.0, 0.0, 0.0, 0.0, 0.0, 0.0, 0.0, 0.0, 0.0, 0.0, 1.6635865891972263E9, 0.0, 2022-09-19 16:23:09.197
14.0, 9871.156200308347, 43331.58353943629, -19327.799299693026, -10975.332376400516, 12462.66215594556, -187500.02235174447, 27534.30933169238, -18390.590654682, 0.664, -0.708, 0.328, 192.0, 20.0, 192.0, 233.0, 224.0, 10.0, 64.0, 0.0, 0.0, 0.0, 1.663586589201284E9, 0.0, 2022-09-19 16:23:09.201
15.0, 9861.880226359395, 43319.60300440824, -19333.610753251407, -10970.370289131439, 12458.527083221326, -187500.02235174447, 27483.995554923484, -18386.20971276876, 0.664, -0.708, 0.328, 192.0, 0.0, 0.0, 0.0, 0.0, 0.0, 0.0, 0.0, 0.0, 0.0, 1.6635865892053018E9, 0.0, 2022-09-19 16:23:09.205
16.0, 9856.582862923487, 43315.08795202827, -19331.59909625043, -10973.633643821913, 12453.453237229973, -187500.02235174447, 27458.5816214778, -18394.166933794848, 0.664, -0.708, 0.328, 192.0, 0.0, 0.0, 0.0, 0.0, 0.0, 0.0, 0.0, 0.0, 0.0, 1.6635865892093425E9, 0.0, 2022-09-19 16:23:09.209
17.0, 9858.348650735457, 43313.70214387204, -19329.430977038264, -10980.003890991675, 12454.347307008185, -187500.02235174447, 27467.589374493287, -18399.59840769749, 0.664, -0.708, 0.328, 192.0, 0.0, 0.0, 0.0, 0.0, 0.0, 0.0, 0.0, 0.0, 0.0, 1.663586589213358E9, 0.0, 2022-09-19 16:23:09.213
18.0, 9861.23202577019, 43315.73615261748, -19331.085006127956, -10982.17201020384, 12463.980908868421, -187500.02235174447, 27503.329813877324, -18401.855933887477, 0.664, -0.708, 0.328, 192.0, 0.0, 0.0, 0.0, 0.0, 0.0, 0.0, 0.0, 0.0, 0.0, 1.6635865892183275E9, 0.0, 2022-09-19 16:23:09.218
19.0, 9856.538159434576, 43311.154045004136, -19339.042227154045, -10982.529638115126, 12462.572748967737, -187500.02235174447, 27505.185008667115, -18403.711128677267, 0.664, -0.708, 0.328, 192.0, 0.0, 0.0, 0.0, 0.0, 0.0, 0.0, 0.0, 0.0, 0.0, 1.6635865892213492E9, 0.0, 2022-09-19 16:23:09.221
20.0, 9847.418647696812, 43298.368847175705, -19341.545622533038, -10979.13217295792, 12447.93235634951, -187500.02235174447, 27453.932458631094, -18405.58867521151, 0.664, -0.708, 0.328, 192.0, 0.0, 0.0, 0.0, 0.0, 0.0, 0.0, 0.0, 0.0, 0.0, 1.6635865892243414E9, 0.0, 2022-09-19 16:23:09.224
21.0, 9851.66547914332, 43294.23377445147, -19335.30948583001, -10977.187571190307, 12444.84781561468, -187500.02235174447, 27424.383452461178, -18393.07169831654, 0.664, -0.708, 0.328, 192.0, 0.0, 0.0, 0.0, 0.0, 0.0, 0.0, 0.0, 0.0, 0.0, 1.663586589229365E9, 0.0, 2022-09-19 16:23:09.229
22.0, 9856.068772801014, 43293.29500118435, -19331.330875316962, -10976.695832812291, 12451.329821506719, -187500.02235174447, 27428.742042629965, -18390.098916303985, 0.664, -0.708, 0.328, 192.0, 0.0, 0.0, 0.0, 0.0, 0.0, 0.0, 0.0, 0.0, 0.0, 1.6635865892333093E9, 0.0, 2022-09-19 16:23:09.233
23.0, 9859.868569358418, 43297.18420471957, -19330.637971238848, -10980.719146814245, 12463.84679840169, -187500.02235174447, 27462.001438379462, -18400.604236197978, 0.664, -0.708, 0.328, 192.0, 0.0, 0.0, 0.0, 0.0, 0.0, 0.0, 0.0, 0.0, 0.0, 1.6635865892374485E9, 0.0, 2022-09-19 16:23:09.237
24.0, 9857.879264101895, 43297.22890820848, -19336.024741652578, -10981.300292170083, 12465.970214124944, -187500.02235174447, 27468.572851249322, -18404.895771133397, 0.664, -0.708, 0.328, 192.0, 0.0, 0.0, 0.0, 0.0, 0.0, 0.0, 0.0, 0.0, 0.0, 1.663586589241368E9, 0.0, 2022-09-19 16:23:09.241
25.0, 9848.156255263837, 43281.42622487858, -19346.373599335384, -10982.797859048589, 12446.434789471006, -187500.02235174447, 27416.448583179546, -18407.868553145952, 0.662, -0.706, 0.336, 192.0, 20.0, 176.0, 233.0, 240.0, 10.0, 128.0, 0.0, 0.0, 0.0, 1.6635865892453732E9, 0.0, 2022-09-19 16:23:09.245
26.0, 9852.224272754702, 43273.334893385756, -19343.467872556197, -10977.74636480169, 12438.589327167194, -187500.02235174447, 27381.065771706795, -18403.55466646608, 0.662, -0.706, 0.336, 192.0, 0.0, 0.0, 0.0, 0.0, 0.0, 0.0, 0.0, 0.0, 0.0, 1.6635865892493608E9, 0.0, 2022-09-19 16:23:09.249
27.0, 9854.95118557825, 43272.32906488527, -19342.327933588975, -10976.137039200907, 12441.785626624302, -187500.02235174447, 27379.590556572744, -18403.73348042172, 0.662, -0.706, 0.336, 192.0, 0.0, 0.0, 0.0, 0.0, 0.0, 0.0, 0.0, 0.0, 0.0, 1.6635865892524183E9, 0.0, 2022-09-19 16:23:09.252
28.0, 9857.812208868529, 43279.25810566641, -19340.763311477105, -10984.429536393827, 12457.61066169866, -187500.02235174447, 27413.028766277883, -18416.74219569471, 0.662, -0.706, 0.336, 192.0, 0.0, 0.0, 0.0, 0.0, 0.0, 0.0, 0.0, 0.0, 0.0, 1.6635865892564256E9, 0.0, 2022-09-19 16:23:09.256
29.0, 9855.80055186755, 43276.64295156515, -19344.54075629005, -10989.995120763198, 12457.811827398757, -187500.02235174447, 27424.562266416822, -18420.094957363006, 0.662, -0.706, 0.336, 192.0, 0.0, 0.0, 0.0, 0.0, 0.0, 0.0, 0.0, 0.0, 0.0, 1.663586589261388E9, 0.0, 2022-09-19 16:23:09.261
30.0, 9852.33603147698, 43264.19302990354, -19346.93239294677, -10983.468411382248, 12440.042190556787, -187500.02235174447, 27375.030800703862, -18404.873419388943, 0.662, -0.706, 0.336, 192.0, 0.0, 0.0, 0.0, 0.0, 0.0, 0.0, 0.0, 0.0, 0.0, 1.663586589265375E9, 0.0, 2022-09-19 16:23:09.265
31.0, 9853.632432655386, 43256.16875364408, -19346.820634224492, -10981.635568336913, 12432.12967301961, -187500.02235174447, 27338.686864219533, -18403.778183910632, 0.662, -0.706, 0.336, 192.0, 0.0, 0.0, 0.0, 0.0, 0.0, 0.0, 0.0, 0.0, 0.0, 1.6635865892695103E9, 0.0, 2022-09-19 16:23:09.269
32.0, 9859.488589702678, 43261.868448480185, -19341.97030567769, -10982.954321259776, 12443.059676058254, -187500.02235174447, 27343.447785788514, -18413.12121309295, 0.662, -0.706, 0.336, 192.0, 0.0, 0.0, 0.0, 0.0, 0.0, 0.0, 0.0, 0.0, 0.0, 1.663586589272444E9, 0.0, 2022-09-19 16:23:09.272
33.0, 9864.629490927398, 43269.065710194795, -19336.69529398624, -10982.954321259776, 12457.476551231928, -187500.02235174447, 27376.930698982564, -18414.931704393828, 0.662, -0.706, 0.336, 192.0, 0.0, 0.0, 0.0, 0.0, 0.0, 0.0, 0.0, 0.0, 0.0, 1.6635865892764876E9, 0.0, 2022-09-19 16:23:09.276
34.0, 9864.115400804925, 43270.7644427734, -19341.63502951086, -10978.551027602081, 12461.119885578142, -187500.02235174447, 27390.85583577822, -18394.524561706134, 0.662, -0.706, 0.336, 192.0, 0.0, 0.0, 0.0, 0.0, 0.0, 0.0, 0.0, 0.0, 0.0, 1.6635865892803807E9, 0.0, 2022-09-19 16:23:09.280
35.0, 9850.27967098709, 43258.649797278624, -19354.800206995038, -10981.724975314733, 12442.500882446871, -187500.02235174447, 27340.60911424269, -18398.458468730267, 0.662, -0.704, 0.33, 192.0, 20.0, 176.0, 234.0, 0.0, 10.0, 80.0, 0.0, 0.0, 0.0, 1.663586589284412E9, 0.0, 2022-09-19 16:23:09.284
36.0, 9849.564415164521, 43250.08907915224, -19353.72732326118, -10980.719146814245, 12430.78856835229, -187500.02235174447, 27302.767610879855, -18402.437079243315, 0.662, -0.704, 0.33, 192.0, 0.0, 0.0, 0.0, 0.0, 0.0, 0.0, 0.0, 0.0, 0.0, 1.6635865892894313E9, 0.0, 2022-09-19 16:23:09.289
37.0, 9851.173740765304, 43245.75284072791, -19350.553375548527, -10981.166181703351, 12429.827443340713, -187500.02235174447, 27299.75012537839, -18406.505096734178, 0.662, -0.704, 0.33, 192.0, 0.0, 0.0, 0.0, 0.0, 0.0, 0.0, 0.0, 0.0, 0.0, 1.663586589293451E9, 0.0, 2022-09-19 16:23:09.293
38.0, 9850.100857031448, 43250.84903846372, -19345.188956879254, -10988.542257373603, 12443.08202780271, -187500.02235174447, 27332.495431005413, -18415.758718938676, 0.662, -0.704, 0.33, 192.0, 0.0, 0.0, 0.0, 0.0, 0.0, 0.0, 0.0, 0.0, 0.0, 1.663586589297438E9, 0.0, 2022-09-19 16:23:09.297
39.0, 9851.173740765304, 43253.061861164795, -19343.69139000075, -10992.163239975363, 12448.55820519426, -187500.02235174447, 27348.87925969115, -18421.324303308047, 0.662, -0.704, 0.33, 192.0, 0.0, 0.0, 0.0, 0.0, 0.0, 0.0, 0.0, 0.0, 0.0, 1.6635865893004909E9, 0.0, 2022-09-19 16:23:09.300
40.0, 9848.849159341951, 43248.92678844056, -19340.9644771772, -10983.22254219324, 12439.952783578967, -187500.02235174447, 27307.68499466002, -18407.488573490213, 0.662, -0.704, 0.33, 192.0, 0.0, 0.0, 0.0, 0.0, 0.0, 0.0, 0.0, 0.0, 0.0, 1.6635865893044827E9, 0.0, 2022-09-19 16:23:09.304
41.0, 9839.528481904088, 43240.58958775873, -19342.618506266896, -10981.523809614637, 12429.380408451607, -187500.02235174447, 27264.076741227716, -18404.381681010924, 0.662, -0.704, 0.33, 192.0, 0.0, 0.0, 0.0, 0.0, 0.0, 0.0, 0.0, 0.0, 0.0, 1.6635865893084881E9, 0.0, 2022-09-19 16:23:09.308
42.0, 9843.104761016937, 43240.8578086922, -19338.10345388692, -10981.300292170083, 12435.884766088102, -187500.02235174447, 27260.455758625958, -18408.047367101593, 0.662, -0.704, 0.33, 192.0, 0.0, 0.0, 0.0, 0.0, 0.0, 0.0, 0.0, 0.0, 0.0, 1.6635865893125627E9, 0.0, 2022-09-19 16:23:09.312
43.0, 9854.302984989046, 43245.79754421682, -19336.1141486304, -10985.770641061144, 12448.334687749708, -187500.02235174447, 27288.037811283808, -18413.16591658186, 0.662, -0.704, 0.33, 192.0, 0.0, 0.0, 0.0, 0.0, 0.0, 0.0, 0.0, 0.0, 0.0, 1.66358658931751E9, 0.0, 2022-09-19 16:23:09.317
44.0, 9854.794723367062, 43243.74118372693, -19342.88672720036, -10990.531562630125, 12452.46976047394, -187500.02235174447, 27304.846323114198, -18416.31751255006, 0.662, -0.704, 0.33, 192.0, 0.0, 0.0, 0.0, 0.0, 0.0, 0.0, 0.0, 0.0, 0.0, 1.663586589321479E9, 0.0, 2022-09-19 16:23:09.321
45.0, 9849.43030469779, 43233.88406442214, -19349.8157679815, -10984.138963715908, 12439.461045200951, -187500.02235174447, 27261.327476659713, -18411.55659098108, 0.664, -0.7020000000000001, 0.324, 192.0, 20.0, 192.0, 234.0, 16.0, 10.0, 32.0, 0.0, 0.0, 0.0, 1.663586589325497E9, 0.0, 2022-09-19 16:23:09.325
46.0, 9855.398220467356, 43233.95111965551, -19343.557279534016, -10976.02528047863, 12437.583498666705, -187500.02235174447, 27226.704624498445, -18407.533276979124, 0.664, -0.7020000000000001, 0.324, 192.0, 0.0, 0.0, 0.0, 0.0, 0.0, 0.0, 0.0, 0.0, 0.0, 1.6635865893286138E9, 0.0, 2022-09-19 16:23:09.328
47.0, 9862.841351370973, 43240.969567414475, -19335.600058507927, -10971.845504265488, 12447.217100526941, -187500.02235174447, 27226.01172042033, -18403.577018210533, 0.664, -0.7020000000000001, 0.324, 192.0, 0.0, 0.0, 0.0, 0.0, 0.0, 0.0, 0.0, 0.0, 0.0, 1.6635865893325205E9, 0.0, 2022-09-19 16:23:09.332
48.0, 9862.729592648697, 43244.27762559386, -19336.225907352677, -10979.445097380292, 12460.002298355377, -187500.02235174447, 27249.481052098403, -18416.988064883717, 0.664, -0.7020000000000001, 0.324, 192.0, 0.0, 0.0, 0.0, 0.0, 0.0, 0.0, 0.0, 0.0, 0.0, 1.6635865893365116E9, 0.0, 2022-09-19 16:23:09.336
49.0, 9865.411801983333, 43250.89374195263, -19339.265744598597, -10983.669577082346, 12483.09165037771, -187500.02235174447, 27275.67729660002, -18416.4963265057, 0.664, -0.7020000000000001, 0.324, 192.0, 0.0, 0.0, 0.0, 0.0, 0.0, 0.0, 0.0, 0.0, 0.0, 1.663586589340508E9, 0.0, 2022-09-19 16:23:09.340
50.0, 9867.043479328571, 43247.71979423998, -19339.35515157642, -10976.762888045656, 12483.918664922556, -187500.02235174447, 27239.71333977143, -18407.935608379317, 0.664, -0.7020000000000001, 0.324, 192.0, 0.0, 0.0, 0.0, 0.0, 0.0, 0.0, 0.0, 0.0, 0.0, 1.6635865893455827E9, 0.0, 2022-09-19 16:23:09.345
51.0, 9859.846217613962, 43243.09298313773, -19335.465948041197, -10972.001966476675, 12470.395859527096, -187500.02235174447, 27198.586129973668, -18402.437079243315, 0.664, -0.7020000000000001, 0.324, 192.0, 0.0, 0.0, 0.0, 0.0, 0.0, 0.0, 0.0, 0.0, 0.0, 1.6635865893495011E9, 0.0, 2022-09-19 16:23:09.349
52.0, 9861.94728159276, 43249.10560239621, -19329.92271541628, -10968.9397774863, 12468.138333337109, -187500.02235174447, 27199.5696067297, -18398.190247796803, 0.664, -0.7020000000000001, 0.324, 192.0, 0.0, 0.0, 0.0, 0.0, 0.0, 0.0, 0.0, 0.0, 0.0, 1.6635865893535757E9, 0.0, 2022-09-19 16:23:09.353
53.0, 9865.56826419452, 43257.19693388903, -19328.02281713758, -10972.22548392123, 12474.955615395978, -187500.02235174447, 27229.81151697773, -18398.7937448971, 0.664, -0.7020000000000001, 0.324, 192.0, 0.0, 0.0, 0.0, 0.0, 0.0, 0.0, 0.0, 0.0, 0.0, 1.6635865893565931E9, 0.0, 2022-09-19 16:23:09.356
54.0, 9865.121229305414, 43260.259122879404, -19335.354189318918, -10974.326547900027, 12475.626167729637, -187500.02235174447, 27256.34303764618, -18397.519695463146, 0.664, -0.7020000000000001, 0.324, 192.0, 0.0, 0.0, 0.0, 0.0, 0.0, 0.0, 0.0, 0.0, 0.0, 1.6635865893606052E9, 0.0, 2022-09-19 16:23:09.360
55.0, 9862.99781358216, 43255.67701526607, -19336.583535263962, -10971.845504265488, 12459.398801255084, -187500.02235174447, 27222.05546165174, -18391.440020971302, 0.666, -0.7020000000000001, 0.322, 192.0, 20.0, 208.0, 234.0, 16.0, 10.0, 16.0, 0.0, 0.0, 0.0, 1.6635865893645985E9, 0.0, 2022-09-19 16:23:09.364
56.0, 9852.38073496589, 43244.23292210495, -19339.645724254337, -10976.02528047863, 12439.014010311845, -187500.02235174447, 27175.47442620688, -18397.385584996413, 0.666, -0.7020000000000001, 0.322, 192.0, 0.0, 0.0, 0.0, 0.0, 0.0, 0.0, 0.0, 0.0, 0.0, 1.6635865893685634E9, 0.0, 2022-09-19 16:23:09.368
57.0, 9853.163046021826, 43242.60124475971, -19337.857584697915, -10981.188533447807, 12437.069408544232, -187500.02235174447, 27168.120702281085, -18401.25243678718, 0.666, -0.7020000000000001, 0.322, 192.0, 0.0, 0.0, 0.0, 0.0, 0.0, 0.0, 0.0, 0.0, 0.0, 1.663586589372588E9, 0.0, 2022-09-19 16:23:09.372
58.0, 9860.561473436532, 43247.00453841741, -19330.30269507202, -10983.736632315711, 12446.07716155972, -187500.02235174447, 27194.205188060427, -18404.515791477657, 0.666, -0.7020000000000001, 0.322, 192.0, 0.0, 0.0, 0.0, 0.0, 0.0, 0.0, 0.0, 0.0, 0.0, 1.6635865893775756E9, 0.0, 2022-09-19 16:23:09.377
59.0, 9858.348650735457, 43247.98801517344, -19328.648665982328, -10984.049556738086, 12450.033420328311, -187500.02235174447, 27222.30133084075, -18401.654768187378, 0.666, -0.7020000000000001, 0.322, 192.0, 0.0, 0.0, 0.0, 0.0, 0.0, 0.0, 0.0, 0.0, 0.0, 1.663586589380649E9, 0.0, 2022-09-19 16:23:09.380
60.0, 9848.022144797105, 43239.11437262468, -19336.516480030594, -10983.93779801581, 12436.085931788199, -187500.02235174447, 27189.62308044709, -18401.990044354206, 0.666, -0.7020000000000001, 0.322, 192.0, 0.0, 0.0, 0.0, 0.0, 0.0, 0.0, 0.0, 0.0, 0.0, 1.6635865893846028E9, 0.0, 2022-09-19 16:23:09.384
61.0, 9844.80349359554, 43233.92876791105, -19339.377503320873, -10982.395527648394, 12423.926582804512, -187500.02235174447, 27147.154765982006, -18404.11346007746, 0.666, -0.7020000000000001, 0.322, 192.0, 0.0, 0.0, 0.0, 0.0, 0.0, 0.0, 0.0, 0.0, 0.0, 1.6635865893886251E9, 0.0, 2022-09-19 16:23:09.388
62.0, 9850.324374476002, 43232.721773710466, -19335.912982930302, -10980.383870647416, 12419.255068213353, -187500.02235174447, 27136.09065247663, -18393.11640180545, 0.666, -0.7020000000000001, 0.322, 192.0, 0.0, 0.0, 0.0, 0.0, 0.0, 0.0, 0.0, 0.0, 0.0, 1.663586589392616E9, 0.0, 2022-09-19 16:23:09.392
63.0, 9855.420572211811, 43240.76840171438, -19331.73320671716, -10982.462582881759, 12429.26864972933, -187500.02235174447, 27163.00215280082, -18399.441945486302, 0.666, -0.7020000000000001, 0.322, 192.0, 0.0, 0.0, 0.0, 0.0, 0.0, 0.0, 0.0, 0.0, 0.0, 1.6635865893966486E9, 0.0, 2022-09-19 16:23:09.396
64.0, 9859.265072258124, 43250.267893107884, -19329.810956694004, -10984.69775732729, 12442.61264116915, -187500.02235174447, 27201.380098030582, -18399.330186764026, 0.666, -0.7020000000000001, 0.322, 192.0, 0.0, 0.0, 0.0, 0.0, 0.0, 0.0, 0.0, 0.0, 0.0, 1.6635865894006383E9, 0.0, 2022-09-19 16:23:09.400
65.0, 9856.962842579227, 43245.17169537207, -19334.616581751896, -10980.786202047611, 12430.497995674372, -187500.02235174447, 27173.351010483624, -18393.474029716734, 0.66, -0.704, 0.326, 192.0, 20.0, 160.0, 234.0, 0.0, 10.0, 48.0, 0.0, 0.0, 0.0, 1.6635865894056516E9, 0.0, 2022-09-19 16:23:09.405
66.0, 9849.385601208878, 43236.40981154559, -19339.0645788985, -10980.65209158088, 12415.902306545056, -187500.02235174447, 27126.7029198054, -18398.749041408188, 0.66, -0.704, 0.326, 192.0, 0.0, 0.0, 0.0, 0.0, 0.0, 0.0, 0.0, 0.0, 0.0, 1.6635865894087877E9, 0.0, 2022-09-19 16:23:09.408
67.0, 9857.76750537962, 43236.83449469024, -19334.951857918724, -10974.818286278045, 12416.192879222976, -187500.02235174447, 27121.450259858404, -18398.994910597197, 0.66, -0.704, 0.326, 192.0, 0.0, 0.0, 0.0, 0.0, 0.0, 0.0, 0.0, 0.0, 0.0, 1.663586589412673E9, 0.0, 2022-09-19 16:23:09.412
68.0, 9860.583825180987, 43240.36607031418, -19334.102491629423, -10975.734707800711, 12422.876050815112, -187500.02235174447, 27146.99830377082, -18401.20773329827, 0.66, -0.704, 0.326, 192.0, 0.0, 0.0, 0.0, 0.0, 0.0, 0.0, 0.0, 0.0, 0.0, 1.6635865894166467E9, 0.0, 2022-09-19 16:23:09.416
69.0, 9852.827769854995, 43250.22318961897, -19338.662247498305, -10975.466486867248, 12435.258917243353, -187500.02235174447, 27188.058458335217, -18402.012396098664, 0.66, -0.704, 0.326, 192.0, 0.0, 0.0, 0.0, 0.0, 0.0, 0.0, 0.0, 0.0, 0.0, 1.6635865894206295E9, 0.0, 2022-09-19 16:23:09.420
70.0, 9851.106685531937, 43242.33302382625, -19346.798282480035, -10976.293501412094, 12423.256030470853, -187500.02235174447, 27162.935097567453, -18403.912294377362, 0.66, -0.704, 0.326, 192.0, 0.0, 0.0, 0.0, 0.0, 0.0, 0.0, 0.0, 0.0, 0.0, 1.6635865894247594E9, 0.0, 2022-09-19 16:23:09.424
71.0, 9861.4778949592, 43233.191160344024, -19340.226869610175, -10972.381946132416, 12412.616600110126, -187500.02235174447, 27119.349195879604, -18402.660596687867, 0.66, -0.704, 0.326, 192.0, 0.0, 0.0, 0.0, 0.0, 0.0, 0.0, 0.0, 0.0, 0.0, 1.6635865894288654E9, 0.0, 2022-09-19 16:23:09.428
72.0, 9855.62173791191, 43233.79465744432, -19341.21034636621, -10968.805667019567, 12417.332818190196, -187500.02235174447, 27110.810829497677, -18400.26896003115, 0.66, -0.704, 0.326, 192.0, 0.0, 0.0, 0.0, 0.0, 0.0, 0.0, 0.0, 0.0, 0.0, 1.6635865894336965E9, 0.0, 2022-09-19 16:23:09.433
73.0, 9850.547891920554, 43239.31553832478, -19340.495090543638, -10966.07875419602, 12431.347361963673, -187500.02235174447, 27135.956542009895, -18395.396279739893, 0.66, -0.704, 0.326, 192.0, 0.0, 0.0, 0.0, 0.0, 0.0, 0.0, 0.0, 0.0, 0.0, 1.6635865894367104E9, 0.0, 2022-09-19 16:23:09.436
74.0, 9852.604252410443, 43248.099773895716, -19334.39306430734, -10963.21773090574, 12448.535853449805, -187500.02235174447, 27179.385981486557, -18393.608140183467, 0.66, -0.704, 0.326, 192.0, 0.0, 0.0, 0.0, 0.0, 0.0, 0.0, 0.0, 0.0, 0.0, 1.6635865894407363E9, 0.0, 2022-09-19 16:23:09.440
75.0, 9849.072676786504, 43245.39521281663, -19336.49412828614, -10958.188588403296, 12455.599004697682, -187500.02235174447, 27162.197490000428, -18390.434192470813, 0.66, -0.708, 0.33, 192.0, 20.0, 160.0, 233.0, 224.0, 10.0, 80.0, 0.0, 0.0, 0.0, 1.6635865894447813E9, 0.0, 2022-09-19 16:23:09.444
76.0, 9846.636336640875, 43237.84032319073, -19332.515517773096, -10953.494722067682, 12451.84391162919, -187500.02235174447, 27116.488172589325, -18388.154314536372, 0.66, -0.708, 0.33, 192.0, 0.0, 0.0, 0.0, 0.0, 0.0, 0.0, 0.0, 0.0, 0.0, 1.663586589448707E9, 0.0, 2022-09-19 16:23:09.448
77.0, 9850.57024366501, 43242.86946569318, -19329.855660182915, -10956.869835480433, 12455.50959771986, -187500.02235174447, 27109.045041685706, -18400.87245713144, 0.66, -0.708, 0.33, 192.0, 0.0, 0.0, 0.0, 0.0, 0.0, 0.0, 0.0, 0.0, 0.0, 1.6635865894528053E9, 0.0, 2022-09-19 16:23:09.452
78.0, 9851.71018263223, 43247.69744249552, -19330.883840427858, -10955.819303491033, 12465.187903069009, -187500.02235174447, 27133.207277441896, -18390.188323281804, 0.66, -0.708, 0.33, 192.0, 0.0, 0.0, 0.0, 0.0, 0.0, 0.0, 0.0, 0.0, 0.0, 1.6635865894568305E9, 0.0, 2022-09-19 16:23:09.456
79.0, 9850.27967098709, 43250.044375663325, -19331.710854972705, -10952.846521478477, 12469.680603704526, -187500.02235174447, 27171.317001738193, -18387.30494824707, 0.66, -0.708, 0.33, 192.0, 0.0, 0.0, 0.0, 0.0, 0.0, 0.0, 0.0, 0.0, 0.0, 1.6635865894617407E9, 0.0, 2022-09-19 16:23:09.461
80.0, 9852.201921010246, 43245.90930293909, -19337.835232953457, -10951.751286000168, 12456.403667498073, -187500.02235174447, 27155.983705041854, -18389.942454092798, 0.66, -0.708, 0.33, 192.0, 0.0, 0.0, 0.0, 0.0, 0.0, 0.0, 0.0, 0.0, 0.0, 1.6635865894647975E9, 0.0, 2022-09-19 16:23:09.464
81.0, 9848.75975236413, 43237.59445400172, -19340.58449752146, -10949.046724921076, 12440.444521956984, -187500.02235174447, 27109.514428319268, -18380.532369677112, 0.66, -0.708, 0.33, 192.0, 0.0, 0.0, 0.0, 0.0, 0.0, 0.0, 0.0, 0.0, 0.0, 1.6635865894697855E9, 0.0, 2022-09-19 16:23:09.469
82.0, 9843.484740672677, 43234.107581866694, -19337.58936376445, -10942.74353298468, 12440.265708001341, -187500.02235174447, 27094.02466941174, -18373.7374393627, 0.66, -0.708, 0.33, 192.0, 0.0, 0.0, 0.0, 0.0, 0.0, 0.0, 0.0, 0.0, 0.0, 1.6635865894728208E9, 0.0, 2022-09-19 16:23:09.472
83.0, 9846.748095363153, 43240.053145891805, -19334.974209663178, -10949.136131898897, 12449.921661606033, -187500.02235174447, 27115.482344088836, -18384.06394530105, 0.66, -0.708, 0.33, 192.0, 0.0, 0.0, 0.0, 0.0, 0.0, 0.0, 0.0, 0.0, 0.0, 1.6635865894767756E9, 0.0, 2022-09-19 16:23:09.476
84.0, 9852.693659388264, 43250.536114041344, -19335.890631185848, -10953.941756956787, 12464.56205422426, -187500.02235174447, 27159.7611498548, -18391.30591050457, 0.66, -0.708, 0.33, 192.0, 0.0, 0.0, 0.0, 0.0, 0.0, 0.0, 0.0, 0.0, 0.0, 1.6635865894807916E9, 0.0, 2022-09-19 16:23:09.480
85.0, 9847.70922037473, 43244.098811638214, -19341.88089869987, -10956.512207569147, 12451.262766273352, -187500.02235174447, 27148.89820204952, -18391.8423523715, 0.662, -0.712, 0.332, 192.0, 20.0, 176.0, 233.0, 192.0, 10.0, 96.0, 0.0, 0.0, 0.0, 1.6635865894847937E9, 0.0, 2022-09-19 16:23:09.484
86.0, 9839.819054582007, 43231.35831729869, -19346.30654410202, -10954.12057091243, 12425.759425849847, -187500.02235174447, 27098.45031481389, -18390.098916303985, 0.662, -0.712, 0.332, 192.0, 0.0, 0.0, 0.0, 0.0, 0.0, 0.0, 0.0, 0.0, 0.0, 1.663586589488824E9, 0.0, 2022-09-19 16:23:09.488
87.0, 9842.814188339018, 43232.27473882136, -19340.316276587997, -10950.74545749968, 12419.813861824736, -187500.02235174447, 27087.140332119507, -18391.440020971302, 0.662, -0.712, 0.332, 192.0, 0.0, 0.0, 0.0, 0.0, 0.0, 0.0, 0.0, 0.0, 0.0, 1.6635865894928153E9, 0.0, 2022-09-19 16:23:09.492
88.0, 9850.436133198278, 43242.3553755707, -19333.811918951502, -10952.846521478477, 12427.256992728353, -187500.02235174447, 27115.303530133195, -18395.6421489289, 0.662, -0.712, 0.332, 192.0, 0.0, 0.0, 0.0, 0.0, 0.0, 0.0, 0.0, 0.0, 0.0, 1.6635865894958127E9, 0.0, 2022-09-19 16:23:09.495
89.0, 9850.704354131742, 43249.26206460739, -19332.49316602864, -10955.506379068658, 12437.359981222151, -187500.02235174447, 27160.118777766085, -18402.794707154597, 0.662, -0.712, 0.332, 192.0, 0.0, 0.0, 0.0, 0.0, 0.0, 0.0, 0.0, 0.0, 0.0, 1.6635865895008075E9, 0.0, 2022-09-19 16:23:09.500
90.0, 9849.162083764326, 43246.065765150284, -19339.511613787607, -10955.506379068658, 12425.759425849847, -187500.02235174447, 27155.71548410839, -18398.190247796803, 0.662, -0.712, 0.332, 192.0, 0.0, 0.0, 0.0, 0.0, 0.0, 0.0, 0.0, 0.0, 0.0, 1.6635865895048125E9, 0.0, 2022-09-19 16:23:09.504
91.0, 9848.245662241658, 43235.67220397857, -19343.49022430065, -10956.534559313603, 12407.185126207487, -187500.02235174447, 27111.83900974262, -18403.018224599153, 0.662, -0.712, 0.332, 192.0, 0.0, 0.0, 0.0, 0.0, 0.0, 0.0, 0.0, 0.0, 0.0, 1.663586589508892E9, 0.0, 2022-09-19 16:23:09.508
92.0, 9850.838464598473, 43235.56044525629, -19338.572840520483, -10955.93106221331, 12410.135556475587, -187500.02235174447, 27102.6971462604, -18399.59840769749, 0.662, -0.712, 0.332, 192.0, 0.0, 0.0, 0.0, 0.0, 0.0, 0.0, 0.0, 0.0, 0.0, 1.663586589512814E9, 0.0, 2022-09-19 16:23:09.512
93.0, 9853.05128729955, 43240.07549763626, -19337.54466027554, -10961.384887860404, 12423.144271748575, -187500.02235174447, 27125.294759904715, -18401.677119931832, 0.662, -0.712, 0.332, 192.0, 0.0, 0.0, 0.0, 0.0, 0.0, 0.0, 0.0, 0.0, 0.0, 1.6635865895168717E9, 0.0, 2022-09-19 16:23:09.516
94.0, 9861.209674025737, 43248.70327099601, -19338.371674820384, -10965.072925695531, 12441.070370801732, -187500.02235174447, 27174.893280851044, -18401.744175165197, 0.662, -0.712, 0.332, 192.0, 0.0, 0.0, 0.0, 0.0, 0.0, 0.0, 0.0, 0.0, 0.0, 1.6635865895199625E9, 0.0, 2022-09-19 16:23:09.519
95.0, 9859.086258302481, 43250.044375663325, -19339.042227154045, -10966.816361763045, 12449.429923228017, -187500.02235174447, 27180.77178964279, -18399.59840769749, 0.664, -0.708, 0.332, 192.0, 20.0, 192.0, 233.0, 224.0, 10.0, 96.0, 0.0, 0.0, 0.0, 1.6635865895238504E9, 0.0, 2022-09-19 16:23:09.523
96.0, 9851.397258209856, 43242.22126510397, -19337.87993644237, -10975.287672911605, 12441.964440579944, -187500.02235174447, 27140.203373456407, -18406.616855456454, 0.664, -0.708, 0.332, 192.0, 0.0, 0.0, 0.0, 0.0, 0.0, 0.0, 0.0, 0.0, 0.0, 1.663586589528891E9, 0.0, 2022-09-19 16:23:09.528
97.0, 9853.923005333305, 43242.89181743763, -19330.25799158311, -10982.8425625375, 12432.55435616426, -187500.02235174447, 27129.675701817956, -18410.573114225044, 0.664, -0.708, 0.332, 192.0, 0.0, 0.0, 0.0, 0.0, 0.0, 0.0, 0.0, 0.0, 0.0, 1.6635865895328815E9, 0.0, 2022-09-19 16:23:09.532
98.0, 9855.241758256168, 43249.12795414066, -19331.844965439435, -10982.462582881759, 12435.303620732264, -187500.02235174447, 27153.077978262663, -18405.991006611708, 0.664, -0.708, 0.332, 192.0, 0.0, 0.0, 0.0, 0.0, 0.0, 0.0, 0.0, 0.0, 0.0, 1.663586589536876E9, 0.0, 2022-09-19 16:23:09.536
99.0, 9858.61687166892, 43257.956893200506, -19338.34932307593, -10986.530600372625, 12445.741885392892, -187500.02235174447, 27199.524903240792, -18403.68877693281, 0.664, -0.708, 0.332, 192.0, 0.0, 0.0, 0.0, 0.0, 0.0, 0.0, 0.0, 0.0, 0.0, 1.6635865895408628E9, 0.0, 2022-09-19 16:23:09.540
100.0, 9855.442923956267, 43257.956893200506, -19348.87699471438, -10990.822135308044, 12445.294850503786, -187500.02235174447, 27209.627891734588, -18404.6946054333, 0.664, -0.708, 0.332, 192.0, 0.0, 0.0, 0.0, 0.0, 0.0, 0.0, 0.0, 0.0, 0.0, 1.663586589543922E9, 0.0, 2022-09-19 16:23:09.543
101.0, 9844.289403473069, 43249.19500937402, -19356.186015151266, -10991.895019041898, 12428.463986928939, -187500.02235174447, 27168.85830984811, -18401.140678064905, 0.664, -0.708, 0.332, 192.0, 0.0, 0.0, 0.0, 0.0, 0.0, 0.0, 0.0, 0.0, 0.0, 1.663586589547861E9, 0.0, 2022-09-19 16:23:09.547
102.0, 9842.054229027537, 43250.044375663325, -19356.677753529282, -10995.806574321578, 12424.12774850461, -187500.02235174447, 27152.966219540387, -18403.331149021524, 0.664, -0.708, 0.332, 192.0, 0.0, 0.0, 0.0, 0.0, 0.0, 0.0, 0.0, 0.0, 0.0, 1.6635865895519257E9, 0.0, 2022-09-19 16:23:09.551
103.0, 9852.671307643808, 43257.01811993338, -19353.012067438613, -11001.238048224217, 12430.721513118926, -187500.02235174447, 27172.70280989442, -18406.77331766764, 0.664, -0.708, 0.332, 192.0, 0.0, 0.0, 0.0, 0.0, 0.0, 0.0, 0.0, 0.0, 0.0, 1.663586589555914E9, 0.0, 2022-09-19 16:23:09.555
104.0, 9859.667403658319, 43268.931599728065, -19350.039285426057, -11003.56262964757, 12445.138388292598, -187500.02235174447, 27222.971883174407, -18409.477878746733, 0.664, -0.708, 0.332, 192.0, 0.0, 0.0, 0.0, 0.0, 0.0, 0.0, 0.0, 0.0, 0.0, 1.6635865895608788E9, 0.0, 2022-09-19 16:23:09.560
105.0, 9860.04738331406, 43271.50205034042, -19353.92848896128, -11003.18264999183, 12443.618469669638, -187500.02235174447, 27236.740557758876, -18395.910369862362, 0.666, -0.708, 0.33, 192.0, 20.0, 208.0, 233.0, 224.0, 10.0, 80.0, 0.0, 0.0, 0.0, 1.663586589565019E9, 0.0, 2022-09-19 16:23:09.565
106.0, 9852.783066366084, 43260.527343812864, -19357.68358202977, -11004.389644192415, 12421.043207769777, -187500.02235174447, 27192.327641526183, -18390.92593084883, 0.666, -0.708, 0.33, 192.0, 0.0, 0.0, 0.0, 0.0, 0.0, 0.0, 0.0, 0.0, 0.0, 1.6635865895689423E9, 0.0, 2022-09-19 16:23:09.568
107.0, 9851.173740765304, 43255.453497821516, -19356.990677951657, -11008.122385516452, 12411.45430939845, -187500.02235174447, 27171.18289127146, -18399.8442768865, 0.666, -0.708, 0.33, 192.0, 0.0, 0.0, 0.0, 0.0, 0.0, 0.0, 0.0, 0.0, 0.0, 1.6635865895730047E9, 0.0, 2022-09-19 16:23:09.573
108.0, 9854.705316389241, 43265.914114226594, -19351.223927882187, -11003.517926158658, 12420.9314490475, -187500.02235174447, 27193.48993223786, -18394.815134384055, 0.666, -0.708, 0.33, 192.0, 0.0, 0.0, 0.0, 0.0, 0.0, 0.0, 0.0, 0.0, 0.0, 1.6635865895769596E9, 0.0, 2022-09-19 16:23:09.576
109.0, 9862.66253741533, 43278.69931205503, -19344.898384201337, -11001.103937757485, 12438.298754489275, -187500.02235174447, 27244.45190959596, -18389.853047114975, 0.666, -0.708, 0.33, 192.0, 0.0, 0.0, 0.0, 0.0, 0.0, 0.0, 0.0, 0.0, 0.0, 1.6635865895820093E9, 0.0, 2022-09-19 16:23:09.582
110.0, 9855.241758256168, 43277.96170448801, -19352.520329060597, -11010.491670428715, 12446.07716155972, -187500.02235174447, 27260.813386537244, -18396.223294284737, 0.666, -0.708, 0.33, 192.0, 0.0, 0.0, 0.0, 0.0, 0.0, 0.0, 0.0, 0.0, 0.0, 1.6635865895849705E9, 0.0, 2022-09-19 16:23:09.584
111.0, 9850.14556052036, 43271.4126433626, -19354.420227339295, -11007.585943649525, 12443.84198711419, -187500.02235174447, 27226.90579019854, -18389.651881414877, 0.666, -0.708, 0.33, 192.0, 0.0, 0.0, 0.0, 0.0, 0.0, 0.0, 0.0, 0.0, 0.0, 1.6635865895889964E9, 0.0, 2022-09-19 16:23:09.588
112.0, 9850.883168087385, 43268.864544494696, -19352.006238938124, -11004.546106403603, 12435.035399798799, -187500.02235174447, 27207.19155158896, -18386.29911974658, 0.666, -0.708, 0.33, 192.0, 0.0, 0.0, 0.0, 0.0, 0.0, 0.0, 0.0, 0.0, 0.0, 1.66358658959306E9, 0.0, 2022-09-19 16:23:09.593
113.0, 9856.672269901308, 43272.88785849665, -19345.97126793519, -11006.423652937849, 12432.911984075545, -187500.02235174447, 27223.709490741432, -18392.26703551615, 0.666, -0.708, 0.33, 192.0, 0.0, 0.0, 0.0, 0.0, 0.0, 0.0, 0.0, 0.0, 0.0, 1.6635865895970428E9, 0.0, 2022-09-19 16:23:09.597
114.0, 9861.969633337216, 43279.772195788886, -19338.10345388692, -11011.60925765148, 12441.696219646481, -187500.02235174447, 27269.86584304164, -18399.26313153066, 0.666, -0.708, 0.33, 192.0, 0.0, 0.0, 0.0, 0.0, 0.0, 0.0, 0.0, 0.0, 0.0, 1.6635865896000445E9, 0.0, 2022-09-19 16:23:09.600
115.0, 9857.812208868529, 43279.32516089978, -19341.45621555522, -11020.169975777862, 12442.165606280043, -187500.02235174447, 27289.24480548439, -18409.20965781327, 0.666, -0.708, 0.33, 192.0, 0.0, 0.0, 0.0, 0.0, 0.0, 0.0, 0.0, 0.0, 0.0, 1.6635865896040432E9, 0.0, 2022-09-19 16:23:09.604
116.0, 9844.267051728613, 43269.75861427291, -19351.380390093374, -11025.713208402778, 12420.909097303045, -187500.02235174447, 27248.229354408904, -18412.271846803647, 0.662, -0.706, 0.33, 192.0, 20.0, 176.0, 233.0, 240.0, 10.0, 80.0, 0.0, 0.0, 0.0, 1.663586589607997E9, 0.0, 2022-09-19 16:23:09.607
117.0, 9842.300098216547, 43266.58466656026, -19349.88282321487, -11019.119443788462, 12410.157908220042, -187500.02235174447, 27225.58703727568, -18407.242704301203, 0.662, -0.706, 0.33, 192.0, 0.0, 0.0, 0.0, 0.0, 0.0, 0.0, 0.0, 0.0, 0.0, 1.6635865896120708E9, 0.0, 2022-09-19 16:23:09.612
118.0, 9847.686868630275, 43271.457346851515, -19343.959610934213, -11015.833737353532, 12412.393082665574, -187500.02235174447, 27239.690988026978, -18399.754869908676, 0.662, -0.706, 0.33, 192.0, 0.0, 0.0, 0.0, 0.0, 0.0, 0.0, 0.0, 0.0, 0.0, 1.6635865896170137E9, 0.0, 2022-09-19 16:23:09.617
119.0, 9849.676173886797, 43282.05207372333, -19340.316276587997, -11018.091263543518, 12424.977114793912, -187500.02235174447, 27285.53441590481, -18406.3933380119, 0.662, -0.706, 0.33, 192.0, 0.0, 0.0, 0.0, 0.0, 0.0, 0.0, 0.0, 0.0, 0.0, 1.663586589621085E9, 0.0, 2022-09-19 16:23:09.621
120.0, 9845.585804651477, 43283.32612315728, -19346.485358057664, -11013.777376863645, 12425.60296363866, -187500.02235174447, 27304.980433580928, -18411.087204347517, 0.662, -0.706, 0.33, 192.0, 0.0, 0.0, 0.0, 0.0, 0.0, 0.0, 0.0, 0.0, 0.0, 1.663586589625094E9, 0.0, 2022-09-19 16:23:09.625
121.0, 9840.847234826952, 43274.519535841886, -19352.609736038416, -11008.32355121655, 12410.157908220042, -187500.02235174447, 27264.41201739455, -18402.68294843232, 0.662, -0.706, 0.33, 192.0, 0.0, 0.0, 0.0, 0.0, 0.0, 0.0, 0.0, 0.0, 0.0, 1.6635865896280637E9, 0.0, 2022-09-19 16:23:09.628
122.0, 9840.109627259926, 43266.629370049166, -19350.754541248625, -11011.855126840488, 12403.675902328003, -187500.02235174447, 27233.119575157118, -18400.44777398679, 0.662, -0.706, 0.33, 192.0, 0.0, 0.0, 0.0, 0.0, 0.0, 0.0, 0.0, 0.0, 0.0, 1.6635865896320508E9, 0.0, 2022-09-19 16:23:09.632
123.0, 9842.23304298318, 43272.776099774375, -19345.233660368165, -11012.436272196326, 12412.0801582432, -187500.02235174447, 27244.183688662495, -18405.566323467057, 0.662, -0.706, 0.33, 192.0, 0.0, 0.0, 0.0, 0.0, 0.0, 0.0, 0.0, 0.0, 0.0, 1.6635865896360688E9, 0.0, 2022-09-19 16:23:09.636
124.0, 9845.272880229102, 43286.79064354785, -19341.947953933235, -11015.364350719972, 12432.241431741886, -187500.02235174447, 27292.999898552884, -18405.58867521151, 0.662, -0.706, 0.33, 192.0, 0.0, 0.0, 0.0, 0.0, 0.0, 0.0, 0.0, 0.0, 0.0, 1.6635865896401834E9, 0.0, 2022-09-19 16:23:09.640
125.0, 9852.447790199256, 43295.351361674235, -19339.377503320873, -11010.089339028518, 12452.55916745176, -187500.02235174447, 27324.493506490413, -18397.050308829585, 0.662, -0.706, 0.33, 192.0, 0.0, 0.0, 0.0, 0.0, 0.0, 0.0, 0.0, 0.0, 0.0, 1.6635865896450634E9, 0.0, 2022-09-19 16:23:09.645
126.0, 9848.08920003047, 43293.16089071761, -19346.15008189083, -11005.373120948449, 12460.47168498894, -187500.02235174447, 27294.92214857604, -18390.50124770418, 0.664, -0.7020000000000001, 0.332, 192.0, 20.0, 192.0, 234.0, 16.0, 10.0, 96.0, 0.0, 0.0, 0.0, 1.6635865896491156E9, 0.0, 2022-09-19 16:23:09.649
127.0, 9840.333144704478, 43287.036512736864, -19348.049980169533, -11008.882344827933, 12455.219025041943, -187500.02235174447, 27267.183633707005, -18391.97646283823, 0.664, -0.7020000000000001, 0.332, 192.0, 0.0, 0.0, 0.0, 0.0, 0.0, 0.0, 0.0, 0.0, 0.0, 1.6635865896530592E9, 0.0, 2022-09-19 16:23:09.653
128.0, 9841.450731927245, 43287.28238192587, -19343.24435511164, -11008.122385516452, 12458.03534484331, -187500.02235174447, 27275.163206477548, -18388.35548023647, 0.664, -0.7020000000000001, 0.332, 192.0, 0.0, 0.0, 0.0, 0.0, 0.0, 0.0, 0.0, 0.0, 0.0, 1.6635865896561449E9, 0.0, 2022-09-19 16:23:09.656
129.0, 9846.703391874242, 43296.200727963536, -19345.010142923613, -11011.430443695837, 12469.211217070964, -187500.02235174447, 27315.709270919477, -18391.73059364922, 0.664, -0.7020000000000001, 0.332, 192.0, 0.0, 0.0, 0.0, 0.0, 0.0, 0.0, 0.0, 0.0, 0.0, 1.6635865896601305E9, 0.0, 2022-09-19 16:23:09.660
130.0, 9855.420572211811, 43305.3202397013, -19349.234622625663, -11013.84443209701, 12476.252016574386, -187500.02235174447, 27347.515803279377, -18395.083355317518, 0.664, -0.7020000000000001, 0.332, 192.0, 0.0, 0.0, 0.0, 0.0, 0.0, 0.0, 0.0, 0.0, 0.0, 1.6635865896641188E9, 0.0, 2022-09-19 16:23:09.664
131.0, 9846.032839540583, 43300.22404196549, -19352.833253482968, -11014.760853619679, 12462.8409699012, -187500.02235174447, 27317.765631409366, -18391.59648318249, 0.664, -0.7020000000000001, 0.332, 192.0, 0.0, 0.0, 0.0, 0.0, 0.0, 0.0, 0.0, 0.0, 0.0, 1.663586589668119E9, 0.0, 2022-09-19 16:23:09.668
132.0, 9839.28261271508, 43300.98400127697, -19355.627221539882, -11018.583001921535, 12452.067429073744, -187500.02235174447, 27290.988241551906, -18399.151372808385, 0.664, -0.7020000000000001, 0.332, 192.0, 0.0, 0.0, 0.0, 0.0, 0.0, 0.0, 0.0, 0.0, 0.0, 1.6635865896721456E9, 0.0, 2022-09-19 16:23:09.672
133.0, 9856.113476289926, 43310.19291999256, -19352.006238938124, -11017.353655976494, 12454.503769219371, -187500.02235174447, 27304.198122524995, -18398.592579197, 0.664, -0.7020000000000001, 0.332, 192.0, 0.0, 0.0, 0.0, 0.0, 0.0, 0.0, 0.0, 0.0, 0.0, 1.6635865896771905E9, 0.0, 2022-09-19 16:23:09.677
134.0, 9864.897711860862, 43322.21815850952, -19342.39498882234, -11010.625780895447, 12463.869150146145, -187500.02235174447, 27348.722797479964, -18387.93079709182, 0.664, -0.7020000000000001, 0.332, 192.0, 0.0, 0.0, 0.0, 0.0, 0.0, 0.0, 0.0, 0.0, 0.0, 1.663586589680181E9, 0.0, 2022-09-19 16:23:09.680
135.0, 9858.885092602384, 43326.44263821157, -19348.139387147356, -11015.252591997694, 12464.874978646634, -187500.02235174447, 27381.713972296, -18386.5896924245, 0.664, -0.7020000000000001, 0.332, 192.0, 0.0, 0.0, 0.0, 0.0, 0.0, 0.0, 0.0, 0.0, 0.0, 1.6635865896842191E9, 0.0, 2022-09-19 16:23:09.684
136.0, 9854.347688477956, 43318.99950730795, -19359.002334952635, -11019.23120251074, 12442.165606280043, -187500.02235174447, 27350.5556405253, -18389.5401226926, 0.666, -0.7020000000000001, 0.322, 192.0, 20.0, 208.0, 234.0, 16.0, 10.0, 16.0, 0.0, 0.0, 0.0, 1.6635865896881711E9, 0.0, 2022-09-19 16:23:09.688
137.0, 9851.66547914332, 43315.31146947283, -19359.31525937501, -11020.03586531113, 12425.848832827669, -187500.02235174447, 27320.49254423291, -18391.998814582686, 0.666, -0.7020000000000001, 0.322, 192.0, 0.0, 0.0, 0.0, 0.0, 0.0, 0.0, 0.0, 0.0, 0.0, 1.6635865896922836E9, 0.0, 2022-09-19 16:23:09.692
138.0, 9849.922043075805, 43319.24537649696, -19358.778817508082, -11022.248688012205, 12428.12871076211, -187500.02235174447, 27323.73354717893, -18395.418631484346, 0.666, -0.7020000000000001, 0.322, 192.0, 0.0, 0.0, 0.0, 0.0, 0.0, 0.0, 0.0, 0.0, 0.0, 1.663586589696165E9, 0.0, 2022-09-19 16:23:09.696
139.0, 9857.320470490513, 43333.34932724826, -19354.97902095068, -11019.722940888756, 12448.267632516341, -187500.02235174447, 27369.196995401027, -18394.70337566178, 0.666, -0.7020000000000001, 0.322, 192.0, 0.0, 0.0, 0.0, 0.0, 0.0, 0.0, 0.0, 0.0, 0.0, 1.6635865897011666E9, 0.0, 2022-09-19 16:23:09.701
140.0, 9862.61783392642, 43343.13939131968, -19355.02372443959, -11015.520812931158, 12467.55718798127, -187500.02235174447, 27410.10068775424, -18386.03089881312, 0.666, -0.7020000000000001, 0.322, 192.0, 0.0, 0.0, 0.0, 0.0, 0.0, 0.0, 0.0, 0.0, 0.0, 1.6635865897051823E9, 0.0, 2022-09-19 16:23:09.705
141.0, 9859.175665280303, 43340.01014709594, -19356.297773873543, -11011.765719862668, 12466.461952502961, -187500.02235174447, 27387.726591554474, -18383.885131345407, 0.666, -0.7020000000000001, 0.322, 192.0, 0.0, 0.0, 0.0, 0.0, 0.0, 0.0, 0.0, 0.0, 0.0, 1.6635865897083287E9, 0.0, 2022-09-19 16:23:09.708
142.0, 9850.547891920554, 43331.96351909203, -19354.2190616392, -11011.966885562764, 12452.045077329289, -187500.02235174447, 27356.612963272688, -18390.36713723745, 0.666, -0.7020000000000001, 0.322, 192.0, 0.0, 0.0, 0.0, 0.0, 0.0, 0.0, 0.0, 0.0, 0.0, 1.6635865897121782E9, 0.0, 2022-09-19 16:23:09.712
143.0, 9847.642165141364, 43333.01405108143, -19354.17435815029, -11017.75598737669, 12447.328859249219, -187500.02235174447, 27362.737341253443, -18398.614930941454, 0.666, -0.7020000000000001, 0.322, 192.0, 0.0, 0.0, 0.0, 0.0, 0.0, 0.0, 0.0, 0.0, 0.0, 1.663586589716246E9, 0.0, 2022-09-19 16:23:09.716
144.0, 9852.783066366084, 43341.91004537464, -19349.860471470412, -11020.840528111521, 12458.504731476873, -187500.02235174447, 27406.502056896934, -18405.476916489235, 0.666, -0.7020000000000001, 0.322, 192.0, 0.0, 0.0, 0.0, 0.0, 0.0, 0.0, 0.0, 0.0, 0.0, 1.6635865897202349E9, 0.0, 2022-09-19 16:23:09.720
145.0, 9860.449714714256, 43350.090783845284, -19347.670000513794, -11016.101958286996, 12465.925510636034, -187500.02235174447, 27447.96454286153, -18399.30783501957, 0.666, -0.7020000000000001, 0.322, 192.0, 0.0, 0.0, 0.0, 0.0, 0.0, 0.0, 0.0, 0.0, 0.0, 1.6635865897243302E9, 0.0, 2022-09-19 16:23:09.724
146.0, 9853.386563466378, 43343.161743064134, -19358.26472738561, -11014.000894308198, 12452.55916745176, -187500.02235174447, 27422.260036737924, -18395.35157625098, 0.67, -0.708, 0.324, 192.0, 20.0, 240.0, 233.0, 224.0, 10.0, 32.0, 0.0, 0.0, 0.0, 1.66358658972831E9, 0.0, 2022-09-19 16:23:09.728
