%OpenBCI Raw EEG Data
%Number of channels = 8
%Sample Rate = 250 Hz
%Board = OpenBCI_GUI$BoardCytonSerial
Sample Index, EXG Channel 0, EXG Channel 1, EXG Channel 2, EXG Channel 3, EXG Channel 4, EXG Channel 5, EXG Channel 6, EXG Channel 7, Accel Channel 0, Accel Channel 1, Accel Channel 2, Other, Other, Other, Other, Other, Other, Other, Analog Channel 0, Analog Channel 1, Analog Channel 2, Timestamp, Other, Timestamp (Formatted)
2.0, -12824.91687833272, -11335.933069697985, -20759.607346011086, -17070.51897889602, 187500.0, 187500.0, 2148.4943805330254, -26679.019830110054, 0.0, 0.0, 0.0, 192.0, 0.0, 0.0, 0.0, 0.0, 0.0, 0.0, 0.0, 0.0, 0.0, 1.6635879171177363E9, 0.0, 2022-09-19 16:45:17.117
3.0, -12824.626305654801, -11337.967078443418, -20764.18945362442, -17074.162313242236, 187500.0, 187500.0, 2183.1395844387516, -26681.47852200014, 0.758, -0.5680000000000001, 0.42, 192.0, 23.0, 176.0, 238.0, 64.0, 13.0, 32.0, 0.0, 0.0, 0.0, 1.663587917117761E9, 0.0, 2022-09-19 16:45:17.117
4.0, -12819.373645707805, -11317.805804944732, -20771.699639761406, -17071.36834518532, 187500.0, 187500.0, 2212.1745004861955, -26686.23944356912, 0.758, -0.5680000000000001, 0.42, 192.0, 0.0, 0.0, 0.0, 0.0, 0.0, 0.0, 0.0, 0.0, 0.0, 1.6635879171177776E9, 0.0, 2022-09-19 16:45:17.117
5.0, -12822.234668998084, -11286.826287129676, -20772.414895583977, -17067.210920716636, 187500.0, 187500.0, 2195.924782267187, -26685.32302204645, 0.758, -0.5680000000000001, 0.42, 192.0, 0.0, 0.0, 0.0, 0.0, 0.0, 0.0, 0.0, 0.0, 0.0, 1.6635879171177924E9, 0.0, 2022-09-19 16:45:17.117
0.0, 0.0, 0.0, 0.0, 0.0, 0.0, 0.0, 0.0, 0.0, 0.754, -0.588, 0.406, 192.0, 23.0, 144.0, 237.0, 160.0, 12.0, 176.0, 0.0, 0.0, 0.0, 1.6635879172141964E9, 0.0, 2022-09-19 16:45:17.214
1.0, -12180.605492664039, -10861.42788665627, -21182.65881331668, -17066.629775360798, 187500.0, 187500.0, 2572.194048427826, -26286.031459096845, 0.754, -0.588, 0.406, 192.0, 0.0, 0.0, 0.0, 0.0, 0.0, 0.0, 0.0, 0.0, 0.0, 1.6635879172313364E9, 0.0, 2022-09-19 16:45:17.231
2.0, -12176.582178662084, -10858.991546510642, -21185.56454009587, -17068.350859683855, 187500.0, 187500.0, 2532.1844258528267, -26291.507636488397, 0.754, -0.588, 0.406, 192.0, 0.0, 0.0, 0.0, 0.0, 0.0, 0.0, 0.0, 0.0, 0.0, 1.6635879172343411E9, 0.0, 2022-09-19 16:45:17.234
3.0, -12191.60255093605, -10890.283988748073, -21195.42165940066, -17075.14578999827, 187500.0, 187500.0, 2495.415806223846, -26292.11113358869, 0.754, -0.588, 0.406, 192.0, 0.0, 0.0, 0.0, 0.0, 0.0, 0.0, 0.0, 0.0, 0.0, 1.6635879172373395E9, 0.0, 2022-09-19 16:45:17.237
4.0, -12221.956219906357, -10935.568623014526, -21201.099002492312, -17079.213807489134, 187500.0, 187500.0, 2407.5510987700345, -26292.3570027777, 0.754, -0.588, 0.406, 192.0, 0.0, 0.0, 0.0, 0.0, 0.0, 0.0, 0.0, 0.0, 0.0, 1.6635879172412915E9, 0.0, 2022-09-19 16:45:17.241
5.0, -12230.89691768848, -10936.216823603729, -21195.846342545312, -17077.649185377264, 187500.0, 187500.0, 2316.0654087144626, -26291.52998823285, 0.754, -0.588, 0.406, 192.0, 0.0, 0.0, 0.0, 0.0, 0.0, 0.0, 0.0, 0.0, 0.0, 1.6635879172443187E9, 0.0, 2022-09-19 16:45:17.244
6.0, -12221.956219906357, -10904.63380868838, -21198.90853153569, -17079.727897611607, 187500.0, 187500.0, 2255.8051056629547, -26293.16166557809, 0.754, -0.588, 0.406, 192.0, 0.0, 0.0, 0.0, 0.0, 0.0, 0.0, 0.0, 0.0, 0.0, 1.663587917249307E9, 0.0, 2022-09-19 16:45:17.249
7.0, -12210.020388367224, -10889.255808503129, -21201.903665292702, -17087.595711659877, 187500.0, 187500.0, 2222.858634335832, -26300.53774124834, 0.754, -0.588, 0.406, 192.0, 0.0, 0.0, 0.0, 0.0, 0.0, 0.0, 0.0, 0.0, 0.0, 1.6635879172533317E9, 0.0, 2022-09-19 16:45:17.253
8.0, -12193.189524792377, -10883.801982856034, -21204.92115079417, -17085.3828889588, 187500.0, 187500.0, 2200.663352091712, -26296.961462135492, 0.746, -0.596, 0.396, 192.0, 23.0, 80.0, 237.0, 96.0, 12.0, 96.0, 0.0, 0.0, 0.0, 1.66358791725733E9, 0.0, 2022-09-19 16:45:17.257
9.0, -12200.69971092936, -10900.655198175335, -21205.032909516445, -17082.611272646343, 187500.0, 187500.0, 2126.9696506225646, -26292.513464988886, 0.746, -0.596, 0.396, 192.0, 0.0, 0.0, 0.0, 0.0, 0.0, 0.0, 0.0, 0.0, 0.0, 1.6635879172613423E9, 0.0, 2022-09-19 16:45:17.261
10.0, -12205.348873776064, -10896.006035328632, -21194.795810555916, -17079.81730458943, 187500.0, 187500.0, 2041.675393781113, -26292.871092900168, 0.746, -0.596, 0.396, 192.0, 0.0, 0.0, 0.0, 0.0, 0.0, 0.0, 0.0, 0.0, 0.0, 1.663587917264364E9, 0.0, 2022-09-19 16:45:17.264
11.0, -12198.263370783732, -10881.253883988129, -21192.001842499, -17076.129266754302, 187500.0, 187500.0, 1994.6249717026917, -26289.317165531775, 0.746, -0.596, 0.396, 192.0, 0.0, 0.0, 0.0, 0.0, 0.0, 0.0, 0.0, 0.0, 0.0, 1.6635879172703474E9, 0.0, 2022-09-19 16:45:17.270
12.0, -12187.132202044988, -10877.543494408548, -21198.640310602226, -17079.14675225577, 187500.0, 187500.0, 1981.325683751784, -26290.92649113256, 0.746, -0.596, 0.396, 192.0, 0.0, 0.0, 0.0, 0.0, 0.0, 0.0, 0.0, 0.0, 0.0, 1.6635879172734559E9, 0.0, 2022-09-19 16:45:17.273
13.0, -12182.728908387293, -10879.644558387346, -21206.172848483664, -17087.327490726413, 187500.0, 187500.0, 1970.5968464132366, -26298.079049358257, 0.746, -0.596, 0.396, 192.0, 0.0, 0.0, 0.0, 0.0, 0.0, 0.0, 0.0, 0.0, 0.0, 1.6635879172775333E9, 0.0, 2022-09-19 16:45:17.277
14.0, -12194.1282980595, -10895.380186483882, -21203.557694382394, -17080.689022623184, 187500.0, 187500.0, 1904.010999680877, -26294.301604545308, 0.746, -0.596, 0.396, 192.0, 0.0, 0.0, 0.0, 0.0, 0.0, 0.0, 0.0, 0.0, 0.0, 1.6635879172814505E9, 0.0, 2022-09-19 16:45:17.281
15.0, -12196.65404518295, -10888.764070125113, -21191.688918076627, -17066.09333349387, 187500.0, 187500.0, 1826.36103944314, -26286.43379049704, 0.746, -0.596, 0.396, 192.0, 0.0, 0.0, 0.0, 0.0, 0.0, 0.0, 0.0, 0.0, 0.0, 1.6635879172844117E9, 0.0, 2022-09-19 16:45:17.284
16.0, -12191.446088724862, -10895.000206828143, -21191.375993654252, -17064.260490448534, 187500.0, 187500.0, 1783.6468557890482, -26287.26080504189, 0.746, -0.596, 0.396, 192.0, 0.0, 0.0, 0.0, 0.0, 0.0, 0.0, 0.0, 0.0, 0.0, 1.6635879172884855E9, 0.0, 2022-09-19 16:45:17.288
17.0, -12178.929111829892, -10893.815564372011, -21196.09221173432, -17072.083601007893, 187500.0, 187500.0, 1770.3475678381405, -26291.842912655226, 0.746, -0.596, 0.396, 192.0, 0.0, 0.0, 0.0, 0.0, 0.0, 0.0, 0.0, 0.0, 0.0, 1.6635879172924445E9, 0.0, 2022-09-19 16:45:17.292
18.0, -12164.98162328978, -10869.787439082556, -21200.96489202558, -17079.43732493369, 187500.0, 187500.0, 1763.6196927570932, -26299.48720925894, 0.74, -0.604, 0.392, 192.0, 23.0, 32.0, 237.0, 32.0, 12.0, 64.0, 0.0, 0.0, 0.0, 1.6635879172963889E9, 0.0, 2022-09-19 16:45:17.296
19.0, -12173.944672816358, -10867.216988470196, -21190.034888986935, -17072.95531904165, 187500.0, 187500.0, 1703.404093194496, -26301.990604637936, 0.74, -0.604, 0.392, 192.0, 0.0, 0.0, 0.0, 0.0, 0.0, 0.0, 0.0, 0.0, 0.0, 1.66358791730049E9, 0.0, 2022-09-19 16:45:17.300
20.0, -12166.903873312936, -10859.885616288855, -21167.593737553805, -17050.201243186148, 187500.0, 187500.0, 1639.8133802191473, -26278.63303168214, 0.74, -0.604, 0.392, 192.0, 0.0, 0.0, 0.0, 0.0, 0.0, 0.0, 0.0, 0.0, 0.0, 1.6635879173054326E9, 0.0, 2022-09-19 16:45:17.305
21.0, -12159.728963342783, -10846.966307993687, -21164.03981018541, -17047.384923384776, 187500.0, 187500.0, 1606.9563158698459, -26274.87793861365, 0.74, -0.604, 0.392, 192.0, 0.0, 0.0, 0.0, 0.0, 0.0, 0.0, 0.0, 0.0, 0.0, 1.6635879173093848E9, 0.0, 2022-09-19 16:45:17.309
22.0, -12162.053544766135, -10877.744660108645, -21175.90858649118, -17062.293536936468, 187500.0, 187500.0, 1600.6084204445388, -26281.53875846133, 0.74, -0.604, 0.392, 192.0, 0.0, 0.0, 0.0, 0.0, 0.0, 0.0, 0.0, 0.0, 0.0, 1.663587917312451E9, 0.0, 2022-09-19 16:45:17.312
23.0, -12167.864998324514, -10891.781555626578, -21190.392516898217, -17073.827037075407, 187500.0, 187500.0, 1602.441263489874, -26289.25011029841, 0.74, -0.604, 0.392, 192.0, 0.0, 0.0, 0.0, 0.0, 0.0, 0.0, 0.0, 0.0, 0.0, 1.6635879173164032E9, 0.0, 2022-09-19 16:45:17.316
24.0, -12176.850399595547, -10864.423020413282, -21188.157342452687, -17070.116647495826, 187500.0, 187500.0, 1556.6201873564944, -26287.57372946426, 0.74, -0.604, 0.392, 192.0, 0.0, 0.0, 0.0, 0.0, 0.0, 0.0, 0.0, 0.0, 0.0, 1.663587917320422E9, 0.0, 2022-09-19 16:45:17.320
25.0, -12190.127335802, -10878.839895586956, -21181.38476388273, -17063.36642067032, 187500.0, 187500.0, 1497.5892302500285, -26284.48918872943, 0.74, -0.604, 0.392, 192.0, 0.0, 0.0, 0.0, 0.0, 0.0, 0.0, 0.0, 0.0, 0.0, 1.663587917324453E9, 0.0, 2022-09-19 16:45:17.324
26.0, -12181.052527553145, -10874.369546695894, -21176.57913882484, -17053.129321709792, 187500.0, 187500.0, 1475.7739276616487, -26273.82740662425, 0.74, -0.604, 0.392, 192.0, 0.0, 0.0, 0.0, 0.0, 0.0, 0.0, 0.0, 0.0, 0.0, 1.6635879173284962E9, 0.0, 2022-09-19 16:45:17.328
27.0, -12173.005899549235, -10879.085764775964, -21178.926071992646, -17057.443208389665, 187500.0, 187500.0, 1483.6193899654616, -26268.641801910617, 0.74, -0.604, 0.392, 192.0, 0.0, 0.0, 0.0, 0.0, 0.0, 0.0, 0.0, 0.0, 0.0, 1.6635879173334446E9, 0.0, 2022-09-19 16:45:17.333
28.0, -12180.2255130083, -10897.950637096243, -21187.978528497046, -17066.272147449512, 187500.0, 187500.0, 1498.9973901507128, -26276.48726421443, 0.73, -0.6, 0.392, 192.0, 22.0, 208.0, 237.0, 64.0, 12.0, 64.0, 0.0, 0.0, 0.0, 1.6635879173374631E9, 0.0, 2022-09-19 16:45:17.337
29.0, -12197.525763216707, -10931.321791568016, -21193.275891932954, -17068.172045728214, 187500.0, 187500.0, 1464.3968897338975, -26280.220005538467, 0.73, -0.6, 0.392, 192.0, 0.0, 0.0, 0.0, 0.0, 0.0, 0.0, 0.0, 0.0, 0.0, 1.6635879173406117E9, 0.0, 2022-09-19 16:45:17.340
30.0, -12202.979588863802, -10938.340239326983, -21194.594644855817, -17065.400429415757, 187500.0, 187500.0, 1423.8061218030598, -26279.415342738073, 0.73, -0.6, 0.392, 192.0, 0.0, 0.0, 0.0, 0.0, 0.0, 0.0, 0.0, 0.0, 0.0, 1.6635879173444753E9, 0.0, 2022-09-19 16:45:17.344
31.0, -12199.403309750953, -10895.335482994973, -21194.460534389083, -17068.23910096158, 187500.0, 187500.0, 1415.9159560103365, -26283.43865674003, 0.73, -0.6, 0.392, 192.0, 0.0, 0.0, 0.0, 0.0, 0.0, 0.0, 0.0, 0.0, 0.0, 1.663587917348474E9, 0.0, 2022-09-19 16:45:17.348
32.0, -12211.070920356622, -10901.169288297808, -21201.38957517023, -17077.33626095489, 187500.0, 187500.0, 1433.5961858744845, -26289.49597948742, 0.73, -0.6, 0.392, 192.0, 0.0, 0.0, 0.0, 0.0, 0.0, 0.0, 0.0, 0.0, 0.0, 1.663587917352526E9, 0.0, 2022-09-19 16:45:17.352
33.0, -12211.89793490147, -10921.68818970778, -21202.641272859728, -17085.293481980978, 187500.0, 187500.0, 1459.7924303761042, -26296.24620631292, 0.73, -0.6, 0.392, 192.0, 0.0, 0.0, 0.0, 0.0, 0.0, 0.0, 0.0, 0.0, 0.0, 1.6635879173565185E9, 0.0, 2022-09-19 16:45:17.356
34.0, -12208.902801144457, -10910.691131435768, -21200.495505392017, -17080.309042967445, 187500.0, 187500.0, 1434.803180075071, -26293.943976634026, 0.73, -0.6, 0.392, 192.0, 0.0, 0.0, 0.0, 0.0, 0.0, 0.0, 0.0, 0.0, 0.0, 1.6635879173614542E9, 0.0, 2022-09-19 16:45:17.361
35.0, -12187.333367745086, -10893.592046927459, -21193.074726232855, -17074.564644642433, 187500.0, 187500.0, 1401.2979151365657, -26289.25011029841, 0.73, -0.6, 0.392, 192.0, 0.0, 0.0, 0.0, 0.0, 0.0, 0.0, 0.0, 0.0, 0.0, 1.663587917364524E9, 0.0, 2022-09-19 16:45:17.364
36.0, -12170.614262892517, -10890.351043981438, -21193.410002399683, -17072.485932408086, 187500.0, 187500.0, 1404.829490760504, -26288.423095753566, 0.73, -0.6, 0.392, 192.0, 0.0, 0.0, 0.0, 0.0, 0.0, 0.0, 0.0, 0.0, 0.0, 1.6635879173685544E9, 0.0, 2022-09-19 16:45:17.368
37.0, -12175.017556550212, -10910.311151780028, -21208.72094735157, -17087.37219421532, 187500.0, 187500.0, 1435.6301946199173, -26298.52608424736, 0.73, -0.6, 0.392, 192.0, 0.0, 0.0, 0.0, 0.0, 0.0, 0.0, 0.0, 0.0, 0.0, 1.6635879173724768E9, 0.0, 2022-09-19 16:45:17.372
38.0, -12186.305187500142, -10931.344143312472, -21219.91917132368, -17098.86099086535, 187500.0, 187500.0, 1473.6058084494841, -26300.671851715073, 0.734, -0.608, 0.386, 192.0, 22.0, 240.0, 237.0, 0.0, 12.0, 16.0, 0.0, 0.0, 0.0, 1.6635879173775747E9, 0.0, 2022-09-19 16:45:17.377
39.0, -12184.829972366093, -10891.356872481927, -21212.52074390897, -17090.166162272235, 187500.0, 187500.0, 1463.2122472777662, -26297.87788365816, 0.734, -0.608, 0.386, 192.0, 0.0, 0.0, 0.0, 0.0, 0.0, 0.0, 0.0, 0.0, 0.0, 1.6635879173805623E9, 0.0, 2022-09-19 16:45:17.380
40.0, -12177.632710651484, -10865.898235547333, -21206.217551972575, -17084.824095347416, 187500.0, 187500.0, 1440.1005435109787, -26296.737944690936, 0.734, -0.608, 0.386, 192.0, 0.0, 0.0, 0.0, 0.0, 0.0, 0.0, 0.0, 0.0, 0.0, 1.663587917384483E9, 0.0, 2022-09-19 16:45:17.384
41.0, -12178.571483918606, -10854.00710749711, -21208.698595607115, -17088.154505271257, 187500.0, 187500.0, 1452.57281691704, -26305.030441883857, 0.734, -0.608, 0.386, 192.0, 0.0, 0.0, 0.0, 0.0, 0.0, 0.0, 0.0, 0.0, 0.0, 1.6635879173885112E9, 0.0, 2022-09-19 16:45:17.388
42.0, -12165.629823878984, -10869.474514660182, -21214.39829044322, -17093.697737896175, 187500.0, 187500.0, 1494.5270412596515, -26309.366680308187, 0.734, -0.608, 0.386, 192.0, 0.0, 0.0, 0.0, 0.0, 0.0, 0.0, 0.0, 0.0, 0.0, 1.6635879173926692E9, 0.0, 2022-09-19 16:45:17.392
43.0, -12166.188617490367, -10899.448203974749, -21222.377863213762, -17105.47710722412, 187500.0, 187500.0, 1541.0633732156007, -26314.440526299542, 0.734, -0.608, 0.386, 192.0, 0.0, 0.0, 0.0, 0.0, 0.0, 0.0, 0.0, 0.0, 0.0, 1.6635879173965209E9, 0.0, 2022-09-19 16:45:17.396
44.0, -12176.582178662084, -10927.097311865964, -21223.473098692073, -17109.545124714987, 187500.0, 187500.0, 1535.989527224246, -26316.608645511707, 0.734, -0.608, 0.386, 192.0, 0.0, 0.0, 0.0, 0.0, 0.0, 0.0, 0.0, 0.0, 0.0, 1.6635879174005632E9, 0.0, 2022-09-19 16:45:17.400
45.0, -12173.74350711626, -10925.01859963162, -21224.009540559, -17103.845429878882, 187500.0, 187500.0, 1519.829215983059, -26311.467744286987, 0.734, -0.608, 0.386, 192.0, 0.0, 0.0, 0.0, 0.0, 0.0, 0.0, 0.0, 0.0, 0.0, 1.6635879174056237E9, 0.0, 2022-09-19 16:45:17.405
46.0, -12164.892216311959, -10891.580389926481, -21228.412834216695, -17099.129211798812, 187500.0, 187500.0, 1538.3811638809639, -26309.947825664025, 0.734, -0.608, 0.386, 192.0, 0.0, 0.0, 0.0, 0.0, 0.0, 0.0, 0.0, 0.0, 0.0, 1.6635879174086387E9, 0.0, 2022-09-19 16:45:17.408
47.0, -12166.345079701554, -10903.449166232249, -21233.68784590815, -17099.419784476733, 187500.0, 187500.0, 1585.3868824704746, -26313.054718143314, 0.734, -0.608, 0.386, 192.0, 0.0, 0.0, 0.0, 0.0, 0.0, 0.0, 0.0, 0.0, 0.0, 1.6635879174125776E9, 0.0, 2022-09-19 16:45:17.412
48.0, -12164.579291889584, -10905.371416255406, -21229.932752839657, -17092.244874506578, 187500.0, 187500.0, 1638.405220318463, -26309.38903205264, 0.726, -0.602, 0.384, 192.0, 22.0, 176.0, 237.0, 48.0, 12.0, 0.0, 0.0, 0.0, 0.0, 1.6635879174165816E9, 0.0, 2022-09-19 16:45:17.416
49.0, -12167.864998324514, -10900.319922008506, -21217.035796288943, -17081.24781623457, 187500.0, 187500.0, 1639.2992900966753, -26300.090706359235, 0.726, -0.602, 0.384, 192.0, 0.0, 0.0, 0.0, 0.0, 0.0, 0.0, 0.0, 0.0, 0.0, 1.6635879174205956E9, 0.0, 2022-09-19 16:45:17.420
50.0, -12181.007824064234, -10918.938925139777, -21223.20487775861, -17087.01456630404, 187500.0, 187500.0, 1621.9319846549017, -26305.186904095044, 0.726, -0.602, 0.384, 192.0, 0.0, 0.0, 0.0, 0.0, 0.0, 0.0, 0.0, 0.0, 0.0, 1.6635879174245508E9, 0.0, 2022-09-19 16:45:17.424
51.0, -12185.299358999653, -10934.518091025126, -21226.982322571555, -17090.747307628073, 187500.0, 187500.0, 1637.9134819404462, -26306.30449131781, 0.726, -0.602, 0.384, 192.0, 0.0, 0.0, 0.0, 0.0, 0.0, 0.0, 0.0, 0.0, 0.0, 1.663587917428613E9, 0.0, 2022-09-19 16:45:17.428
52.0, -12185.522876444207, -10942.654126006857, -21227.652874905216, -17089.04857504947, 187500.0, 187500.0, 1683.2875231847195, -26307.176209351568, 0.726, -0.602, 0.384, 192.0, 0.0, 0.0, 0.0, 0.0, 0.0, 0.0, 0.0, 0.0, 0.0, 1.6635879174336412E9, 0.0, 2022-09-19 16:45:17.433
53.0, -12183.868847354513, -10925.175061842807, -21229.10573829481, -17086.76869711503, 187500.0, 187500.0, 1738.2504628003196, -26312.942959421034, 0.726, -0.602, 0.384, 192.0, 0.0, 0.0, 0.0, 0.0, 0.0, 0.0, 0.0, 0.0, 0.0, 1.6635879174365659E9, 0.0, 2022-09-19 16:45:17.436
54.0, -12191.982530591791, -10933.825186947011, -21225.037720803943, -17084.220598247124, 187500.0, 187500.0, 1740.7315064348588, -26308.003223896412, 0.726, -0.602, 0.384, 192.0, 0.0, 0.0, 0.0, 0.0, 0.0, 0.0, 0.0, 0.0, 0.0, 1.6635879174395804E9, 0.0, 2022-09-19 16:45:17.439
55.0, -12190.350853246553, -10920.190622829274, -21220.72383412407, -17078.275034222013, 187500.0, 187500.0, 1728.4380469844398, -26299.263691814387, 0.726, -0.602, 0.384, 192.0, 0.0, 0.0, 0.0, 0.0, 0.0, 0.0, 0.0, 0.0, 0.0, 1.663587917444687E9, 0.0, 2022-09-19 16:45:17.444
56.0, -12172.894140826958, -10881.633863643869, -21216.454650933105, -17075.995156287572, 187500.0, 187500.0, 1746.7664774377915, -26298.2578633139, 0.726, -0.602, 0.384, 192.0, 0.0, 0.0, 0.0, 0.0, 0.0, 0.0, 0.0, 0.0, 0.0, 1.663587917448656E9, 0.0, 2022-09-19 16:45:17.448
57.0, -12153.805751062126, -10870.77091583859, -21213.079537520356, -17075.548121398464, 187500.0, 187500.0, 1789.59241981416, -26297.63201446915, 0.726, -0.602, 0.384, 192.0, 0.0, 0.0, 0.0, 0.0, 0.0, 0.0, 0.0, 0.0, 0.0, 1.6635879174526477E9, 0.0, 2022-09-19 16:45:17.452
58.0, -12148.083704481567, -10883.645520644846, -21213.86184857629, -17082.588920901886, 187500.0, 187500.0, 1838.430981449006, -26296.06739235728, 0.73, -0.608, 0.384, 192.0, 22.0, 208.0, 237.0, 0.0, 12.0, 0.0, 0.0, 0.0, 0.0, 1.663587917456689E9, 0.0, 2022-09-19 16:45:17.456
59.0, -12158.49961739774, -10888.004110813632, -21219.04745328992, -17087.282787237502, 187500.0, 187500.0, 1835.949937814467, -26301.096534859724, 0.73, -0.608, 0.384, 192.0, 0.0, 0.0, 0.0, 0.0, 0.0, 0.0, 0.0, 0.0, 0.0, 1.663587917461738E9, 0.0, 2022-09-19 16:45:17.461
60.0, -12166.188617490367, -10905.01378834412, -21220.455613190607, -17080.130229011804, 187500.0, 187500.0, 1818.9849637728887, -26294.614528967682, 0.73, -0.608, 0.384, 192.0, 0.0, 0.0, 0.0, 0.0, 0.0, 0.0, 0.0, 0.0, 0.0, 1.6635879174647133E9, 0.0, 2022-09-19 16:45:17.464
61.0, -12167.708536113327, -10917.01667511662, -21226.423528960175, -17080.44315343418, 187500.0, 187500.0, 1829.624394133615, -26292.066430099778, 0.73, -0.608, 0.384, 192.0, 0.0, 0.0, 0.0, 0.0, 0.0, 0.0, 0.0, 0.0, 0.0, 1.6635879174676895E9, 0.0, 2022-09-19 16:45:17.467
62.0, -12173.855265838536, -10928.594878744469, -21226.423528960175, -17083.594749402375, 187500.0, 187500.0, 1868.069394596743, -26292.893444644626, 0.73, -0.608, 0.384, 192.0, 0.0, 0.0, 0.0, 0.0, 0.0, 0.0, 0.0, 0.0, 0.0, 1.663587917472726E9, 0.0, 2022-09-19 16:45:17.472
63.0, -12161.003012776735, -10909.953523868744, -21214.35358695431, -17071.457752163144, 187500.0, 187500.0, 1924.2393284129298, -26289.25011029841, 0.73, -0.608, 0.384, 192.0, 0.0, 0.0, 0.0, 0.0, 0.0, 0.0, 0.0, 0.0, 0.0, 1.6635879174766994E9, 0.0, 2022-09-19 16:45:17.476
64.0, -12169.496675669752, -10899.269390019106, -21209.2573892185, -17062.584109614385, 187500.0, 187500.0, 1920.7077527889912, -26283.05867708429, 0.73, -0.608, 0.384, 192.0, 0.0, 0.0, 0.0, 0.0, 0.0, 0.0, 0.0, 0.0, 0.0, 1.6635879174806964E9, 0.0, 2022-09-19 16:45:17.480
65.0, -12166.814466335114, -10896.184849284275, -21196.785115812436, -17054.984516499582, 187500.0, 187500.0, 1900.7699967348574, -26274.408551980086, 0.73, -0.608, 0.384, 192.0, 0.0, 0.0, 0.0, 0.0, 0.0, 0.0, 0.0, 0.0, 0.0, 1.663587917484748E9, 0.0, 2022-09-19 16:45:17.484
66.0, -12160.175998231889, -10904.544401710558, -21192.985319255033, -17056.169158955712, 187500.0, 187500.0, 1913.1528631630974, -26272.77687463485, 0.73, -0.608, 0.384, 192.0, 0.0, 0.0, 0.0, 0.0, 0.0, 0.0, 0.0, 0.0, 0.0, 1.663587917488734E9, 0.0, 2022-09-19 16:45:17.488
67.0, -12152.442294650353, -10899.761128397124, -21196.405136156696, -17061.33241192489, 187500.0, 187500.0, 1955.7999915838234, -26272.44159846802, 0.73, -0.608, 0.384, 192.0, 0.0, 0.0, 0.0, 0.0, 0.0, 0.0, 0.0, 0.0, 0.0, 1.6635879174927323E9, 0.0, 2022-09-19 16:45:17.492
68.0, -12144.64153583545, -10893.01090157162, -21197.52272337946, -17064.99809801556, 187500.0, 187500.0, 2006.5384514973703, -26275.749656647404, 0.736, -0.61, 0.386, 192.0, 23.0, 0.0, 236.0, 240.0, 12.0, 16.0, 0.0, 0.0, 0.0, 1.6635879174956863E9, 0.0, 2022-09-19 16:45:17.495
69.0, -12160.958309287824, -10924.01277113113, -21200.651967603204, -17069.736667840083, 187500.0, 187500.0, 2000.0117421164207, -26287.305508530797, 0.736, -0.61, 0.386, 192.0, 0.0, 0.0, 0.0, 0.0, 0.0, 0.0, 0.0, 0.0, 0.0, 1.663587917501757E9, 0.0, 2022-09-19 16:45:17.501
70.0, -12162.634690121973, -10907.114852322919, -21194.751107067004, -17060.23717644658, 187500.0, 187500.0, 1984.67844542008, -26277.984831092934, 0.736, -0.61, 0.386, 192.0, 0.0, 0.0, 0.0, 0.0, 0.0, 0.0, 0.0, 0.0, 0.0, 1.663587917505759E9, 0.0, 2022-09-19 16:45:17.505
71.0, -12173.564693160617, -10907.472480234204, -21198.595607113315, -17056.19151070017, 187500.0, 187500.0, 2000.1682043276078, -26262.025685551846, 0.736, -0.61, 0.386, 192.0, 0.0, 0.0, 0.0, 0.0, 0.0, 0.0, 0.0, 0.0, 0.0, 1.6635879175087337E9, 0.0, 2022-09-19 16:45:17.508
72.0, -12184.070013054612, -10935.54627127007, -21208.273912462464, -17066.719182338617, 187500.0, 187500.0, 2046.033983949898, -26265.691371642515, 0.736, -0.61, 0.386, 192.0, 0.0, 0.0, 0.0, 0.0, 0.0, 0.0, 0.0, 0.0, 0.0, 1.6635879175129185E9, 0.0, 2022-09-19 16:45:17.512
73.0, -12174.88344608348, -10932.506434024148, -21208.72094735157, -17065.579243371398, 187500.0, 187500.0, 2103.8132433668666, -26267.3006972433, 0.736, -0.61, 0.386, 192.0, 0.0, 0.0, 0.0, 0.0, 0.0, 0.0, 0.0, 0.0, 0.0, 1.663587917516773E9, 0.0, 2022-09-19 16:45:17.516
74.0, -12170.055469281135, -10922.425797274804, -21202.551865881906, -17053.3751908988, 187500.0, 187500.0, 2107.903612602188, -26265.691371642515, 0.736, -0.61, 0.386, 192.0, 0.0, 0.0, 0.0, 0.0, 0.0, 0.0, 0.0, 0.0, 0.0, 1.6635879175197537E9, 0.0, 2022-09-19 16:45:17.519
75.0, -12176.515123428719, -10915.139128582374, -21202.57421762636, -17047.921365251706, 187500.0, 187500.0, 2093.196164750596, -26261.198671007, 0.736, -0.61, 0.386, 192.0, 0.0, 0.0, 0.0, 0.0, 0.0, 0.0, 0.0, 0.0, 0.0, 1.6635879175237665E9, 0.0, 2022-09-19 16:45:17.523
76.0, -12175.822219350603, -10905.840802888966, -21210.039700274432, -17056.75030431155, 187500.0, 187500.0, 2107.769502135456, -26264.01499080837, 0.736, -0.61, 0.386, 192.0, 0.0, 0.0, 0.0, 0.0, 0.0, 0.0, 0.0, 0.0, 0.0, 1.6635879175287747E9, 0.0, 2022-09-19 16:45:17.528
77.0, -12168.982585547279, -10905.01378834412, -21214.465345676585, -17062.85233054785, 187500.0, 187500.0, 2152.830618957355, -26269.066485055268, 0.736, -0.61, 0.386, 192.0, 0.0, 0.0, 0.0, 0.0, 0.0, 0.0, 0.0, 0.0, 0.0, 1.6635879175327847E9, 0.0, 2022-09-19 16:45:17.532
78.0, -12164.735754100771, -10913.216878559218, -21221.193220757632, -17072.19535973017, 187500.0, 187500.0, 2206.161881227718, -26279.594156693718, 0.74, -0.602, 0.39, 192.0, 23.0, 32.0, 237.0, 48.0, 12.0, 48.0, 0.0, 0.0, 0.0, 1.6635879175367377E9, 0.0, 2022-09-19 16:45:17.536
79.0, -12188.205085778844, -10951.661879022346, -21224.613037659292, -17079.75024935606, 187500.0, 187500.0, 2202.898526537243, -26285.33855501873, 0.74, -0.602, 0.39, 192.0, 0.0, 0.0, 0.0, 0.0, 0.0, 0.0, 0.0, 0.0, 0.0, 1.6635879175408487E9, 0.0, 2022-09-19 16:45:17.540
80.0, -12191.55784744714, -10938.988439916187, -21217.2593137335, -17077.80564758845, 187500.0, 187500.0, 2188.638113574757, -26285.673831185562, 0.74, -0.602, 0.39, 192.0, 0.0, 0.0, 0.0, 0.0, 0.0, 0.0, 0.0, 0.0, 0.0, 1.6635879175438294E9, 0.0, 2022-09-19 16:45:17.543
81.0, -12173.296472227154, -10872.290834461552, -21215.24765673252, -17071.480103907597, 187500.0, 187500.0, 2207.346523683849, -26281.181130550045, 0.74, -0.602, 0.39, 192.0, 0.0, 0.0, 0.0, 0.0, 0.0, 0.0, 0.0, 0.0, 0.0, 1.6635879175478268E9, 0.0, 2022-09-19 16:45:17.547
82.0, -12164.914568056414, -10889.747546881146, -21221.036758546445, -17082.65597613525, 187500.0, 187500.0, 2250.9324253716977, -26287.931357375546, 0.74, -0.602, 0.39, 192.0, 0.0, 0.0, 0.0, 0.0, 0.0, 0.0, 0.0, 0.0, 0.0, 1.6635879175518477E9, 0.0, 2022-09-19 16:45:17.551
83.0, -12165.652175623438, -10913.395692514861, -21220.05328179041, -17090.635548905797, 187500.0, 187500.0, 2301.4250160962365, -26292.289947544334, 0.74, -0.602, 0.39, 192.0, 0.0, 0.0, 0.0, 0.0, 0.0, 0.0, 0.0, 0.0, 0.0, 1.6635879175558536E9, 0.0, 2022-09-19 16:45:17.555
84.0, -12177.610358907028, -10898.800003385544, -21219.092156778832, -17086.031089548003, 187500.0, 187500.0, 2299.8603939843647, -26286.299680030308, 0.74, -0.602, 0.39, 192.0, 0.0, 0.0, 0.0, 0.0, 0.0, 0.0, 0.0, 0.0, 0.0, 1.6635879175608437E9, 0.0, 2022-09-19 16:45:17.560
85.0, -12186.573408433605, -10906.757224411635, -21212.654854375705, -17081.80660984595, 187500.0, 187500.0, 2284.415338565748, -26283.43865674003, 0.74, -0.602, 0.39, 192.0, 0.0, 0.0, 0.0, 0.0, 0.0, 0.0, 0.0, 0.0, 0.0, 1.6635879175648904E9, 0.0, 2022-09-19 16:45:17.564
86.0, -12181.566617675617, -10914.937962882277, -21214.800621843413, -17083.058307535448, 187500.0, 187500.0, 2304.3307428754265, -26282.43282823954, 0.74, -0.602, 0.39, 192.0, 0.0, 0.0, 0.0, 0.0, 0.0, 0.0, 0.0, 0.0, 0.0, 1.6635879175689273E9, 0.0, 2022-09-19 16:45:17.568
87.0, -12188.540361945674, -10937.06618989303, -21225.797680115425, -17090.993176817083, 187500.0, 187500.0, 2351.783496354043, -26285.472665485464, 0.74, -0.602, 0.39, 192.0, 0.0, 0.0, 0.0, 0.0, 0.0, 0.0, 0.0, 0.0, 0.0, 1.663587917571922E9, 0.0, 2022-09-19 16:45:17.571
88.0, -12177.386841462476, -10936.619155003924, -21226.803508615914, -17092.356633228854, 187500.0, 187500.0, 2409.1827761152717, -26287.238453297432, 0.74, -0.602, 0.39, 192.0, 0.0, 0.0, 0.0, 0.0, 0.0, 0.0, 0.0, 0.0, 0.0, 1.6635879175759616E9, 0.0, 2022-09-19 16:45:17.575
89.0, -12194.932960859891, -10939.97191667222, -21221.886124835746, -17083.460638935645, 187500.0, 187500.0, 2413.273145350593, -26283.840988140226, 0.738, -0.606, 0.39, 192.0, 23.0, 16.0, 237.0, 16.0, 12.0, 48.0, 0.0, 0.0, 0.0, 1.6635879175799992E9, 0.0, 2022-09-19 16:45:17.579
90.0, -12204.298341786665, -10924.839785675978, -21211.559618897394, -17074.989327787083, 187500.0, 187500.0, 2402.0972731229394, -26277.358982248188, 0.738, -0.606, 0.39, 192.0, 0.0, 0.0, 0.0, 0.0, 0.0, 0.0, 0.0, 0.0, 0.0, 1.6635879175838785E9, 0.0, 2022-09-19 16:45:17.583
91.0, -12184.539399688174, -10888.67466314729, -21205.234075216544, -17072.128304496804, 187500.0, 187500.0, 2426.52772981259, -26272.307488001286, 0.738, -0.606, 0.39, 192.0, 0.0, 0.0, 0.0, 0.0, 0.0, 0.0, 0.0, 0.0, 0.0, 1.6635879175899177E9, 0.0, 2022-09-19 16:45:17.589
92.0, -12185.433469466385, -10897.414195229316, -21211.336101452842, -17078.61031038884, 187500.0, 187500.0, 2476.461526925746, -26278.051886326302, 0.738, -0.606, 0.39, 192.0, 0.0, 0.0, 0.0, 0.0, 0.0, 0.0, 0.0, 0.0, 0.0, 1.6635879175929084E9, 0.0, 2022-09-19 16:45:17.592
93.0, -12194.664739926428, -10915.362646026928, -21226.28941849344, -17084.689984880686, 187500.0, 187500.0, 2537.3476788220023, -26284.623299196162, 0.738, -0.606, 0.39, 192.0, 0.0, 0.0, 0.0, 0.0, 0.0, 0.0, 0.0, 0.0, 0.0, 1.6635879175969272E9, 0.0, 2022-09-19 16:45:17.596
94.0, -12215.161289591944, -10933.199338102262, -21229.82099411738, -17084.51117092504, 187500.0, 187500.0, 2539.9628329232733, -26286.076162585756, 0.738, -0.606, 0.39, 192.0, 0.0, 0.0, 0.0, 0.0, 0.0, 0.0, 0.0, 0.0, 0.0, 1.6635879175999238E9, 0.0, 2022-09-19 16:45:17.599
95.0, -12219.497528016273, -10927.991381644177, -21224.76949987048, -17082.320699968423, 187500.0, 187500.0, 2523.1543210928826, -26281.49405497242, 0.738, -0.606, 0.39, 192.0, 0.0, 0.0, 0.0, 0.0, 0.0, 0.0, 0.0, 0.0, 0.0, 1.6635879176039426E9, 0.0, 2022-09-19 16:45:17.603
96.0, -12204.946542375868, -10913.485099492682, -21220.52266842397, -17079.839656333883, 187500.0, 187500.0, 2539.649908500899, -26281.67286892806, 0.738, -0.606, 0.39, 192.0, 0.0, 0.0, 0.0, 0.0, 0.0, 0.0, 0.0, 0.0, 0.0, 1.663587917607926E9, 0.0, 2022-09-19 16:45:17.607
97.0, -12175.196370505855, -10910.020579102109, -21218.421604445175, -17078.364441199832, 187500.0, 187500.0, 2586.0521299901166, -26279.728267160448, 0.738, -0.606, 0.39, 192.0, 0.0, 0.0, 0.0, 0.0, 0.0, 0.0, 0.0, 0.0, 0.0, 1.6635879176119337E9, 0.0, 2022-09-19 16:45:17.611
98.0, -12172.961196060323, -10919.810643173534, -21221.95318006911, -17082.14188601278, 187500.0, 187500.0, 2640.1433515719596, -26278.543624704318, 0.738, -0.606, 0.39, 192.0, 0.0, 0.0, 0.0, 0.0, 0.0, 0.0, 0.0, 0.0, 0.0, 1.6635879176169312E9, 0.0, 2022-09-19 16:45:17.616
99.0, -12202.17492606341, -10956.31104186905, -21229.709235395105, -17089.65207214976, 187500.0, 187500.0, 2637.550549215144, -26287.797246908816, 0.736, -0.612, 0.388, 192.0, 23.0, 0.0, 236.0, 224.0, 12.0, 32.0, 0.0, 0.0, 0.0, 1.663587917621026E9, 0.0, 2022-09-19 16:45:17.621
100.0, -12210.757995934247, -10951.55012030007, -21230.24567726203, -17091.551970428463, 187500.0, 187500.0, 2617.903365838929, -26292.379354522152, 0.736, -0.612, 0.388, 192.0, 0.0, 0.0, 0.0, 0.0, 0.0, 0.0, 0.0, 0.0, 0.0, 1.663587917624967E9, 0.0, 2022-09-19 16:45:17.624
101.0, -12197.481059727796, -10931.031218890097, -21232.905534852212, -17095.463525708143, 187500.0, 187500.0, 2632.0520200791384, -26300.3589272927, 0.736, -0.612, 0.388, 192.0, 0.0, 0.0, 0.0, 0.0, 0.0, 0.0, 0.0, 0.0, 0.0, 1.663587917627942E9, 0.0, 2022-09-19 16:45:17.627
102.0, -12199.895048128968, -10979.087469469008, -21244.863718135803, -17105.588865946396, 187500.0, 187500.0, 2672.776898476708, -26309.478439030463, 0.736, -0.612, 0.388, 192.0, 0.0, 0.0, 0.0, 0.0, 0.0, 0.0, 0.0, 0.0, 0.0, 1.6635879176319468E9, 0.0, 2022-09-19 16:45:17.631
103.0, -12187.780402634193, -10947.54915804257, -21249.892860638247, -17104.04659557898, 187500.0, 187500.0, 2723.2024339678806, -26310.037232641847, 0.736, -0.612, 0.388, 192.0, 0.0, 0.0, 0.0, 0.0, 0.0, 0.0, 0.0, 0.0, 0.0, 1.6635879176360354E9, 0.0, 2022-09-19 16:45:17.636
104.0, -12187.869809612013, -10925.197413587262, -21242.181508801164, -17093.474220451622, 187500.0, 187500.0, 2722.1966054673917, -26299.375450536663, 0.736, -0.612, 0.388, 192.0, 0.0, 0.0, 0.0, 0.0, 0.0, 0.0, 0.0, 0.0, 0.0, 1.6635879176399772E9, 0.0, 2022-09-19 16:45:17.639
105.0, -12204.968894120324, -10934.741608469678, -21239.767520399993, -17096.04467106398, 187500.0, 187500.0, 2699.129605189515, -26296.179151079556, 0.736, -0.612, 0.388, 192.0, 0.0, 0.0, 0.0, 0.0, 0.0, 0.0, 0.0, 0.0, 0.0, 1.6635879176439579E9, 0.0, 2022-09-19 16:45:17.643
106.0, -12186.484001455785, -10909.707654679734, -21241.578011700873, -17098.548066442974, 187500.0, 187500.0, 2711.5348233622103, -26295.128619090156, 0.736, -0.612, 0.388, 192.0, 0.0, 0.0, 0.0, 0.0, 0.0, 0.0, 0.0, 0.0, 0.0, 1.6635879176490536E9, 0.0, 2022-09-19 16:45:17.649
107.0, -12162.701745355338, -10895.849573117444, -21240.169851800187, -17100.515019955044, 187500.0, 187500.0, 2749.1751610249476, -26297.96729063598, 0.736, -0.612, 0.388, 192.0, 0.0, 0.0, 0.0, 0.0, 0.0, 0.0, 0.0, 0.0, 0.0, 1.6635879176530368E9, 0.0, 2022-09-19 16:45:17.653
108.0, -12164.959271545324, -10911.227573302696, -21246.115415825298, -17103.398394989777, 187500.0, 187500.0, 2790.414129544989, -26301.275348815365, 0.736, -0.612, 0.388, 192.0, 0.0, 0.0, 0.0, 0.0, 0.0, 0.0, 0.0, 0.0, 0.0, 1.663587917656034E9, 0.0, 2022-09-19 16:45:17.656
109.0, -12182.438335709374, -10927.007904888142, -21240.169851800187, -17097.51988619803, 187500.0, 187500.0, 2778.098318350115, -26297.07322085777, 0.742, -0.614, 0.394, 192.0, 23.0, 48.0, 236.0, 208.0, 12.0, 80.0, 0.0, 0.0, 0.0, 1.6635879176600635E9, 0.0, 2022-09-19 16:45:17.660
110.0, -12189.0768038126, -10922.202279830251, -21232.950238341124, -17088.84740934937, 187500.0, 187500.0, 2744.6601086449755, -26287.909005631092, 0.742, -0.614, 0.394, 192.0, 0.0, 0.0, 0.0, 0.0, 0.0, 0.0, 0.0, 0.0, 0.0, 1.663587917664074E9, 0.0, 2022-09-19 16:45:17.664
111.0, -12191.55784744714, -10944.330506841006, -21230.089215050844, -17090.613197161343, 187500.0, 187500.0, 2741.9778993103387, -26286.702011430505, 0.742, -0.614, 0.394, 192.0, 0.0, 0.0, 0.0, 0.0, 0.0, 0.0, 0.0, 0.0, 0.0, 1.66358791767006E9, 0.0, 2022-09-19 16:45:17.670
112.0, -12189.836763124082, -10956.623966291425, -21225.842383604337, -17090.72495588362, 187500.0, 187500.0, 2765.2684170327684, -26287.05963934179, 0.742, -0.614, 0.394, 192.0, 0.0, 0.0, 0.0, 0.0, 0.0, 0.0, 0.0, 0.0, 0.0, 1.6635879176730428E9, 0.0, 2022-09-19 16:45:17.673
113.0, -12175.97868156179, -10916.591991971969, -21228.368130727784, -17089.786182616495, 187500.0, 187500.0, 2797.633743004053, -26289.384220765143, 0.742, -0.614, 0.394, 192.0, 0.0, 0.0, 0.0, 0.0, 0.0, 0.0, 0.0, 0.0, 0.0, 1.6635879176771443E9, 0.0, 2022-09-19 16:45:17.677
114.0, -12177.45389669584, -10907.517183723116, -21222.467270191584, -17077.984461544092, 187500.0, 187500.0, 2777.5171729942767, -26280.979964849947, 0.742, -0.614, 0.394, 192.0, 0.0, 0.0, 0.0, 0.0, 0.0, 0.0, 0.0, 0.0, 0.0, 1.6635879176800833E9, 0.0, 2022-09-19 16:45:17.680
115.0, -12181.946597331358, -10906.287837778073, -21213.52657240946, -17067.65795560574, 187500.0, 187500.0, 2735.808817840674, -26269.24529901091, 0.742, -0.614, 0.394, 192.0, 0.0, 0.0, 0.0, 0.0, 0.0, 0.0, 0.0, 0.0, 0.0, 1.6635879176840203E9, 0.0, 2022-09-19 16:45:17.684
116.0, -12183.377108976498, -10918.40248327285, -21214.28653172094, -17069.96018528464, 187500.0, 187500.0, 2721.1460734779926, -26268.753560632893, 0.742, -0.614, 0.394, 192.0, 0.0, 0.0, 0.0, 0.0, 0.0, 0.0, 0.0, 0.0, 0.0, 1.6635879176881645E9, 0.0, 2022-09-19 16:45:17.688
117.0, -12189.166210790421, -10934.249870091662, -21219.002749801013, -17076.352784198854, 187500.0, 187500.0, 2731.450227671889, -26271.72634264545, 0.742, -0.614, 0.394, 192.0, 0.0, 0.0, 0.0, 0.0, 0.0, 0.0, 0.0, 0.0, 0.0, 1.663587917692134E9, 0.0, 2022-09-19 16:45:17.692
118.0, -12189.725004401804, -10960.155541915363, -21222.355511469308, -17081.538388912486, 187500.0, 187500.0, 2751.8126668706736, -26279.86237762718, 0.742, -0.614, 0.394, 192.0, 0.0, 0.0, 0.0, 0.0, 0.0, 0.0, 0.0, 0.0, 0.0, 1.6635879176961324E9, 0.0, 2022-09-19 16:45:17.696
119.0, -12184.874675855002, -10946.968012686732, -21220.232095746054, -17073.22353997511, 187500.0, 187500.0, 2722.5542333786766, -26277.001354336902, 0.74, -0.606, 0.392, 192.0, 23.0, 32.0, 237.0, 16.0, 12.0, 64.0, 0.0, 0.0, 0.0, 1.6635879177000864E9, 0.0, 2022-09-19 16:45:17.700
120.0, -12182.415983964918, -10934.428684047305, -21215.649988132714, -17066.2274439606, 187500.0, 187500.0, 2675.1461833889707, -26273.96151709098, 0.74, -0.606, 0.392, 192.0, 0.0, 0.0, 0.0, 0.0, 0.0, 0.0, 0.0, 0.0, 0.0, 1.6635879177051797E9, 0.0, 2022-09-19 16:45:17.705
121.0, -12167.864998324514, -10913.552154726047, -21214.1077177653, -17067.814417816928, 187500.0, 187500.0, 2660.841066937574, -26268.328877488242, 0.74, -0.606, 0.392, 192.0, 0.0, 0.0, 0.0, 0.0, 0.0, 0.0, 0.0, 0.0, 0.0, 1.6635879177081423E9, 0.0, 2022-09-19 16:45:17.708
122.0, -12152.64346035045, -10906.265486033617, -21214.085366020845, -17069.736667840083, 187500.0, 187500.0, 2675.123831644515, -26267.68067689904, 0.74, -0.606, 0.392, 192.0, 0.0, 0.0, 0.0, 0.0, 0.0, 0.0, 0.0, 0.0, 0.0, 1.6635879177121038E9, 0.0, 2022-09-19 16:45:17.712
123.0, -12146.1167509695, -10915.83203266049, -21218.48865967854, -17075.548121398464, 187500.0, 187500.0, 2702.5270703467218, -26269.312354244277, 0.74, -0.606, 0.392, 192.0, 0.0, 0.0, 0.0, 0.0, 0.0, 0.0, 0.0, 0.0, 0.0, 1.663587917716087E9, 0.0, 2022-09-19 16:45:17.716
124.0, -12160.198349976345, -10933.556966013548, -21217.125203266765, -17075.70458360965, 187500.0, 187500.0, 2674.520334544222, -26270.027610066845, 0.74, -0.606, 0.392, 192.0, 0.0, 0.0, 0.0, 0.0, 0.0, 0.0, 0.0, 0.0, 0.0, 1.663587917720136E9, 0.0, 2022-09-19 16:45:17.720
125.0, -12188.786231134682, -10963.821228006032, -21219.427432945664, -17075.10108650936, 187500.0, 187500.0, 2629.7050869113314, -26271.078142056245, 0.74, -0.606, 0.392, 192.0, 0.0, 0.0, 0.0, 0.0, 0.0, 0.0, 0.0, 0.0, 0.0, 1.6635879177241664E9, 0.0, 2022-09-19 16:45:17.724
126.0, -12197.145783560967, -10954.45584707926, -21221.997883558022, -17078.76677260003, 187500.0, 187500.0, 2623.8936333529514, -26273.62624092415, 0.74, -0.606, 0.392, 192.0, 0.0, 0.0, 0.0, 0.0, 0.0, 0.0, 0.0, 0.0, 0.0, 1.663587917728078E9, 0.0, 2022-09-19 16:45:17.728
127.0, -12159.393687175952, -10925.219765331718, -21217.572238155873, -17083.57239765792, 187500.0, 187500.0, 2651.4309825218897, -26282.43282823954, 0.74, -0.606, 0.392, 192.0, 0.0, 0.0, 0.0, 0.0, 0.0, 0.0, 0.0, 0.0, 0.0, 1.6635879177332697E9, 0.0, 2022-09-19 16:45:17.733
128.0, -12151.12354172749, -10930.919460167821, -21224.903610337213, -17087.282787237502, 187500.0, 187500.0, 2686.6573317834536, -26280.532929960842, 0.74, -0.606, 0.392, 192.0, 0.0, 0.0, 0.0, 0.0, 0.0, 0.0, 0.0, 0.0, 0.0, 1.6635879177361884E9, 0.0, 2022-09-19 16:45:17.736
129.0, -12147.524910870185, -10894.709634150224, -21222.444918447127, -17077.93975805518, 187500.0, 187500.0, 2674.1180031440263, -26273.82740662425, 0.738, -0.604, 0.392, 192.0, 23.0, 16.0, 237.0, 32.0, 12.0, 64.0, 0.0, 0.0, 0.0, 1.663587917739189E9, 0.0, 2022-09-19 16:45:17.739
130.0, -12154.02926850668, -10894.843744616956, -21219.427432945664, -17074.72110685362, 187500.0, 187500.0, 2641.4621044948226, -26271.838101367724, 0.738, -0.604, 0.392, 192.0, 0.0, 0.0, 0.0, 0.0, 0.0, 0.0, 0.0, 0.0, 0.0, 1.6635879177442155E9, 0.0, 2022-09-19 16:45:17.744
131.0, -12154.141027228956, -10906.511355222627, -21225.574162670873, -17082.700679624162, 187500.0, 187500.0, 2641.2162353058143, -26277.202520037, 0.738, -0.604, 0.392, 192.0, 0.0, 0.0, 0.0, 0.0, 0.0, 0.0, 0.0, 0.0, 0.0, 1.6635879177481732E9, 0.0, 2022-09-19 16:45:17.748
132.0, -12138.695971810339, -10900.610494686425, -21226.15530802671, -17087.707470382153, 187500.0, 187500.0, 2673.0227676657164, -26276.509615958887, 0.738, -0.604, 0.392, 192.0, 0.0, 0.0, 0.0, 0.0, 0.0, 0.0, 0.0, 0.0, 0.0, 1.6635879177521727E9, 0.0, 2022-09-19 16:45:17.752
133.0, -12137.556032843118, -10914.78150067109, -21224.993017315035, -17089.450906449667, 187500.0, 187500.0, 2716.9886490093054, -26281.225834038956, 0.738, -0.604, 0.392, 192.0, 0.0, 0.0, 0.0, 0.0, 0.0, 0.0, 0.0, 0.0, 0.0, 1.6635879177561822E9, 0.0, 2022-09-19 16:45:17.756
134.0, -12150.542396371651, -10917.709579194734, -21224.76949987048, -17086.746345370575, 187500.0, 187500.0, 2707.131529704515, -26282.209310794988, 0.738, -0.604, 0.392, 192.0, 0.0, 0.0, 0.0, 0.0, 0.0, 0.0, 0.0, 0.0, 0.0, 1.6635879177611644E9, 0.0, 2022-09-19 16:45:17.761
135.0, -12165.227492478787, -10925.286820565083, -21224.590685914838, -17081.784258101496, 187500.0, 187500.0, 2674.2074101218477, -26275.48143571394, 0.738, -0.604, 0.392, 192.0, 0.0, 0.0, 0.0, 0.0, 0.0, 0.0, 0.0, 0.0, 0.0, 1.6635879177642267E9, 0.0, 2022-09-19 16:45:17.764
136.0, -12158.365506931008, -10919.49771875116, -21220.455613190607, -17080.554912156455, 187500.0, 187500.0, 2679.616532280032, -26271.838101367724, 0.738, -0.604, 0.392, 192.0, 0.0, 0.0, 0.0, 0.0, 0.0, 0.0, 0.0, 0.0, 0.0, 1.66358791776721E9, 0.0, 2022-09-19 16:45:17.767
137.0, -12144.239204435255, -10927.812567688534, -21215.560581154896, -17080.174932500715, 187500.0, 187500.0, 2713.7923495521964, -26272.44159846802, 0.738, -0.604, 0.392, 192.0, 0.0, 0.0, 0.0, 0.0, 0.0, 0.0, 0.0, 0.0, 0.0, 1.6635879177721949E9, 0.0, 2022-09-19 16:45:17.772
138.0, -12152.732867328272, -10942.609422517948, -21224.031892303454, -17086.165200014737, 187500.0, 187500.0, 2754.874855861051, -26281.404647994597, 0.738, -0.604, 0.392, 192.0, 0.0, 0.0, 0.0, 0.0, 0.0, 0.0, 0.0, 0.0, 0.0, 1.663587917776304E9, 0.0, 2022-09-19 16:45:17.776
139.0, -12159.63955636496, -10925.06330312053, -21221.48379343555, -17082.588920901886, 187500.0, 187500.0, 2746.5823586681317, -26274.900290358102, 0.736, -0.608, 0.386, 192.0, 23.0, 0.0, 237.0, 0.0, 12.0, 16.0, 0.0, 0.0, 0.0, 1.6635879177802734E9, 0.0, 2022-09-19 16:45:17.780
140.0, -12157.35967843052, -10921.643486218869, -21217.86281083379, -17077.827999332905, 187500.0, 187500.0, 2718.732085076819, -26271.77104613436, 0.736, -0.608, 0.386, 192.0, 0.0, 0.0, 0.0, 0.0, 0.0, 0.0, 0.0, 0.0, 0.0, 1.6635879177842252E9, 0.0, 2022-09-19 16:45:17.784
141.0, -12150.654155093927, -10929.176024100307, -21225.037720803943, -17080.80078134546, 187500.0, 187500.0, 2726.666954358453, -26277.29192701482, 0.736, -0.608, 0.386, 192.0, 0.0, 0.0, 0.0, 0.0, 0.0, 0.0, 0.0, 0.0, 0.0, 1.6635879177892852E9, 0.0, 2022-09-19 16:45:17.789
142.0, -12153.939861528857, -10957.249815136172, -21234.783081386457, -17087.506304682054, 187500.0, 187500.0, 2768.64353044552, -26277.738961903928, 0.736, -0.608, 0.386, 192.0, 0.0, 0.0, 0.0, 0.0, 0.0, 0.0, 0.0, 0.0, 0.0, 1.66358791779229E9, 0.0, 2022-09-19 16:45:17.792
143.0, -12159.371335431497, -10951.147788899874, -21241.10862506731, -17090.188514016692, 187500.0, 187500.0, 2828.769723030296, -26277.269575270366, 0.736, -0.608, 0.386, 192.0, 0.0, 0.0, 0.0, 0.0, 0.0, 0.0, 0.0, 0.0, 0.0, 1.6635879177952633E9, 0.0, 2022-09-19 16:45:17.795
144.0, -12162.165303488411, -10954.411143590349, -21241.130976811764, -17092.244874506578, 187500.0, 187500.0, 2833.061257965715, -26280.86820612767, 0.736, -0.608, 0.386, 192.0, 0.0, 0.0, 0.0, 0.0, 0.0, 0.0, 0.0, 0.0, 0.0, 1.6635879178002665E9, 0.0, 2022-09-19 16:45:17.800
145.0, -12155.079800496078, -10955.97576570222, -21241.01921808949, -17090.65790065025, 187500.0, 187500.0, 2818.0408856917484, -26273.67094441306, 0.736, -0.608, 0.386, 192.0, 0.0, 0.0, 0.0, 0.0, 0.0, 0.0, 0.0, 0.0, 0.0, 1.6635879178042672E9, 0.0, 2022-09-19 16:45:17.804
146.0, -12135.700838053328, -10927.387884543883, -21243.567316957393, -17093.1836477737, 187500.0, 187500.0, 2835.698763811441, -26276.844892125715, 0.736, -0.608, 0.386, 192.0, 0.0, 0.0, 0.0, 0.0, 0.0, 0.0, 0.0, 0.0, 0.0, 1.6635879178082087E9, 0.0, 2022-09-19 16:45:17.808
147.0, -12126.894250737936, -10915.452053004748, -21242.58384020136, -17093.965958829638, 187500.0, 187500.0, 2883.1068138011474, -26278.610679937683, 0.736, -0.608, 0.386, 192.0, 0.0, 0.0, 0.0, 0.0, 0.0, 0.0, 0.0, 0.0, 0.0, 1.663587917812271E9, 0.0, 2022-09-19 16:45:17.812
148.0, -12118.82527098957, -10920.145919340363, -21242.606191945815, -17094.658862907752, 187500.0, 187500.0, 2941.2884046183117, -26279.661211927083, 0.736, -0.608, 0.386, 192.0, 0.0, 0.0, 0.0, 0.0, 0.0, 0.0, 0.0, 0.0, 0.0, 1.6635879178162918E9, 0.0, 2022-09-19 16:45:17.816
149.0, -12120.479300079263, -10921.419968774315, -21240.48277622256, -17092.557798928952, 187500.0, 187500.0, 2945.6469947870964, -26279.86237762718, 0.732, -0.61, 0.392, 192.0, 22.0, 224.0, 236.0, 240.0, 12.0, 64.0, 0.0, 0.0, 0.0, 1.6635879178202848E9, 0.0, 2022-09-19 16:45:17.820
150.0, -12133.465663607796, -10942.095332395475, -21238.761691899505, -17093.20599951816, 187500.0, 187500.0, 2926.7150672334515, -26277.29192701482, 0.732, -0.61, 0.392, 192.0, 0.0, 0.0, 0.0, 0.0, 0.0, 0.0, 0.0, 0.0, 0.0, 1.6635879178232672E9, 0.0, 2022-09-19 16:45:17.823
151.0, -12142.316954412097, -10965.162332673352, -21241.846232634336, -17095.37411873032, 187500.0, 187500.0, 2938.472084816943, -26273.760351390883, 0.732, -0.61, 0.392, 192.0, 0.0, 0.0, 0.0, 0.0, 0.0, 0.0, 0.0, 0.0, 0.0, 1.663587917828385E9, 0.0, 2022-09-19 16:45:17.828
152.0, -12138.248936921233, -10964.178855917318, -21247.948258870634, -17098.548066442974, 187500.0, 187500.0, 2973.8772480341495, -26280.48822647193, 0.732, -0.61, 0.392, 192.0, 0.0, 0.0, 0.0, 0.0, 0.0, 0.0, 0.0, 0.0, 0.0, 1.6635879178322933E9, 0.0, 2022-09-19 16:45:17.832
153.0, -12131.029323462168, -10956.422800591326, -21244.59549720234, -17099.77741238802, 187500.0, 187500.0, 3018.379571244666, -26282.11990381717, 0.732, -0.61, 0.392, 192.0, 0.0, 0.0, 0.0, 0.0, 0.0, 0.0, 0.0, 0.0, 0.0, 1.6635879178362625E9, 0.0, 2022-09-19 16:45:17.836
154.0, -12141.936974756358, -10942.11768413993, -21238.292305265943, -17090.546141927975, 187500.0, 187500.0, 3007.8742513506713, -26273.805054879795, 0.732, -0.61, 0.392, 192.0, 0.0, 0.0, 0.0, 0.0, 0.0, 0.0, 0.0, 0.0, 0.0, 1.6635879178403013E9, 0.0, 2022-09-19 16:45:17.840
155.0, -12134.180919430366, -10915.362646026928, -21230.603305173317, -17081.739554612584, 187500.0, 187500.0, 2975.978312012948, -26267.881842599138, 0.732, -0.61, 0.392, 192.0, 0.0, 0.0, 0.0, 0.0, 0.0, 0.0, 0.0, 0.0, 0.0, 1.6635879178433325E9, 0.0, 2022-09-19 16:45:17.843
156.0, -12131.342247884542, -10929.220727589218, -21233.285514507952, -17087.57335991542, 187500.0, 187500.0, 2973.430213145043, -26273.0003920794, 0.732, -0.61, 0.392, 192.0, 0.0, 0.0, 0.0, 0.0, 0.0, 0.0, 0.0, 0.0, 0.0, 1.6635879178473227E9, 0.0, 2022-09-19 16:45:17.847
157.0, -12134.225622919277, -10959.239120392695, -21240.68394192266, -17091.52961868401, 187500.0, 187500.0, 3000.2299547469565, -26278.16364504858, 0.732, -0.61, 0.392, 192.0, 0.0, 0.0, 0.0, 0.0, 0.0, 0.0, 0.0, 0.0, 0.0, 1.6635879178512995E9, 0.0, 2022-09-19 16:45:17.851
158.0, -12127.140119926944, -10945.045762663576, -21242.91911636819, -17091.037880305994, 187500.0, 187500.0, 3042.0947721117464, -26281.717572416972, 0.732, -0.61, 0.392, 192.0, 0.0, 0.0, 0.0, 0.0, 0.0, 0.0, 0.0, 0.0, 0.0, 1.6635879178554537E9, 0.0, 2022-09-19 16:45:17.855
159.0, -12133.420960118887, -10918.938925139777, -21247.657686192713, -17088.42272620472, 187500.0, 187500.0, 3031.634155706663, -26281.53875846133, 0.732, -0.606, 0.386, 192.0, 22.0, 224.0, 237.0, 16.0, 12.0, 16.0, 0.0, 0.0, 0.0, 1.6635879178604343E9, 0.0, 2022-09-19 16:45:17.860
160.0, -12155.370373173997, -10939.435474805294, -21251.39042751675, -17092.736612884597, 187500.0, 187500.0, 2999.559402413297, -26282.701049173003, 0.732, -0.606, 0.386, 192.0, 0.0, 0.0, 0.0, 0.0, 0.0, 0.0, 0.0, 0.0, 0.0, 1.663587917864426E9, 0.0, 2022-09-19 16:45:17.864
161.0, -12160.377163931986, -10958.657975036856, -21248.73056992657, -17089.24974074957, 187500.0, 187500.0, 2999.5146989243867, -26275.168511291566, 0.732, -0.606, 0.386, 192.0, 0.0, 0.0, 0.0, 0.0, 0.0, 0.0, 0.0, 0.0, 0.0, 1.6635879178684504E9, 0.0, 2022-09-19 16:45:17.868
162.0, -12130.761102528704, -10932.439378790783, -21252.753883928526, -17089.00387156056, 187500.0, 187500.0, 3031.6118039622074, -26275.257918269388, 0.732, -0.606, 0.386, 192.0, 0.0, 0.0, 0.0, 0.0, 0.0, 0.0, 0.0, 0.0, 0.0, 1.6635879178714535E9, 0.0, 2022-09-19 16:45:17.871
163.0, -12133.488015352252, -10954.187626145796, -21259.615869476303, -17097.65399666476, 187500.0, 187500.0, 3072.5378480598747, -26281.270537527864, 0.732, -0.606, 0.386, 192.0, 0.0, 0.0, 0.0, 0.0, 0.0, 0.0, 0.0, 0.0, 0.0, 1.6635879178754594E9, 0.0, 2022-09-19 16:45:17.875
164.0, -12142.942803256847, -10944.531672541103, -21260.286421809964, -17097.408127475755, 187500.0, 187500.0, 3056.109315885224, -26285.562072463283, 0.732, -0.606, 0.386, 192.0, 0.0, 0.0, 0.0, 0.0, 0.0, 0.0, 0.0, 0.0, 0.0, 1.6635879178794322E9, 0.0, 2022-09-19 16:45:17.879
165.0, -12146.362620158508, -10948.733800498701, -21254.58672697386, -17093.72008964063, 187500.0, 187500.0, 3018.983068344959, -26282.589290450727, 0.732, -0.606, 0.386, 192.0, 0.0, 0.0, 0.0, 0.0, 0.0, 0.0, 0.0, 0.0, 0.0, 1.6635879178834612E9, 0.0, 2022-09-19 16:45:17.883
166.0, -12149.335402171064, -10952.041858678087, -21253.670305451193, -17089.786182616495, 187500.0, 187500.0, 3012.5457659418307, -26273.849758368702, 0.732, -0.606, 0.386, 192.0, 0.0, 0.0, 0.0, 0.0, 0.0, 0.0, 0.0, 0.0, 0.0, 1.6635879178884711E9, 0.0, 2022-09-19 16:45:17.888
167.0, -12149.670678337894, -10939.077846894008, -21258.945317142647, -17093.295406495978, 187500.0, 187500.0, 3035.6127662197073, -26275.77200839186, 0.732, -0.606, 0.386, 192.0, 0.0, 0.0, 0.0, 0.0, 0.0, 0.0, 0.0, 0.0, 0.0, 1.6635879178924303E9, 0.0, 2022-09-19 16:45:17.892
168.0, -12131.968096729292, -10933.378152057905, -21263.169796844697, -17099.91152285475, 187500.0, 187500.0, 3072.984882948981, -26281.11407531668, 0.732, -0.606, 0.386, 192.0, 0.0, 0.0, 0.0, 0.0, 0.0, 0.0, 0.0, 0.0, 0.0, 1.6635879178964927E9, 0.0, 2022-09-19 16:45:17.896
169.0, -12133.867995007991, -10944.64343126338, -21257.380695030773, -17093.697737896175, 187500.0, 187500.0, 3062.0325281658806, -26276.57667119225, 0.734, -0.61, 0.386, 192.0, 22.0, 240.0, 236.0, 240.0, 12.0, 16.0, 0.0, 0.0, 0.0, 1.663587917899478E9, 0.0, 2022-09-19 16:45:17.899
170.0, -12132.795111274138, -10939.100198638464, -21250.16108157171, -17084.868798836327, 187500.0, 187500.0, 3031.9247283845816, -26270.96638333397, 0.734, -0.61, 0.386, 192.0, 0.0, 0.0, 0.0, 0.0, 0.0, 0.0, 0.0, 0.0, 0.0, 1.663587917903472E9, 0.0, 2022-09-19 16:45:17.903
171.0, -12128.883555994458, -10943.816416718533, -21253.670305451193, -17087.774525615518, 187500.0, 187500.0, 3033.5564057298193, -26275.235566524934, 0.734, -0.61, 0.386, 192.0, 0.0, 0.0, 0.0, 0.0, 0.0, 0.0, 0.0, 0.0, 0.0, 1.663587917907483E9, 0.0, 2022-09-19 16:45:17.907
172.0, -12127.385989115954, -10951.706582511257, -21256.93366014167, -17090.680252394708, 187500.0, 187500.0, 3065.005310178436, -26278.230700281943, 0.734, -0.61, 0.386, 192.0, 0.0, 0.0, 0.0, 0.0, 0.0, 0.0, 0.0, 0.0, 0.0, 1.6635879179115176E9, 0.0, 2022-09-19 16:45:17.911
173.0, -12129.330590883565, -10959.21676864824, -21257.827729919878, -17095.642339663787, 187500.0, 187500.0, 3111.0275520119135, -26280.599985194207, 0.734, -0.61, 0.386, 192.0, 0.0, 0.0, 0.0, 0.0, 0.0, 0.0, 0.0, 0.0, 0.0, 1.6635879179154353E9, 0.0, 2022-09-19 16:45:17.915
174.0, -12151.659983594416, -10990.732728330224, -21259.01237237601, -17098.65982516525, 187500.0, 187500.0, 3099.494051872975, -26286.67965968605, 0.734, -0.61, 0.386, 192.0, 0.0, 0.0, 0.0, 0.0, 0.0, 0.0, 0.0, 0.0, 0.0, 1.6635879179204607E9, 0.0, 2022-09-19 16:45:17.920
175.0, -12150.900024282935, -10983.781335804622, -21256.77719793048, -17093.541275684987, 187500.0, 187500.0, 3071.107336414735, -26279.99648809391, 0.734, -0.61, 0.386, 192.0, 0.0, 0.0, 0.0, 0.0, 0.0, 0.0, 0.0, 0.0, 0.0, 1.6635879179244566E9, 0.0, 2022-09-19 16:45:17.924
176.0, -12141.109960211512, -10968.02335596363, -21252.57506997288, -17089.09327853838, 187500.0, 187500.0, 3080.0256824524026, -26279.258880526886, 0.734, -0.61, 0.386, 192.0, 0.0, 0.0, 0.0, 0.0, 0.0, 0.0, 0.0, 0.0, 0.0, 1.663587917927426E9, 0.0, 2022-09-19 16:45:17.927
177.0, -12143.188672445855, -10988.27403644014, -21257.224232819586, -17095.66469140824, 187500.0, 187500.0, 3118.1577584931565, -26288.423095753566, 0.734, -0.61, 0.386, 192.0, 0.0, 0.0, 0.0, 0.0, 0.0, 0.0, 0.0, 0.0, 0.0, 1.6635879179315524E9, 0.0, 2022-09-19 16:45:17.931
178.0, -12131.789282773649, -10947.347992342471, -21265.047343378945, -17101.230275777612, 187500.0, 187500.0, 3171.8242969303487, -26296.469723757473, 0.734, -0.61, 0.386, 192.0, 0.0, 0.0, 0.0, 0.0, 0.0, 0.0, 0.0, 0.0, 0.0, 1.6635879179354794E9, 0.0, 2022-09-19 16:45:17.935
179.0, -12127.363637371498, -10913.887430892877, -21263.48272126707, -17093.988310574092, 187500.0, 187500.0, 3168.8962184067036, -26291.015898110378, 0.732, -0.612, 0.38, 192.0, 22.0, 224.0, 236.0, 224.0, 11.0, 224.0, 0.0, 0.0, 0.0, 1.6635879179394517E9, 0.0, 2022-09-19 16:45:17.939
180.0, -12125.866070492992, -10917.284896050083, -21256.39721827474, -17090.009700061048, 187500.0, 187500.0, 3143.3481744942874, -26285.874996885657, 0.732, -0.612, 0.38, 192.0, 0.0, 0.0, 0.0, 0.0, 0.0, 0.0, 0.0, 0.0, 0.0, 1.663587917944518E9, 0.0, 2022-09-19 16:45:17.944
181.0, -12129.196480416833, -10936.417989303827, -21257.78302643097, -17090.367327972333, 187500.0, 187500.0, 3149.1596280526674, -26285.24914804091, 0.732, -0.612, 0.38, 192.0, 0.0, 0.0, 0.0, 0.0, 0.0, 0.0, 0.0, 0.0, 0.0, 1.6635879179484625E9, 0.0, 2022-09-19 16:45:17.948
182.0, -12144.015686990702, -10985.480068383225, -21267.751904458037, -17101.274979266524, 187500.0, 187500.0, 3182.0166924019686, -26294.34630803422, 0.732, -0.612, 0.38, 192.0, 0.0, 0.0, 0.0, 0.0, 0.0, 0.0, 0.0, 0.0, 0.0, 1.663587917952471E9, 0.0, 2022-09-19 16:45:17.952
183.0, -12150.520044627196, -11000.545144146103, -21273.809227205424, -17107.600522947374, 187500.0, 187500.0, 3230.1176464697896, -26296.69324120203, 0.732, -0.612, 0.38, 192.0, 0.0, 0.0, 0.0, 0.0, 0.0, 0.0, 0.0, 0.0, 0.0, 1.6635879179555016E9, 0.0, 2022-09-19 16:45:17.955
184.0, -12151.257652194221, -10965.676422795823, -21274.1221516278, -17103.800726389974, 187500.0, 187500.0, 3224.037971977946, -26293.049906855813, 0.732, -0.612, 0.38, 192.0, 0.0, 0.0, 0.0, 0.0, 0.0, 0.0, 0.0, 0.0, 0.0, 1.663587917959532E9, 0.0, 2022-09-19 16:45:17.959
185.0, -12115.517212810186, -10916.21201231623, -21261.269898565995, -17089.964996572136, 187500.0, 187500.0, 3197.081768164846, -26279.907081116093, 0.732, -0.612, 0.38, 192.0, 0.0, 0.0, 0.0, 0.0, 0.0, 0.0, 0.0, 0.0, 0.0, 1.6635879179634812E9, 0.0, 2022-09-19 16:45:17.963
186.0, -12106.285942350143, -10920.749416440656, -21260.241718321053, -17087.081621537403, 187500.0, 187500.0, 3199.495756566019, -26269.982906577934, 0.732, -0.612, 0.38, 192.0, 0.0, 0.0, 0.0, 0.0, 0.0, 0.0, 0.0, 0.0, 0.0, 1.6635879179675517E9, 0.0, 2022-09-19 16:45:17.967
187.0, -12104.721320238272, -10913.552154726047, -21262.02985787748, -17089.406202960756, 187500.0, 187500.0, 3231.5034546260185, -26269.044133310814, 0.732, -0.612, 0.38, 192.0, 0.0, 0.0, 0.0, 0.0, 0.0, 0.0, 0.0, 0.0, 0.0, 1.6635879179716413E9, 0.0, 2022-09-19 16:45:17.971
188.0, -12103.380215570953, -10920.592954229469, -21261.180491588177, -17089.920293083225, 187500.0, 187500.0, 3277.3468825038535, -26271.77104613436, 0.732, -0.612, 0.38, 192.0, 0.0, 0.0, 0.0, 0.0, 0.0, 0.0, 0.0, 0.0, 0.0, 1.6635879179765525E9, 0.0, 2022-09-19 16:45:17.976
189.0, -12115.293695365632, -10911.8757738919, -21257.850081664335, -17082.52186566852, 187500.0, 187500.0, 3270.9095801007247, -26263.21032800798, 0.732, -0.612, 0.38, 192.0, 0.0, 0.0, 0.0, 0.0, 0.0, 0.0, 0.0, 0.0, 0.0, 1.6635879179805453E9, 0.0, 2022-09-19 16:45:17.980
190.0, -12133.73388454126, -10919.20714607324, -21258.78885493146, -17084.242949991578, 187500.0, 187500.0, 3236.532597128463, -26264.64083965312, 0.738, -0.612, 0.378, 192.0, 23.0, 16.0, 236.0, 224.0, 11.0, 208.0, 0.0, 0.0, 0.0, 1.6635879179835522E9, 0.0, 2022-09-19 16:45:17.983
191.0, -12125.329628626065, -10926.136186854386, -21257.49245375305, -17080.44315343418, 187500.0, 187500.0, 3231.9281377706693, -26261.15396751809, 0.738, -0.612, 0.378, 192.0, 0.0, 0.0, 0.0, 0.0, 0.0, 0.0, 0.0, 0.0, 0.0, 1.6635879179875503E9, 0.0, 2022-09-19 16:45:17.987
192.0, -12109.594000529529, -10936.59680325947, -21255.39138977425, -17082.67832787971, 187500.0, 187500.0, 3261.968882318602, -26259.164662261566, 0.738, -0.612, 0.378, 192.0, 0.0, 0.0, 0.0, 0.0, 0.0, 0.0, 0.0, 0.0, 0.0, 1.6635879179915195E9, 0.0, 2022-09-19 16:45:17.991
193.0, -12115.092529665533, -10952.779466245112, -21257.24658456404, -17089.22738900511, 187500.0, 187500.0, 3301.8667461713253, -26263.05386579679, 0.738, -0.612, 0.378, 192.0, 0.0, 0.0, 0.0, 0.0, 0.0, 0.0, 0.0, 0.0, 0.0, 1.6635879179955456E9, 0.0, 2022-09-19 16:45:17.995
194.0, -12129.196480416833, -10957.473332580726, -21254.698485696135, -17084.198246502667, 187500.0, 187500.0, 3287.0475395974568, -26261.645705896106, 0.738, -0.612, 0.378, 192.0, 0.0, 0.0, 0.0, 0.0, 0.0, 0.0, 0.0, 0.0, 0.0, 1.66358791799971E9, 0.0, 2022-09-19 16:45:17.999
195.0, -12127.654210049417, -10941.447131806271, -21240.169851800187, -17073.312946952934, 187500.0, 187500.0, 3248.647242623239, -26255.677790126538, 0.738, -0.612, 0.378, 192.0, 0.0, 0.0, 0.0, 0.0, 0.0, 0.0, 0.0, 0.0, 0.0, 1.6635879180046046E9, 0.0, 2022-09-19 16:45:18.004
196.0, -12123.474433836274, -10943.16821612933, -21239.34283725534, -17071.81538007443, 187500.0, 187500.0, 3240.9805942750686, -26257.532984916328, 0.738, -0.612, 0.378, 192.0, 0.0, 0.0, 0.0, 0.0, 0.0, 0.0, 0.0, 0.0, 0.0, 1.663587918007563E9, 0.0, 2022-09-19 16:45:18.007
197.0, -12125.575497815073, -10950.141960399385, -21245.981305358568, -17077.3809644438, 187500.0, 187500.0, 3255.8221525933927, -26265.557261175785, 0.738, -0.612, 0.378, 192.0, 0.0, 0.0, 0.0, 0.0, 0.0, 0.0, 0.0, 0.0, 0.0, 1.6635879180115678E9, 0.0, 2022-09-19 16:45:18.011
198.0, -12110.152794140911, -10915.675570449303, -21242.06975007889, -17073.46940916412, 187500.0, 187500.0, 3286.8016704084484, -26266.183110020535, 0.738, -0.612, 0.378, 192.0, 0.0, 0.0, 0.0, 0.0, 0.0, 0.0, 0.0, 0.0, 0.0, 1.663587918015692E9, 0.0, 2022-09-19 16:45:18.015
199.0, -12124.413207103396, -10944.017582418632, -21240.8627558783, -17070.31781319592, 187500.0, 187500.0, 3260.4713154400965, -26265.266688497864, 0.738, -0.612, 0.378, 192.0, 0.0, 0.0, 0.0, 0.0, 0.0, 0.0, 0.0, 0.0, 0.0, 1.6635879180196629E9, 0.0, 2022-09-19 16:45:18.019
200.0, -12141.78051254517, -10973.499533355181, -21237.174718043178, -17074.09525800887, 187500.0, 187500.0, 3206.6930182806277, -26268.083008299236, 0.734, -0.612, 0.38, 192.0, 22.0, 240.0, 236.0, 224.0, 11.0, 224.0, 0.0, 0.0, 0.0, 1.6635879180236363E9, 0.0, 2022-09-19 16:45:18.023
201.0, -12110.912753452392, -10896.274256262095, -21227.764633627492, -17071.033069018493, 187500.0, 187500.0, 3190.644465761717, -26267.971249576956, 0.734, -0.612, 0.38, 192.0, 0.0, 0.0, 0.0, 0.0, 0.0, 0.0, 0.0, 0.0, 0.0, 1.6635879180276449E9, 0.0, 2022-09-19 16:45:18.027
202.0, -12103.894305693426, -10900.878715619889, -21226.69174989364, -17071.055420762947, 187500.0, 187500.0, 3198.5793350433514, -26267.77008387686, 0.734, -0.612, 0.38, 192.0, 0.0, 0.0, 0.0, 0.0, 0.0, 0.0, 0.0, 0.0, 0.0, 1.6635879180316665E9, 0.0, 2022-09-19 16:45:18.031
203.0, -12115.405454087908, -10927.58905024398, -21238.046436076933, -17079.14675225577, 187500.0, 187500.0, 3214.091445695334, -26276.73313340344, 0.734, -0.612, 0.38, 192.0, 0.0, 0.0, 0.0, 0.0, 0.0, 0.0, 0.0, 0.0, 0.0, 1.6635879180356536E9, 0.0, 2022-09-19 16:45:18.035
204.0, -12144.842701535548, -10964.201207661774, -21243.746130913038, -17081.448981934667, 187500.0, 187500.0, 3175.7582039544827, -26271.256956011886, 0.734, -0.612, 0.38, 192.0, 0.0, 0.0, 0.0, 0.0, 0.0, 0.0, 0.0, 0.0, 0.0, 1.663587918039664E9, 0.0, 2022-09-19 16:45:18.039
205.0, -12155.906815040924, -10964.290614639594, -21236.68297966516, -17077.023336532515, 187500.0, 187500.0, 3118.7612555934497, -26266.80895886528, 0.734, -0.612, 0.38, 192.0, 0.0, 0.0, 0.0, 0.0, 0.0, 0.0, 0.0, 0.0, 0.0, 1.663587918043707E9, 0.0, 2022-09-19 16:45:18.043
206.0, -12152.218777205799, -10961.675460538323, -21232.972590085577, -17075.771638843016, 187500.0, 187500.0, 3095.0013512374585, -26263.791473363817, 0.734, -0.612, 0.38, 192.0, 0.0, 0.0, 0.0, 0.0, 0.0, 0.0, 0.0, 0.0, 0.0, 1.6635879180476756E9, 0.0, 2022-09-19 16:45:18.047
207.0, -12143.054561979123, -10963.463600094748, -21228.703406894616, -17071.278938207503, 187500.0, 187500.0, 3102.332723418799, -26259.879918084138, 0.734, -0.612, 0.38, 192.0, 0.0, 0.0, 0.0, 0.0, 0.0, 0.0, 0.0, 0.0, 0.0, 1.6635879180516188E9, 0.0, 2022-09-19 16:45:18.051
208.0, -12142.093436967545, -10959.328527370517, -21229.753938884012, -17067.993231772572, 187500.0, 187500.0, 3121.9575550505588, -26255.700141870995, 0.734, -0.612, 0.38, 192.0, 0.0, 0.0, 0.0, 0.0, 0.0, 0.0, 0.0, 0.0, 0.0, 1.663587918055824E9, 0.0, 2022-09-19 16:45:18.055
209.0, -12135.454968864318, -10929.645410733869, -21219.561543412394, -17058.2255194456, 187500.0, 187500.0, 3091.916810502626, -26249.419301679052, 0.734, -0.612, 0.38, 192.0, 0.0, 0.0, 0.0, 0.0, 0.0, 0.0, 0.0, 0.0, 0.0, 1.6635879180607128E9, 0.0, 2022-09-19 16:45:18.060
210.0, -12099.938046924835, -10875.576540896482, -21203.803563571404, -17047.429626873687, 187500.0, 187500.0, 3038.4290860210763, -26241.1938597195, 0.736, -0.612, 0.374, 192.0, 23.0, 0.0, 236.0, 224.0, 11.0, 176.0, 0.0, 0.0, 0.0, 1.6635879180636759E9, 0.0, 2022-09-19 16:45:18.063
211.0, -12084.604750228495, -10891.133355037375, -21207.268083961975, -17046.69201930666, 187500.0, 187500.0, 3012.16578628609, -26239.204554462976, 0.736, -0.612, 0.374, 192.0, 0.0, 0.0, 0.0, 0.0, 0.0, 0.0, 0.0, 0.0, 0.0, 1.6635879180686846E9, 0.0, 2022-09-19 16:45:18.068
212.0, -12084.96237813978, -10918.15661408384, -21218.958046312102, -17054.649240332754, 187500.0, 187500.0, 3014.825643876272, -26245.66420861056, 0.736, -0.612, 0.374, 192.0, 0.0, 0.0, 0.0, 0.0, 0.0, 0.0, 0.0, 0.0, 0.0, 1.663587918071708E9, 0.0, 2022-09-19 16:45:18.071
213.0, -12092.092584621023, -10926.940849654777, -21225.976494071067, -17061.064190991427, 187500.0, 187500.0, 3033.668164452096, -26247.34058944471, 0.736, -0.612, 0.374, 192.0, 0.0, 0.0, 0.0, 0.0, 0.0, 0.0, 0.0, 0.0, 0.0, 1.6635879180756893E9, 0.0, 2022-09-19 16:45:18.075
214.0, -12105.68244524985, -10914.669741948814, -21217.885162578244, -17053.28578392098, 187500.0, 187500.0, 3003.917992582082, -26239.405720163075, 0.736, -0.612, 0.374, 192.0, 0.0, 0.0, 0.0, 0.0, 0.0, 0.0, 0.0, 0.0, 0.0, 1.663587918079704E9, 0.0, 2022-09-19 16:45:18.079
215.0, -12119.07114017858, -10926.8290909325, -21214.375938698762, -17052.86110077633, 187500.0, 187500.0, 2948.2174453994567, -26237.170545717545, 0.736, -0.612, 0.374, 192.0, 0.0, 0.0, 0.0, 0.0, 0.0, 0.0, 0.0, 0.0, 0.0, 1.66358791808382E9, 0.0, 2022-09-19 16:45:18.083
216.0, -12115.941895954837, -10930.58418400099, -21212.699557864617, -17050.491815864065, 187500.0, 187500.0, 2930.693677746496, -26235.091833483202, 0.736, -0.612, 0.374, 192.0, 0.0, 0.0, 0.0, 0.0, 0.0, 0.0, 0.0, 0.0, 0.0, 1.663587918087751E9, 0.0, 2022-09-19 16:45:18.087
217.0, -12103.268456848677, -10909.148861068352, -21215.471174177073, -17053.53165310999, 187500.0, 187500.0, 2945.8928639761048, -26241.32797018623, 0.736, -0.612, 0.374, 192.0, 0.0, 0.0, 0.0, 0.0, 0.0, 0.0, 0.0, 0.0, 0.0, 1.6635879180916903E9, 0.0, 2022-09-19 16:45:18.091
218.0, -12090.326796809053, -10914.110948337431, -21217.661645133692, -17058.761961312528, 187500.0, 187500.0, 2975.106593979191, -26243.965476031957, 0.736, -0.612, 0.374, 192.0, 0.0, 0.0, 0.0, 0.0, 0.0, 0.0, 0.0, 0.0, 0.0, 1.6635879180947266E9, 0.0, 2022-09-19 16:45:18.094
219.0, -12101.592076014529, -10924.616268231424, -21218.131031767254, -17055.18568219968, 187500.0, 187500.0, 2950.1620471670685, -26238.824574807237, 0.736, -0.612, 0.374, 192.0, 0.0, 0.0, 0.0, 0.0, 0.0, 0.0, 0.0, 0.0, 0.0, 1.663587918099874E9, 0.0, 2022-09-19 16:45:18.099
220.0, -12113.885535464948, -10937.133245126397, -21220.38855795724, -17052.302307164944, 187500.0, 187500.0, 2902.6869419439963, -26239.696292840996, 0.74, -0.61, 0.376, 192.0, 23.0, 32.0, 236.0, 240.0, 11.0, 192.0, 0.0, 0.0, 0.0, 1.6635879181037831E9, 0.0, 2022-09-19 16:45:18.103
221.0, -12128.92825948337, -10961.898977982877, -21228.658703405705, -17061.064190991427, 187500.0, 187500.0, 2887.5548109477536, -26244.546621387795, 0.74, -0.61, 0.376, 192.0, 0.0, 0.0, 0.0, 0.0, 0.0, 0.0, 0.0, 0.0, 0.0, 1.6635879181077485E9, 0.0, 2022-09-19 16:45:18.107
222.0, -12113.214983131289, -10933.288745080084, -21233.799604630425, -17063.634641603785, 187500.0, 187500.0, 2907.8054914242616, -26244.948952787992, 0.74, -0.61, 0.376, 192.0, 0.0, 0.0, 0.0, 0.0, 0.0, 0.0, 0.0, 0.0, 0.0, 1.6635879181118095E9, 0.0, 2022-09-19 16:45:18.111
223.0, -12101.34620682552, -10935.613326503435, -21238.91815411069, -17069.200225973156, 187500.0, 187500.0, 2939.120285406147, -26249.799281334792, 0.74, -0.61, 0.376, 192.0, 0.0, 0.0, 0.0, 0.0, 0.0, 0.0, 0.0, 0.0, 0.0, 1.6635879181158187E9, 0.0, 2022-09-19 16:45:18.115
224.0, -12112.58913428654, -10947.325640598017, -21240.348665755828, -17071.23423471859, 187500.0, 187500.0, 2921.015372397348, -26255.677790126538, 0.74, -0.61, 0.376, 192.0, 0.0, 0.0, 0.0, 0.0, 0.0, 0.0, 0.0, 0.0, 0.0, 1.6635879181198208E9, 0.0, 2022-09-19 16:45:18.119
225.0, -12134.82912001957, -10958.054477936565, -21240.88510762276, -17072.396525430268, 187500.0, 187500.0, 2875.417813708522, -26253.71083661447, 0.74, -0.61, 0.376, 192.0, 0.0, 0.0, 0.0, 0.0, 0.0, 0.0, 0.0, 0.0, 0.0, 1.6635879181228116E9, 0.0, 2022-09-19 16:45:18.122
226.0, -12116.29952386612, -10921.174099585307, -21242.025046589977, -17063.56758637042, 187500.0, 187500.0, 2867.4829444268876, -26245.820670821748, 0.74, -0.61, 0.376, 192.0, 0.0, 0.0, 0.0, 0.0, 0.0, 0.0, 0.0, 0.0, 0.0, 1.6635879181267836E9, 0.0, 2022-09-19 16:45:18.126
227.0, -12099.334549824544, -10899.381148741382, -21239.499299466526, -17058.24787119006, 187500.0, 187500.0, 2891.153441805058, -26239.316313185253, 0.74, -0.61, 0.376, 192.0, 0.0, 0.0, 0.0, 0.0, 0.0, 0.0, 0.0, 0.0, 0.0, 1.6635879181318474E9, 0.0, 2022-09-19 16:45:18.131
228.0, -12104.721320238272, -10937.490873037681, -21245.82484314738, -17069.04376376197, 187500.0, 187500.0, 2922.892918931594, -26246.46887141095, 0.74, -0.61, 0.376, 192.0, 0.0, 0.0, 0.0, 0.0, 0.0, 0.0, 0.0, 0.0, 0.0, 1.6635879181357725E9, 0.0, 2022-09-19 16:45:18.135
229.0, -12112.611486030995, -10959.306175626061, -21244.57314545788, -17070.18370272919, 187500.0, 187500.0, 2904.4527297559657, -26246.737092344418, 0.74, -0.61, 0.376, 192.0, 0.0, 0.0, 0.0, 0.0, 0.0, 0.0, 0.0, 0.0, 0.0, 1.6635879181397903E9, 0.0, 2022-09-19 16:45:18.139
230.0, -12101.927352181357, -10907.181907556285, -21228.278723749965, -17056.95147001165, 187500.0, 187500.0, 2866.4324124374884, -26238.869278296148, 0.74, -0.606, 0.378, 192.0, 23.0, 32.0, 237.0, 16.0, 11.0, 208.0, 0.0, 0.0, 0.0, 1.6635879181438503E9, 0.0, 2022-09-19 16:45:18.143
231.0, -12098.418128301875, -10888.808773614022, -21225.596514415327, -17056.526786866998, 187500.0, 187500.0, 2859.3022059562454, -26237.28230443982, 0.74, -0.606, 0.378, 192.0, 0.0, 0.0, 0.0, 0.0, 0.0, 0.0, 0.0, 0.0, 0.0, 1.663587918147872E9, 0.0, 2022-09-19 16:45:18.147
232.0, -12104.67661674936, -10918.223669317207, -21234.29134300844, -17066.070981749413, 187500.0, 187500.0, 2880.7822323777955, -26246.446519666497, 0.74, -0.606, 0.378, 192.0, 0.0, 0.0, 0.0, 0.0, 0.0, 0.0, 0.0, 0.0, 0.0, 1.663587918150803E9, 0.0, 2022-09-19 16:45:18.150
233.0, -12104.386044071442, -10922.78342518609, -21242.58384020136, -17069.96018528464, 187500.0, 187500.0, 2916.9697066509375, -26250.112205757167, 0.74, -0.606, 0.378, 192.0, 0.0, 0.0, 0.0, 0.0, 0.0, 0.0, 0.0, 0.0, 0.0, 1.6635879181568718E9, 0.0, 2022-09-19 16:45:18.156
234.0, -12106.174183627867, -10933.825186947011, -21240.10279656682, -17067.27797595, 187500.0, 187500.0, 2905.3020960452673, -26249.061673767766, 0.74, -0.606, 0.378, 192.0, 0.0, 0.0, 0.0, 0.0, 0.0, 0.0, 0.0, 0.0, 0.0, 1.66358791815994E9, 0.0, 2022-09-19 16:45:18.159
235.0, -12101.837945203537, -10931.947640412765, -21235.05130231992, -17062.38294391429, 187500.0, 187500.0, 2869.4946014278653, -26241.77500507534, 0.74, -0.606, 0.378, 192.0, 0.0, 0.0, 0.0, 0.0, 0.0, 0.0, 0.0, 0.0, 0.0, 1.6635879181638465E9, 0.0, 2022-09-19 16:45:18.163
236.0, -12097.76992771267, -10927.678457221802, -21236.995904087533, -17066.540368382975, 187500.0, 187500.0, 2861.760897846329, -26245.552449888284, 0.74, -0.606, 0.378, 192.0, 0.0, 0.0, 0.0, 0.0, 0.0, 0.0, 0.0, 0.0, 0.0, 1.6635879181678877E9, 0.0, 2022-09-19 16:45:18.167
237.0, -12108.811689473592, -10956.556911058058, -21242.449729734628, -17066.450961405153, 187500.0, 187500.0, 2885.8784301136056, -26250.022798779348, 0.74, -0.606, 0.378, 192.0, 0.0, 0.0, 0.0, 0.0, 0.0, 0.0, 0.0, 0.0, 0.0, 1.663587918170886E9, 0.0, 2022-09-19 16:45:18.170
238.0, -12097.479355034751, -10939.815454461033, -21245.221346047085, -17065.579243371398, 187500.0, 187500.0, 2929.799607968284, -26254.850775581694, 0.74, -0.606, 0.378, 192.0, 0.0, 0.0, 0.0, 0.0, 0.0, 0.0, 0.0, 0.0, 0.0, 1.6635879181748602E9, 0.0, 2022-09-19 16:45:18.174
239.0, -12088.62806423045, -10884.517238678603, -21242.67324717918, -17060.61715610232, 187500.0, 187500.0, 2920.5906892526973, -26256.3483424602, 0.74, -0.606, 0.378, 192.0, 0.0, 0.0, 0.0, 0.0, 0.0, 0.0, 0.0, 0.0, 0.0, 1.66358791817887E9, 0.0, 2022-09-19 16:45:18.178
240.0, -12096.384119556442, -10887.668834646802, -21236.52651745397, -17053.241080432068, 187500.0, 187500.0, 2882.995055078871, -26245.395987677097, 0.736, -0.614, 0.382, 192.0, 23.0, 0.0, 236.0, 208.0, 11.0, 240.0, 0.0, 0.0, 0.0, 1.6635879181828969E9, 0.0, 2022-09-19 16:45:18.182
241.0, -12088.762174697182, -10897.101270806941, -21236.638276176247, -17052.347010653855, 187500.0, 187500.0, 2877.8541538541504, -26242.780833575827, 0.736, -0.614, 0.382, 192.0, 0.0, 0.0, 0.0, 0.0, 0.0, 0.0, 0.0, 0.0, 0.0, 1.6635879181879117E9, 0.0, 2022-09-19 16:45:18.187
242.0, -12075.887569890925, -10908.366550012417, -21237.621752932282, -17054.291612421468, 187500.0, 187500.0, 2902.351665777167, -26242.020874264348, 0.736, -0.614, 0.382, 192.0, 0.0, 0.0, 0.0, 0.0, 0.0, 0.0, 0.0, 0.0, 0.0, 1.6635879181919272E9, 0.0, 2022-09-19 16:45:18.191
243.0, -12070.34433726601, -10906.44429998926, -21240.661590178202, -17056.035048488982, 187500.0, 187500.0, 2941.467218573954, -26238.757519573872, 0.736, -0.614, 0.382, 192.0, 0.0, 0.0, 0.0, 0.0, 0.0, 0.0, 0.0, 0.0, 0.0, 1.6635879181959345E9, 0.0, 2022-09-19 16:45:18.195
244.0, -12093.34428231052, -10926.024428132108, -21238.82874713287, -17055.543310110967, 187500.0, 187500.0, 2927.0950468891915, -26244.47956615443, 0.736, -0.614, 0.382, 192.0, 0.0, 0.0, 0.0, 0.0, 0.0, 0.0, 0.0, 0.0, 0.0, 1.663587918198949E9, 0.0, 2022-09-19 16:45:18.198
245.0, -12103.089642893034, -10934.629849747402, -21235.67715116467, -17053.688115321173, 187500.0, 187500.0, 2886.347816747167, -26241.75265333088, 0.736, -0.614, 0.382, 192.0, 0.0, 0.0, 0.0, 0.0, 0.0, 0.0, 0.0, 0.0, 0.0, 1.6635879182029042E9, 0.0, 2022-09-19 16:45:18.202
246.0, -12105.973017927769, -10929.041913633575, -21232.68201740766, -17054.224557188103, 187500.0, 187500.0, 2876.8483253536615, -26240.210382963465, 0.736, -0.614, 0.382, 192.0, 0.0, 0.0, 0.0, 0.0, 0.0, 0.0, 0.0, 0.0, 0.0, 1.6635879182069652E9, 0.0, 2022-09-19 16:45:18.206
247.0, -12097.188782356834, -10920.190622829274, -21236.928848854168, -17058.449036890153, 187500.0, 187500.0, 2898.3730552641223, -26245.23952546591, 0.736, -0.614, 0.382, 192.0, 0.0, 0.0, 0.0, 0.0, 0.0, 0.0, 0.0, 0.0, 0.0, 1.6635879182109513E9, 0.0, 2022-09-19 16:45:18.210
248.0, -12085.387061284431, -10928.930154911299, -21244.97547685808, -17064.79693231546, 187500.0, 187500.0, 2935.5440062932976, -26252.034455780326, 0.736, -0.614, 0.382, 192.0, 0.0, 0.0, 0.0, 0.0, 0.0, 0.0, 0.0, 0.0, 0.0, 1.663587918214953E9, 0.0, 2022-09-19 16:45:18.214
249.0, -12083.82243917256, -10929.243079333673, -21239.029912832968, -17063.74640032606, 187500.0, 187500.0, 2922.5576427647643, -26257.66709538306, 0.736, -0.614, 0.382, 192.0, 0.0, 0.0, 0.0, 0.0, 0.0, 0.0, 0.0, 0.0, 0.0, 1.6635879182199287E9, 0.0, 2022-09-19 16:45:18.219
250.0, -12088.53865725263, -10928.438416533281, -21229.77629062847, -17055.69977232215, 187500.0, 187500.0, 2882.279799256301, -26249.776929590338, 0.734, -0.606, 0.382, 192.0, 22.0, 240.0, 237.0, 16.0, 11.0, 240.0, 0.0, 0.0, 0.0, 1.6635879182242253E9, 0.0, 2022-09-19 16:45:18.224
251.0, -12090.48325902024, -10938.004963160154, -21228.949276083622, -17057.66672583422, 187500.0, 187500.0, 2872.4897351848767, -26244.636028365618, 0.734, -0.606, 0.382, 192.0, 0.0, 0.0, 0.0, 0.0, 0.0, 0.0, 0.0, 0.0, 0.0, 1.6635879182270455E9, 0.0, 2022-09-19 16:45:18.227
252.0, -12090.3044450646, -10948.376172587416, -21228.54694468343, -17062.18177821419, 187500.0, 187500.0, 2890.639351682586, -26248.078197011735, 0.734, -0.606, 0.382, 192.0, 0.0, 0.0, 0.0, 0.0, 0.0, 0.0, 0.0, 0.0, 0.0, 1.663587918230965E9, 0.0, 2022-09-19 16:45:18.230
253.0, -12078.68153794784, -10923.990419386677, -21230.715063895594, -17061.734743325083, 187500.0, 187500.0, 2923.8093404542615, -26250.20161273499, 0.734, -0.606, 0.382, 192.0, 0.0, 0.0, 0.0, 0.0, 0.0, 0.0, 0.0, 0.0, 0.0, 1.6635879182349453E9, 0.0, 2022-09-19 16:45:18.234
254.0, -12082.838962416527, -10920.01180887363, -21230.804470873412, -17060.259528191036, 187500.0, 187500.0, 2909.4818722584096, -26250.268667968354, 0.734, -0.606, 0.382, 192.0, 0.0, 0.0, 0.0, 0.0, 0.0, 0.0, 0.0, 0.0, 0.0, 1.663587918239026E9, 0.0, 2022-09-19 16:45:18.239
255.0, -12095.467698033775, -10946.565681286536, -21224.166002770187, -17056.99617350056, 187500.0, 187500.0, 2870.18750550598, -26244.05488300978, 0.734, -0.606, 0.382, 192.0, 0.0, 0.0, 0.0, 0.0, 0.0, 0.0, 0.0, 0.0, 0.0, 1.663587918244001E9, 0.0, 2022-09-19 16:45:18.244
0.0, -12096.205305600799, -10918.49189025067, -21220.209744001597, -17051.85527227584, 187500.0, 187500.0, 2865.3595287036337, -26238.62340910714, 0.734, -0.606, 0.382, 192.0, 0.0, 0.0, 0.0, 0.0, 0.0, 0.0, 0.0, 0.0, 0.0, 1.6635879182489705E9, 0.0, 2022-09-19 16:45:18.248
1.0, -12081.542561238119, -10916.122605338407, -21226.24471500453, -17054.76099905503, 187500.0, 187500.0, 2888.3594737481444, -26241.305618441776, 0.734, -0.606, 0.382, 192.0, 0.0, 0.0, 0.0, 0.0, 0.0, 0.0, 0.0, 0.0, 0.0, 1.6635879182530067E9, 0.0, 2022-09-19 16:45:18.253
2.0, -12062.05184007309, -10920.861175162932, -21233.2631627635, -17061.600632858353, 187500.0, 187500.0, 2924.636354999108, -26252.30267671379, 0.734, -0.606, 0.382, 192.0, 0.0, 0.0, 0.0, 0.0, 0.0, 0.0, 0.0, 0.0, 0.0, 1.6635879182560236E9, 0.0, 2022-09-19 16:45:18.256
3.0, -12052.641755657407, -10904.946733110755, -21227.29524699393, -17049.79891178595, 187500.0, 187500.0, 2913.9745728939265, -26239.361016674164, 0.734, -0.606, 0.382, 192.0, 0.0, 0.0, 0.0, 0.0, 0.0, 0.0, 0.0, 0.0, 0.0, 1.6635879182600503E9, 0.0, 2022-09-19 16:45:18.260
4.0, -12060.464866216764, -10932.573489257515, -21218.890991078733, -17048.27899316299, 187500.0, 187500.0, 2873.7190811299183, -26237.10349048418, 0.734, -0.602, 0.388, 192.0, 22.0, 240.0, 237.0, 48.0, 12.0, 32.0, 0.0, 0.0, 0.0, 1.6635879182630956E9, 0.0, 2022-09-19 16:45:18.263
5.0, -12078.815648414571, -10974.572417089035, -21223.00371205851, -17058.67255433471, 187500.0, 187500.0, 2862.8561333246394, -26248.1452522451, 0.734, -0.602, 0.388, 192.0, 0.0, 0.0, 0.0, 0.0, 0.0, 0.0, 0.0, 0.0, 0.0, 1.6635879182670383E9, 0.0, 2022-09-19 16:45:18.267
6.0, -12064.219959285256, -10915.11677683792, -21219.91917132368, -17057.24204268957, 187500.0, 187500.0, 2888.9406191039825, -26248.793452834303, 0.734, -0.602, 0.388, 192.0, 0.0, 0.0, 0.0, 0.0, 0.0, 0.0, 0.0, 0.0, 0.0, 1.6635879182710853E9, 0.0, 2022-09-19 16:45:18.271
7.0, -12056.732124892727, -10908.187736056774, -21220.947351568622, -17060.013659002027, 187500.0, 187500.0, 2928.5479102787867, -26248.592287134208, 0.734, -0.602, 0.388, 192.0, 0.0, 0.0, 0.0, 0.0, 0.0, 0.0, 0.0, 0.0, 0.0, 1.6635879182750387E9, 0.0, 2022-09-19 16:45:18.275
8.0, -12060.48721796122, -10879.689261876258, -21211.87254331977, -17050.17889144169, 187500.0, 187500.0, 2919.406046796566, -26244.30075219879, 0.734, -0.602, 0.388, 192.0, 0.0, 0.0, 0.0, 0.0, 0.0, 0.0, 0.0, 0.0, 0.0, 1.6635879182801244E9, 0.0, 2022-09-19 16:45:18.280
9.0, -12056.620366170451, -10873.319014706494, -21206.15049673921, -17040.70175179264, 187500.0, 187500.0, 2880.7375288888848, -26237.014083506358, 0.734, -0.602, 0.388, 192.0, 0.0, 0.0, 0.0, 0.0, 0.0, 0.0, 0.0, 0.0, 0.0, 1.6635879182830772E9, 0.0, 2022-09-19 16:45:18.283
10.0, -12059.43668597182, -10894.217895772206, -21211.49256366403, -17047.09435070686, 187500.0, 187500.0, 2870.6568921395415, -26241.596191119694, 0.734, -0.602, 0.388, 192.0, 0.0, 0.0, 0.0, 0.0, 0.0, 0.0, 0.0, 0.0, 0.0, 1.6635879182871292E9, 0.0, 2022-09-19 16:45:18.287
11.0, -12056.620366170451, -10912.769843670112, -21215.8064503439, -17054.04574323246, 187500.0, 187500.0, 2892.0698633277257, -26244.568973132253, 0.734, -0.602, 0.388, 192.0, 0.0, 0.0, 0.0, 0.0, 0.0, 0.0, 0.0, 0.0, 0.0, 1.663587918291074E9, 0.0, 2022-09-19 16:45:18.291
12.0, -12062.029488328635, -10938.362591071438, -21220.54502016843, -17062.114722980827, 187500.0, 187500.0, 2925.6421834995967, -26252.1462145026, 0.734, -0.602, 0.388, 192.0, 0.0, 0.0, 0.0, 0.0, 0.0, 0.0, 0.0, 0.0, 0.0, 1.6635879182950864E9, 0.0, 2022-09-19 16:45:18.295
13.0, -12083.420107772365, -10949.896091210378, -21223.070767291876, -17065.489836393575, 187500.0, 187500.0, 2910.934735648005, -26249.843984823703, 0.734, -0.602, 0.388, 192.0, 0.0, 0.0, 0.0, 0.0, 0.0, 0.0, 0.0, 0.0, 0.0, 1.6635879182990875E9, 0.0, 2022-09-19 16:45:18.299
14.0, -12084.403584528398, -10933.713428224735, -21227.54111618294, -17062.695868336665, 187500.0, 187500.0, 2871.1039270286474, -26242.42320566454, 0.738, -0.606, 0.392, 192.0, 23.0, 16.0, 237.0, 16.0, 12.0, 64.0, 0.0, 0.0, 0.0, 1.66358791830311E9, 0.0, 2022-09-19 16:45:18.303
15.0, -12072.490104733719, -10906.913686622822, -21226.579991171362, -17062.628813103296, 187500.0, 187500.0, 2859.3245577007006, -26241.596191119694, 0.738, -0.606, 0.392, 192.0, 0.0, 0.0, 0.0, 0.0, 0.0, 0.0, 0.0, 0.0, 0.0, 1.6635879183070738E9, 0.0, 2022-09-19 16:45:18.307
16.0, -12057.067401059558, -10879.577503153982, -21221.43908994664, -17057.085580478382, 187500.0, 187500.0, 2877.1388980315805, -26238.95868527397, 0.738, -0.606, 0.392, 192.0, 0.0, 0.0, 0.0, 0.0, 0.0, 0.0, 0.0, 0.0, 0.0, 1.6635879183101788E9, 0.0, 2022-09-19 16:45:18.310
17.0, -12057.20151152629, -10906.690169178268, -21224.143651025734, -17058.449036890153, 187500.0, 187500.0, 2909.6159827251417, -26241.484432397418, 0.738, -0.606, 0.392, 192.0, 0.0, 0.0, 0.0, 0.0, 0.0, 0.0, 0.0, 0.0, 0.0, 1.663587918315161E9, 0.0, 2022-09-19 16:45:18.315
18.0, -12075.932273379836, -10951.21484413324, -21230.37978772876, -17060.728914824595, 187500.0, 187500.0, 2892.0698633277257, -26246.401816177586, 0.738, -0.606, 0.392, 192.0, 0.0, 0.0, 0.0, 0.0, 0.0, 0.0, 0.0, 0.0, 0.0, 1.663587918319126E9, 0.0, 2022-09-19 16:45:18.319
19.0, -12081.430802515843, -10926.024428132108, -21227.317598738384, -17061.354763669344, 187500.0, 187500.0, 2844.3041854267344, -26252.548545902795, 0.738, -0.606, 0.392, 192.0, 0.0, 0.0, 0.0, 0.0, 0.0, 0.0, 0.0, 0.0, 0.0, 1.6635879183231845E9, 0.0, 2022-09-19 16:45:18.323
20.0, -12090.3044450646, -10913.038064603576, -21226.982322571555, -17059.253699690547, 187500.0, 187500.0, 2828.8144265192063, -26247.2958859558, 0.738, -0.606, 0.392, 192.0, 0.0, 0.0, 0.0, 0.0, 0.0, 0.0, 0.0, 0.0, 0.0, 1.6635879183291717E9, 0.0, 2022-09-19 16:45:18.329
21.0, -12084.381232783942, -10895.827221372989, -21230.357435984308, -17061.220653202614, 187500.0, 187500.0, 2844.6171098491086, -26250.022798779348, 0.738, -0.606, 0.392, 192.0, 0.0, 0.0, 0.0, 0.0, 0.0, 0.0, 0.0, 0.0, 0.0, 1.6635879183322694E9, 0.0, 2022-09-19 16:45:18.332
22.0, -12056.24038651471, -10884.405479956327, -21231.96676158509, -17065.646298604763, 187500.0, 187500.0, 2876.5577526757424, -26254.828423837236, 0.738, -0.606, 0.392, 192.0, 0.0, 0.0, 0.0, 0.0, 0.0, 0.0, 0.0, 0.0, 0.0, 1.6635879183351712E9, 0.0, 2022-09-19 16:45:18.335
23.0, -12066.43278198633, -10903.203297043241, -21230.20097377312, -17064.57341487091, 187500.0, 187500.0, 2857.9834530333824, -26252.1462145026, 0.738, -0.606, 0.392, 192.0, 0.0, 0.0, 0.0, 0.0, 0.0, 0.0, 0.0, 0.0, 0.0, 1.663587918338176E9, 0.0, 2022-09-19 16:45:18.338
24.0, -12084.291825806122, -10927.365532799427, -21229.59747667283, -17065.735705582585, 187500.0, 187500.0, 2813.503481567321, -26246.737092344418, 0.738, -0.606, 0.392, 192.0, 0.0, 0.0, 0.0, 0.0, 0.0, 0.0, 0.0, 0.0, 0.0, 1.6635879183432915E9, 0.0, 2022-09-19 16:45:18.343
25.0, -12086.72816595175, -10930.740646212178, -21229.888049350746, -17063.656993348242, 187500.0, 187500.0, 2801.8805744505617, -26244.43486266552, 0.736, -0.61, 0.394, 192.0, 23.0, 0.0, 236.0, 240.0, 12.0, 80.0, 0.0, 0.0, 0.0, 1.6635879183473322E9, 0.0, 2022-09-19 16:45:18.347
26.0, -12083.017776372168, -10921.68818970778, -21232.525555196473, -17062.002964258547, 187500.0, 187500.0, 2818.3314583696674, -26243.76431033186, 0.736, -0.61, 0.394, 192.0, 0.0, 0.0, 0.0, 0.0, 0.0, 0.0, 0.0, 0.0, 0.0, 1.6635879183511736E9, 0.0, 2022-09-19 16:45:18.351
27.0, -12086.906979907391, -10942.654126006857, -21238.20289828812, -17067.322679438912, 187500.0, 187500.0, 2847.098153483648, -26248.681694112027, 0.736, -0.61, 0.394, 192.0, 0.0, 0.0, 0.0, 0.0, 0.0, 0.0, 0.0, 0.0, 0.0, 1.6635879183551767E9, 0.0, 2022-09-19 16:45:18.355
28.0, -12094.01483464418, -10929.466596778226, -21237.666456421193, -17064.886339293284, 187500.0, 187500.0, 2830.222586419891, -26253.219098236455, 0.736, -0.61, 0.394, 192.0, 0.0, 0.0, 0.0, 0.0, 0.0, 0.0, 0.0, 0.0, 0.0, 1.6635879183592873E9, 0.0, 2022-09-19 16:45:18.359
29.0, -12083.576569983552, -10918.87186990641, -21235.028950575466, -17061.220653202614, 187500.0, 187500.0, 2783.9768271418607, -26247.452348166986, 0.736, -0.61, 0.394, 192.0, 0.0, 0.0, 0.0, 0.0, 0.0, 0.0, 0.0, 0.0, 0.0, 1.6635879183633084E9, 0.0, 2022-09-19 16:45:18.363
30.0, -12079.687366448328, -10935.345105569972, -21234.73837789755, -17065.266318949023, 187500.0, 187500.0, 2767.3918327560227, -26249.82163307925, 0.736, -0.61, 0.394, 192.0, 0.0, 0.0, 0.0, 0.0, 0.0, 0.0, 0.0, 0.0, 0.0, 1.6635879183662677E9, 0.0, 2022-09-19 16:45:18.366
31.0, -12077.228674558244, -10953.74059125669, -21238.02408433248, -17068.95435678415, 187500.0, 187500.0, 2784.9826556423495, -26253.66613312556, 0.736, -0.61, 0.394, 192.0, 0.0, 0.0, 0.0, 0.0, 0.0, 0.0, 0.0, 0.0, 0.0, 1.6635879183712535E9, 0.0, 2022-09-19 16:45:18.371
32.0, -12078.569779225563, -10957.674498280823, -21248.73056992657, -17075.70458360965, 187500.0, 187500.0, 2818.152644414025, -26256.705970371484, 0.736, -0.61, 0.394, 192.0, 0.0, 0.0, 0.0, 0.0, 0.0, 0.0, 0.0, 0.0, 0.0, 1.6635879183753211E9, 0.0, 2022-09-19 16:45:18.375
33.0, -12078.905055392392, -10915.675570449303, -21248.26118329301, -17070.56368238493, 187500.0, 187500.0, 2804.383969829556, -26252.190917991513, 0.736, -0.61, 0.394, 192.0, 0.0, 0.0, 0.0, 0.0, 0.0, 0.0, 0.0, 0.0, 0.0, 1.6635879183792336E9, 0.0, 2022-09-19 16:45:18.379
34.0, -12085.856447917993, -10915.049721604553, -21240.080444822364, -17060.46069389113, 187500.0, 187500.0, 2762.474448975855, -26242.937295787015, 0.736, -0.61, 0.394, 192.0, 0.0, 0.0, 0.0, 0.0, 0.0, 0.0, 0.0, 0.0, 0.0, 1.6635879183832576E9, 0.0, 2022-09-19 16:45:18.383
35.0, -12081.497857749207, -10926.896146165866, -21236.437110476152, -17060.751266569052, 187500.0, 187500.0, 2752.997309326805, -26242.2443917089, 0.734, -0.602, 0.388, 192.0, 22.0, 240.0, 237.0, 48.0, 12.0, 32.0, 0.0, 0.0, 0.0, 1.6635879183872883E9, 0.0, 2022-09-19 16:45:18.387
36.0, -12070.746668666205, -10905.885506377877, -21237.59940118783, -17063.433475903686, 187500.0, 187500.0, 2773.3597485255896, -26242.490260897906, 0.734, -0.602, 0.388, 192.0, 0.0, 0.0, 0.0, 0.0, 0.0, 0.0, 0.0, 0.0, 0.0, 1.6635879183903172E9, 0.0, 2022-09-19 16:45:18.390
37.0, -12062.834151129025, -10900.409328986327, -21240.348665755828, -17069.33433643989, 187500.0, 187500.0, 2812.765874000296, -26248.636990623116, 0.734, -0.602, 0.388, 192.0, 0.0, 0.0, 0.0, 0.0, 0.0, 0.0, 0.0, 0.0, 0.0, 1.66358791839426E9, 0.0, 2022-09-19 16:45:18.394
38.0, -12077.787468169627, -10921.375265285405, -21239.700465166625, -17065.780409071496, 187500.0, 187500.0, 2805.680371007964, -26245.73126384393, 0.734, -0.602, 0.388, 192.0, 0.0, 0.0, 0.0, 0.0, 0.0, 0.0, 0.0, 0.0, 0.0, 1.6635879183994255E9, 0.0, 2022-09-19 16:45:18.399
39.0, -12087.465773518774, -10931.277088079107, -21244.14846231323, -17069.46844690662, 187500.0, 187500.0, 2765.5142862217767, -26250.156909246078, 0.734, -0.602, 0.388, 192.0, 0.0, 0.0, 0.0, 0.0, 0.0, 0.0, 0.0, 0.0, 0.0, 1.6635879184033384E9, 0.0, 2022-09-19 16:45:18.403
40.0, -12077.139267580424, -10919.765939684623, -21238.940505855146, -17068.90965329524, 187500.0, 187500.0, 2758.3617279960786, -26248.167603989557, 0.734, -0.602, 0.388, 192.0, 0.0, 0.0, 0.0, 0.0, 0.0, 0.0, 0.0, 0.0, 0.0, 1.6635879184073434E9, 0.0, 2022-09-19 16:45:18.407
41.0, -12064.28701451862, -10903.829145887988, -21234.06782556389, -17069.267281206525, 187500.0, 187500.0, 2780.936989895939, -26248.547583645297, 0.734, -0.602, 0.388, 192.0, 0.0, 0.0, 0.0, 0.0, 0.0, 0.0, 0.0, 0.0, 0.0, 1.6635879184112923E9, 0.0, 2022-09-19 16:45:18.411
42.0, -12064.108200562978, -10927.097311865964, -21242.516784967993, -17075.52576965401, 187500.0, 187500.0, 2816.185690901958, -26252.81676683626, 0.734, -0.602, 0.388, 192.0, 0.0, 0.0, 0.0, 0.0, 0.0, 0.0, 0.0, 0.0, 0.0, 1.663587918415407E9, 0.0, 2022-09-19 16:45:18.415
43.0, -12077.116915835968, -10937.490873037681, -21242.025046589977, -17070.496627151566, 187500.0, 187500.0, 2805.6133157745976, -26251.76623484686, 0.734, -0.602, 0.388, 192.0, 0.0, 0.0, 0.0, 0.0, 0.0, 0.0, 0.0, 0.0, 0.0, 1.6635879184183652E9, 0.0, 2022-09-19 16:45:18.418
44.0, -12096.920561423369, -10950.49958831067, -21242.002694845523, -17071.14482774077, 187500.0, 187500.0, 2764.2625885322796, -26252.503842413884, 0.734, -0.602, 0.388, 192.0, 0.0, 0.0, 0.0, 0.0, 0.0, 0.0, 0.0, 0.0, 0.0, 1.6635879184223988E9, 0.0, 2022-09-19 16:45:18.422
45.0, -12091.44438403182, -10916.659047205336, -21245.57897395837, -17071.43540041869, 187500.0, 187500.0, 2753.0420128157157, -26257.3988744496, 0.738, -0.608, 0.39, 192.0, 23.0, 16.0, 237.0, 0.0, 12.0, 48.0, 0.0, 0.0, 0.0, 1.6635879184264684E9, 0.0, 2022-09-19 16:45:18.426
46.0, -12071.05959308858, -10895.15666903933, -21248.529404226472, -17073.24589171957, 187500.0, 187500.0, 2772.510382236288, -26257.063598282766, 0.738, -0.608, 0.39, 192.0, 0.0, 0.0, 0.0, 0.0, 0.0, 0.0, 0.0, 0.0, 0.0, 1.6635879184314563E9, 0.0, 2022-09-19 16:45:18.431
47.0, -12060.084886561024, -10897.861230118422, -21250.71987518309, -17075.45871442064, 187500.0, 187500.0, 2807.7590832423075, -26258.091778527712, 0.738, -0.608, 0.39, 192.0, 0.0, 0.0, 0.0, 0.0, 0.0, 0.0, 0.0, 0.0, 0.0, 1.6635879184354348E9, 0.0, 2022-09-19 16:45:18.435
48.0, -12064.666994174362, -10905.72904416669, -21250.67517169418, -17074.877569064807, 187500.0, 187500.0, 2795.353865069612, -26263.322086730255, 0.738, -0.608, 0.39, 192.0, 0.0, 0.0, 0.0, 0.0, 0.0, 0.0, 0.0, 0.0, 0.0, 1.663587918439404E9, 0.0, 2022-09-19 16:45:18.439
49.0, -12079.419145514865, -10926.136186854386, -21243.25439253502, -17069.04376376197, 187500.0, 187500.0, 2753.1984750269025, -26260.885746584627, 0.738, -0.608, 0.39, 192.0, 0.0, 0.0, 0.0, 0.0, 0.0, 0.0, 0.0, 0.0, 0.0, 1.66358791844243E9, 0.0, 2022-09-19 16:45:18.442
50.0, -12094.104241622, -10946.990364431187, -21242.561488456904, -17068.194397472667, 187500.0, 187500.0, 2738.803951597685, -26256.52715641584, 0.738, -0.608, 0.39, 192.0, 0.0, 0.0, 0.0, 0.0, 0.0, 0.0, 0.0, 0.0, 0.0, 1.66358791844644E9, 0.0, 2022-09-19 16:45:18.446
51.0, -12055.905110347881, -10924.795082187067, -21241.82388088988, -17066.51801663852, 187500.0, 187500.0, 2758.7864111407293, -26251.967400546957, 0.738, -0.608, 0.39, 192.0, 0.0, 0.0, 0.0, 0.0, 0.0, 0.0, 0.0, 0.0, 0.0, 1.6635879184504068E9, 0.0, 2022-09-19 16:45:18.450
52.0, -12051.85944460147, -10941.871814950922, -21241.0639215784, -17073.447057419668, 187500.0, 187500.0, 2797.611391259598, -26257.91296457207, 0.738, -0.608, 0.39, 192.0, 0.0, 0.0, 0.0, 0.0, 0.0, 0.0, 0.0, 0.0, 0.0, 1.663587918455433E9, 0.0, 2022-09-19 16:45:18.455
53.0, -12063.996441840702, -10966.682251296312, -21238.672284921682, -17067.434438161188, 187500.0, 187500.0, 2787.9107341659947, -26250.916868557557, 0.738, -0.608, 0.39, 192.0, 0.0, 0.0, 0.0, 0.0, 0.0, 0.0, 0.0, 0.0, 0.0, 1.6635879184594104E9, 0.0, 2022-09-19 16:45:18.459
54.0, -12059.704906905283, -10936.35093407046, -21228.837517361346, -17057.33144966739, 187500.0, 187500.0, 2748.9292918359392, -26245.172470232545, 0.738, -0.608, 0.39, 192.0, 0.0, 0.0, 0.0, 0.0, 0.0, 0.0, 0.0, 0.0, 0.0, 1.663587918463528E9, 0.0, 2022-09-19 16:45:18.463
55.0, -12051.546520179096, -10874.369546695894, -21225.931790582155, -17056.035048488982, 187500.0, 187500.0, 2740.4132771984673, -26249.57576389024, 0.746, -0.606, 0.388, 192.0, 23.0, 80.0, 237.0, 16.0, 12.0, 32.0, 0.0, 0.0, 0.0, 1.6635879184674325E9, 0.0, 2022-09-19 16:45:18.467
56.0, -12051.680630645827, -10888.33938698046, -21228.077558049867, -17062.09237123637, 187500.0, 187500.0, 2759.3005012632016, -26255.789548848814, 0.746, -0.606, 0.388, 192.0, 0.0, 0.0, 0.0, 0.0, 0.0, 0.0, 0.0, 0.0, 0.0, 1.663587918470448E9, 0.0, 2022-09-19 16:45:18.470
57.0, -12051.658278901372, -10927.186718843785, -21236.615924431793, -17072.75415334155, 187500.0, 187500.0, 2798.1701848709804, -26263.232679752433, 0.746, -0.606, 0.388, 192.0, 0.0, 0.0, 0.0, 0.0, 0.0, 0.0, 0.0, 0.0, 0.0, 1.6635879184744313E9, 0.0, 2022-09-19 16:45:18.474
58.0, -12057.022697570646, -10930.941811912277, -21236.0124273315, -17070.675441107207, 187500.0, 187500.0, 2791.419958045478, -26263.63501115263, 0.746, -0.606, 0.388, 192.0, 0.0, 0.0, 0.0, 0.0, 0.0, 0.0, 0.0, 0.0, 0.0, 1.6635879184784348E9, 0.0, 2022-09-19 16:45:18.478
59.0, -12068.466790731763, -10925.01859963162, -21234.470156964086, -17064.37224917081, 187500.0, 187500.0, 2753.310233749179, -26258.091778527712, 0.746, -0.606, 0.388, 192.0, 0.0, 0.0, 0.0, 0.0, 0.0, 0.0, 0.0, 0.0, 0.0, 1.6635879184824612E9, 0.0, 2022-09-19 16:45:18.482
60.0, -12066.142209308411, -10922.023465874609, -21232.838479618847, -17063.075847992404, 187500.0, 187500.0, 2744.7495156227965, -26253.308505214278, 0.746, -0.606, 0.388, 192.0, 0.0, 0.0, 0.0, 0.0, 0.0, 0.0, 0.0, 0.0, 0.0, 1.6635879184864593E9, 0.0, 2022-09-19 16:45:18.486
61.0, -12053.357011479977, -10930.941811912277, -21232.838479618847, -17061.04183924697, 187500.0, 187500.0, 2770.029338601749, -26251.0956825132, 0.746, -0.606, 0.388, 192.0, 0.0, 0.0, 0.0, 0.0, 0.0, 0.0, 0.0, 0.0, 0.0, 1.6635879184914224E9, 0.0, 2022-09-19 16:45:18.491
62.0, -12047.85848234397, -10941.648297506368, -21240.05809307791, -17066.205092216147, 187500.0, 187500.0, 2808.407283831511, -26256.95183956049, 0.746, -0.606, 0.388, 192.0, 0.0, 0.0, 0.0, 0.0, 0.0, 0.0, 0.0, 0.0, 0.0, 1.6635879184954836E9, 0.0, 2022-09-19 16:45:18.495
63.0, -12057.961470837769, -10945.671611508324, -21238.135843054755, -17063.32171718141, 187500.0, 187500.0, 2799.511289538299, -26255.208403492976, 0.746, -0.606, 0.388, 192.0, 0.0, 0.0, 0.0, 0.0, 0.0, 0.0, 0.0, 0.0, 0.0, 1.6635879184984765E9, 0.0, 2022-09-19 16:45:18.498
64.0, -12061.358935994976, -10910.579372713491, -21226.602342915816, -17049.19541468566, 187500.0, 187500.0, 2763.8826088765395, -26245.194821977, 0.746, -0.606, 0.388, 192.0, 0.0, 0.0, 0.0, 0.0, 0.0, 0.0, 0.0, 0.0, 0.0, 1.6635879185024488E9, 0.0, 2022-09-19 16:45:18.502
65.0, -12060.129590049934, -10906.131375566885, -21226.91526733819, -17049.396580385754, 187500.0, 187500.0, 2755.7242221503525, -26247.787624333814, 0.742, -0.602, 0.386, 192.0, 23.0, 48.0, 237.0, 48.0, 12.0, 16.0, 0.0, 0.0, 0.0, 1.6635879185065444E9, 0.0, 2022-09-19 16:45:18.506
66.0, -12055.547482436596, -10907.226611045196, -21236.59357268734, -17056.75030431155, 187500.0, 187500.0, 2773.091527592126, -26249.754577845884, 0.742, -0.602, 0.386, 192.0, 0.0, 0.0, 0.0, 0.0, 0.0, 0.0, 0.0, 0.0, 0.0, 1.6635879185105104E9, 0.0, 2022-09-19 16:45:18.510
67.0, -12051.926499834837, -10921.397617029861, -21241.890936123247, -17059.387810157277, 187500.0, 187500.0, 2810.933030954961, -26247.988790033913, 0.742, -0.602, 0.386, 192.0, 0.0, 0.0, 0.0, 0.0, 0.0, 0.0, 0.0, 0.0, 0.0, 1.663587918515494E9, 0.0, 2022-09-19 16:45:18.515
68.0, -12065.739877908216, -10942.54236728458, -21236.97355234308, -17059.23134794609, 187500.0, 187500.0, 2805.099225652126, -26250.134557501624, 0.742, -0.602, 0.386, 192.0, 0.0, 0.0, 0.0, 0.0, 0.0, 0.0, 0.0, 0.0, 0.0, 1.6635879185195055E9, 0.0, 2022-09-19 16:45:18.519
69.0, -12082.704851949795, -10958.993251203687, -21236.839441876346, -17052.168196698214, 187500.0, 187500.0, 2764.9778443548494, -26242.66907485355, 0.742, -0.602, 0.386, 192.0, 0.0, 0.0, 0.0, 0.0, 0.0, 0.0, 0.0, 0.0, 0.0, 1.663587918523542E9, 0.0, 2022-09-19 16:45:18.523
70.0, -12087.510477007685, -10948.398524331871, -21238.225250032574, -17051.05060947545, 187500.0, 187500.0, 2756.9535680953945, -26236.120013728145, 0.742, -0.602, 0.386, 192.0, 0.0, 0.0, 0.0, 0.0, 0.0, 0.0, 0.0, 0.0, 0.0, 1.6635879185265667E9, 0.0, 2022-09-19 16:45:18.526
71.0, -12071.707793677782, -10934.696904980769, -21239.231078533063, -17052.27995542049, 187500.0, 187500.0, 2778.970036383872, -26238.064615495758, 0.742, -0.602, 0.386, 192.0, 0.0, 0.0, 0.0, 0.0, 0.0, 0.0, 0.0, 0.0, 0.0, 1.6635879185305247E9, 0.0, 2022-09-19 16:45:18.530
72.0, -12067.930348864837, -10940.307192839051, -21239.45459597762, -17054.33631591038, 187500.0, 187500.0, 2817.3926851025444, -26242.914944042557, 0.742, -0.602, 0.386, 192.0, 0.0, 0.0, 0.0, 0.0, 0.0, 0.0, 0.0, 0.0, 0.0, 1.663587918534592E9, 0.0, 2022-09-19 16:45:18.534
73.0, -12062.655337173384, -10931.858233434945, -21234.58191568636, -17051.296478664455, 187500.0, 187500.0, 2809.8154437321955, -26244.144289987602, 0.742, -0.602, 0.386, 192.0, 0.0, 0.0, 0.0, 0.0, 0.0, 0.0, 0.0, 0.0, 0.0, 1.6635879185385978E9, 0.0, 2022-09-19 16:45:18.538
74.0, -12052.373534723942, -10903.717387165712, -21229.888049350746, -17046.93788849567, 187500.0, 187500.0, 2769.8505246461064, -26240.970342274948, 0.742, -0.602, 0.386, 192.0, 0.0, 0.0, 0.0, 0.0, 0.0, 0.0, 0.0, 0.0, 0.0, 1.6635879185425553E9, 0.0, 2022-09-19 16:45:18.542
75.0, -12057.760305137672, -10907.740701167668, -21230.737415640047, -17047.60844082933, 187500.0, 187500.0, 2757.154733795492, -26236.209420705967, 0.74, -0.612, 0.38, 192.0, 23.0, 32.0, 236.0, 224.0, 11.0, 224.0, 0.0, 0.0, 0.0, 1.6635879185475347E9, 0.0, 2022-09-19 16:45:18.547
76.0, -12038.962488050758, -10905.594933699958, -21234.58191568636, -17048.167234440712, 187500.0, 187500.0, 2776.2654753047796, -26235.784737561316, 0.74, -0.612, 0.38, 192.0, 0.0, 0.0, 0.0, 0.0, 0.0, 0.0, 0.0, 0.0, 0.0, 1.6635879185516465E9, 0.0, 2022-09-19 16:45:18.551
77.0, -12037.174348494334, -10932.595841001968, -21243.947296613132, -17054.425722888198, 187500.0, 187500.0, 2810.597754788131, -26240.836231808215, 0.74, -0.612, 0.38, 192.0, 0.0, 0.0, 0.0, 0.0, 0.0, 0.0, 0.0, 0.0, 0.0, 1.6635879185556333E9, 0.0, 2022-09-19 16:45:18.555
78.0, -12063.57175869605, -10936.753265470656, -21248.48470073756, -17055.833882788884, 187500.0, 187500.0, 2795.21975460288, -26243.272571953843, 0.74, -0.612, 0.38, 192.0, 0.0, 0.0, 0.0, 0.0, 0.0, 0.0, 0.0, 0.0, 0.0, 1.6635879185586784E9, 0.0, 2022-09-19 16:45:18.558
79.0, -12076.647529202406, -10947.146826642374, -21238.851098877323, -17052.771693798506, 187500.0, 187500.0, 2746.9846900683274, -26241.931467286526, 0.74, -0.612, 0.38, 192.0, 0.0, 0.0, 0.0, 0.0, 0.0, 0.0, 0.0, 0.0, 0.0, 1.6635879185626254E9, 0.0, 2022-09-19 16:45:18.562
80.0, -12053.334659735521, -10936.574451515015, -21236.034779075955, -17054.26926067701, 187500.0, 187500.0, 2732.3666491945564, -26243.965476031957, 0.74, -0.612, 0.38, 192.0, 0.0, 0.0, 0.0, 0.0, 0.0, 0.0, 0.0, 0.0, 0.0, 1.6635879185666392E9, 0.0, 2022-09-19 16:45:18.566
81.0, -12032.368723436442, -10909.461785490726, -21231.45267146262, -17047.362571640322, 187500.0, 187500.0, 2754.539579694221, -26237.796394562294, 0.74, -0.612, 0.38, 192.0, 0.0, 0.0, 0.0, 0.0, 0.0, 0.0, 0.0, 0.0, 0.0, 1.6635879185705876E9, 0.0, 2022-09-19 16:45:18.570
82.0, -12016.946019762281, -10905.997265100154, -21232.413796474197, -17041.886394248773, 187500.0, 187500.0, 2792.5151935237877, -26232.700196826485, 0.74, -0.612, 0.38, 192.0, 0.0, 0.0, 0.0, 0.0, 0.0, 0.0, 0.0, 0.0, 0.0, 1.663587918574606E9, 0.0, 2022-09-19 16:45:18.574
83.0, -12033.195737981288, -10941.201262617262, -21238.269953521485, -17048.14488269626, 187500.0, 187500.0, 2780.7805276847516, -26239.96451377446, 0.74, -0.612, 0.38, 192.0, 0.0, 0.0, 0.0, 0.0, 0.0, 0.0, 0.0, 0.0, 0.0, 1.6635879185796797E9, 0.0, 2022-09-19 16:45:18.579
84.0, -12049.57956666703, -10939.748399227668, -21235.073654064377, -17043.22749891609, 187500.0, 187500.0, 2737.664012630464, -26231.91788577055, 0.74, -0.612, 0.38, 192.0, 0.0, 0.0, 0.0, 0.0, 0.0, 0.0, 0.0, 0.0, 0.0, 1.663587918582708E9, 0.0, 2022-09-19 16:45:18.582
85.0, -12040.638868884906, -10927.790215944078, -21232.413796474197, -17041.55111808194, 187500.0, 187500.0, 2723.738875834808, -26227.939275257504, 0.742, -0.608, 0.384, 192.0, 23.0, 48.0, 237.0, 0.0, 12.0, 0.0, 0.0, 0.0, 0.0, 1.6635879185866535E9, 0.0, 2022-09-19 16:45:18.586
86.0, -12032.793406581093, -10916.7261024387, -21239.45459597762, -17048.055475718436, 187500.0, 187500.0, 2744.101315033593, -26235.896496283593, 0.742, -0.608, 0.384, 192.0, 0.0, 0.0, 0.0, 0.0, 0.0, 0.0, 0.0, 0.0, 0.0, 1.6635879185906296E9, 0.0, 2022-09-19 16:45:18.590
87.0, -12029.865328057449, -10913.775672170601, -21243.455558235117, -17053.554004854443, 187500.0, 187500.0, 2783.641550975031, -26237.28230443982, 0.742, -0.608, 0.384, 192.0, 0.0, 0.0, 0.0, 0.0, 0.0, 0.0, 0.0, 0.0, 0.0, 1.663587918594658E9, 0.0, 2022-09-19 16:45:18.594
88.0, -12043.298726475088, -10936.529748026103, -21243.701427424126, -17051.56469959792, 187500.0, 187500.0, 2775.2596468042907, -26236.164717217056, 0.742, -0.608, 0.384, 192.0, 0.0, 0.0, 0.0, 0.0, 0.0, 0.0, 0.0, 0.0, 0.0, 1.663587918598684E9, 0.0, 2022-09-19 16:45:18.598
89.0, -12049.803084111581, -10925.35387579845, -21239.096968066333, -17043.294554149456, 187500.0, 187500.0, 2735.4958934182996, -26229.593304347196, 0.742, -0.608, 0.384, 192.0, 0.0, 0.0, 0.0, 0.0, 0.0, 0.0, 0.0, 0.0, 0.0, 1.6635879186026976E9, 0.0, 2022-09-19 16:45:18.602
90.0, -12047.299688732588, -10917.508413494637, -21241.421549489685, -17041.841690759862, 187500.0, 187500.0, 2725.0799805021265, -26226.2405426789, 0.742, -0.608, 0.384, 192.0, 0.0, 0.0, 0.0, 0.0, 0.0, 0.0, 0.0, 0.0, 0.0, 1.6635879186066897E9, 0.0, 2022-09-19 16:45:18.606
91.0, -12050.317174234055, -10931.791178201578, -21248.73056992657, -17048.726028052097, 187500.0, 187500.0, 2741.575567910143, -26230.554429358774, 0.742, -0.608, 0.384, 192.0, 0.0, 0.0, 0.0, 0.0, 0.0, 0.0, 0.0, 0.0, 0.0, 1.6635879186097536E9, 0.0, 2022-09-19 16:45:18.609
92.0, -12044.997459053691, -10920.592954229469, -21249.222308304586, -17048.99424898556, 187500.0, 187500.0, 2782.9486468969167, -26232.09669972619, 0.742, -0.608, 0.384, 192.0, 0.0, 0.0, 0.0, 0.0, 0.0, 0.0, 0.0, 0.0, 0.0, 1.6635879186147676E9, 0.0, 2022-09-19 16:45:18.614
93.0, -12054.675764402838, -10922.559907741537, -21245.377808258272, -17043.04868496045, 187500.0, 187500.0, 2776.0419578602264, -26232.499031126386, 0.742, -0.608, 0.384, 192.0, 0.0, 0.0, 0.0, 0.0, 0.0, 0.0, 0.0, 0.0, 0.0, 1.6635879186187062E9, 0.0, 2022-09-19 16:45:18.618
94.0, -12048.618441655452, -10915.049721604553, -21238.694636666136, -17038.779501769484, 187500.0, 187500.0, 2735.3394312071123, -26229.23567643591, 0.742, -0.608, 0.384, 192.0, 0.0, 0.0, 0.0, 0.0, 0.0, 0.0, 0.0, 0.0, 0.0, 1.6635879186226833E9, 0.0, 2022-09-19 16:45:18.622
95.0, -12049.691325389305, -10932.64054449088, -21241.9132878677, -17041.148786681748, 187500.0, 187500.0, 2723.805931068174, -26230.174449703034, 0.744, -0.616, 0.38, 192.0, 23.0, 64.0, 236.0, 192.0, 11.0, 224.0, 0.0, 0.0, 0.0, 1.6635879186266732E9, 0.0, 2022-09-19 16:45:18.626
96.0, -12042.024677041136, -10928.34900955546, -21245.243697791542, -17047.004943729036, 187500.0, 187500.0, 2745.3083092341794, -26234.890667783104, 0.744, -0.616, 0.38, 192.0, 0.0, 0.0, 0.0, 0.0, 0.0, 0.0, 0.0, 0.0, 0.0, 1.6635879186307647E9, 0.0, 2022-09-19 16:45:18.630
97.0, -12056.329793492532, -10943.414085318338, -21248.50705248202, -17055.073923477405, 187500.0, 187500.0, 2785.899077165017, -26240.858583552672, 0.744, -0.616, 0.38, 192.0, 0.0, 0.0, 0.0, 0.0, 0.0, 0.0, 0.0, 0.0, 0.0, 1.6635879186347375E9, 0.0, 2022-09-19 16:45:18.634
98.0, -12080.91671239337, -10952.153617400363, -21250.36224727181, -17060.125417724303, 187500.0, 187500.0, 2777.8748009055616, -26246.29005745531, 0.744, -0.616, 0.38, 192.0, 0.0, 0.0, 0.0, 0.0, 0.0, 0.0, 0.0, 0.0, 0.0, 1.6635879186377237E9, 0.0, 2022-09-19 16:45:18.637
99.0, -12059.079058060535, -10894.217895772206, -21240.281610522463, -17044.90387975024, 187500.0, 187500.0, 2739.8544835870844, -26234.82361254974, 0.744, -0.616, 0.38, 192.0, 0.0, 0.0, 0.0, 0.0, 0.0, 0.0, 0.0, 0.0, 0.0, 1.6635879186427448E9, 0.0, 2022-09-19 16:45:18.642
100.0, -12046.047991043091, -10919.20714607324, -21235.47598546457, -17042.80281577144, 187500.0, 187500.0, 2732.3666491945564, -26231.53790611481, 0.744, -0.616, 0.38, 192.0, 0.0, 0.0, 0.0, 0.0, 0.0, 0.0, 0.0, 0.0, 0.0, 1.663587918646844E9, 0.0, 2022-09-19 16:45:18.646
101.0, -12054.407543469375, -10945.224576619217, -21244.81901464689, -17053.978687999093, 187500.0, 187500.0, 2751.1197627925594, -26240.411548663564, 0.744, -0.616, 0.38, 192.0, 0.0, 0.0, 0.0, 0.0, 0.0, 0.0, 0.0, 0.0, 0.0, 1.6635879186507292E9, 0.0, 2022-09-19 16:45:18.650
102.0, -12046.159749765367, -10912.21105005873, -21247.50122398153, -17050.290650163966, 187500.0, 187500.0, 2792.090510379137, -26243.943124287503, 0.744, -0.616, 0.38, 192.0, 0.0, 0.0, 0.0, 0.0, 0.0, 0.0, 0.0, 0.0, 0.0, 1.6635879186548362E9, 0.0, 2022-09-19 16:45:18.654
103.0, -12040.080075273523, -10926.002076387653, -21244.193165802142, -17042.2216704156, 187500.0, 187500.0, 2785.6532079760086, -26231.2920369258, 0.744, -0.616, 0.38, 192.0, 0.0, 0.0, 0.0, 0.0, 0.0, 0.0, 0.0, 0.0, 0.0, 1.6635879186588318E9, 0.0, 2022-09-19 16:45:18.658
104.0, -12049.311345733566, -10944.285803352095, -21240.371017500285, -17044.05451346094, 187500.0, 187500.0, 2743.2966522332017, -26233.661321838063, 0.744, -0.616, 0.38, 192.0, 0.0, 0.0, 0.0, 0.0, 0.0, 0.0, 0.0, 0.0, 0.0, 1.663587918661799E9, 0.0, 2022-09-19 16:45:18.661
105.0, -12031.631115869417, -10907.673645934301, -21239.320485510885, -17043.786292527475, 187500.0, 187500.0, 2737.7534196082856, -26233.61661834915, 0.74, -0.62, 0.376, 192.0, 23.0, 32.0, 236.0, 160.0, 11.0, 192.0, 0.0, 0.0, 0.0, 1.6635879186658168E9, 0.0, 2022-09-19 16:45:18.665
106.0, -12025.2385169552, -10889.926360836787, -21242.025046589977, -17046.826129773395, 187500.0, 187500.0, 2760.9768820973495, -26235.896496283593, 0.74, -0.62, 0.376, 192.0, 0.0, 0.0, 0.0, 0.0, 0.0, 0.0, 0.0, 0.0, 0.0, 1.6635879186707702E9, 0.0, 2022-09-19 16:45:18.670
107.0, -12025.260868699655, -10906.578410455992, -21248.596459459837, -17051.4752926201, 187500.0, 187500.0, 2801.0088564168045, -26238.48929864041, 0.74, -0.62, 0.376, 192.0, 0.0, 0.0, 0.0, 0.0, 0.0, 0.0, 0.0, 0.0, 0.0, 1.6635879186747515E9, 0.0, 2022-09-19 16:45:18.674
108.0, -12029.060665257057, -10907.405425000838, -21248.10472108182, -17047.4743303626, 187500.0, 187500.0, 2797.0749493926705, -26239.53983062981, 0.74, -0.62, 0.376, 192.0, 0.0, 0.0, 0.0, 0.0, 0.0, 0.0, 0.0, 0.0, 0.0, 1.6635879186788468E9, 0.0, 2022-09-19 16:45:18.678
109.0, -12040.549461907085, -10911.428739002793, -21245.087235580355, -17045.03799021697, 187500.0, 187500.0, 2757.847637873607, -26237.572877117742, 0.74, -0.62, 0.376, 192.0, 0.0, 0.0, 0.0, 0.0, 0.0, 0.0, 0.0, 0.0, 0.0, 1.6635879186827817E9, 0.0, 2022-09-19 16:45:18.682
110.0, -12040.929441562825, -10924.772730442612, -21243.008523346012, -17044.90387975024, 187500.0, 187500.0, 2751.0750593036487, -26236.00825500587, 0.74, -0.62, 0.376, 192.0, 0.0, 0.0, 0.0, 0.0, 0.0, 0.0, 0.0, 0.0, 0.0, 1.6635879186867964E9, 0.0, 2022-09-19 16:45:18.686
111.0, -12035.00622928217, -10929.73481771169, -21237.085311065355, -17041.61817331531, 187500.0, 187500.0, 2778.411242772489, -26231.71672007045, 0.74, -0.62, 0.376, 192.0, 0.0, 0.0, 0.0, 0.0, 0.0, 0.0, 0.0, 0.0, 0.0, 1.6635879186907792E9, 0.0, 2022-09-19 16:45:18.690
112.0, -12041.108255518468, -10939.8825096944, -21240.080444822364, -17047.921365251706, 187500.0, 187500.0, 2821.8853857380614, -26236.321179428243, 0.74, -0.62, 0.376, 192.0, 0.0, 0.0, 0.0, 0.0, 0.0, 0.0, 0.0, 0.0, 0.0, 1.6635879186938405E9, 0.0, 2022-09-19 16:45:18.693
113.0, -12060.330755750032, -10952.108913911452, -21242.561488456904, -17050.894147264262, 187500.0, 187500.0, 2818.152644414025, -26240.366845174653, 0.74, -0.62, 0.376, 192.0, 0.0, 0.0, 0.0, 0.0, 0.0, 0.0, 0.0, 0.0, 0.0, 1.6635879186988635E9, 0.0, 2022-09-19 16:45:18.698
114.0, -12071.372517510954, -10939.21195736074, -21234.29134300844, -17043.786292527475, 187500.0, 187500.0, 2781.965170140883, -26238.869278296148, 0.74, -0.62, 0.376, 192.0, 0.0, 0.0, 0.0, 0.0, 0.0, 0.0, 0.0, 0.0, 0.0, 1.6635879187028496E9, 0.0, 2022-09-19 16:45:18.702
115.0, -12065.561063952573, -10919.430663517793, -21227.027026060467, -17043.696885549653, 187500.0, 187500.0, 2776.801917171707, -26239.875106796637, 0.742, -0.616, 0.372, 192.0, 23.0, 48.0, 236.0, 192.0, 11.0, 160.0, 0.0, 0.0, 0.0, 1.663587918706817E9, 0.0, 2022-09-19 16:45:18.706
116.0, -12059.593148183007, -10918.737759439678, -21228.122261538778, -17047.4743303626, 187500.0, 187500.0, 2802.8864029510505, -26240.880935297126, 0.742, -0.616, 0.372, 192.0, 0.0, 0.0, 0.0, 0.0, 0.0, 0.0, 0.0, 0.0, 0.0, 1.6635879187108543E9, 0.0, 2022-09-19 16:45:18.710
117.0, -12057.469732459753, -10922.023465874609, -21242.002694845523, -17053.777522298995, 187500.0, 187500.0, 2848.416906406511, -26240.925638786037, 0.742, -0.616, 0.372, 192.0, 0.0, 0.0, 0.0, 0.0, 0.0, 0.0, 0.0, 0.0, 0.0, 1.663587918714891E9, 0.0, 2022-09-19 16:45:18.714
118.0, -12080.53673273763, -10955.305213368561, -21244.0143518465, -17055.74447581106, 187500.0, 187500.0, 2849.5121418848207, -26243.00435102038, 0.742, -0.616, 0.372, 192.0, 0.0, 0.0, 0.0, 0.0, 0.0, 0.0, 0.0, 0.0, 0.0, 1.663587918718891E9, 0.0, 2022-09-19 16:45:18.718
119.0, -12071.640738444417, -10940.754227728155, -21234.380749986263, -17049.32952515239, 187500.0, 187500.0, 2818.2420513918464, -26233.728377071428, 0.742, -0.616, 0.372, 192.0, 0.0, 0.0, 0.0, 0.0, 0.0, 0.0, 0.0, 0.0, 0.0, 1.6635879187218883E9, 0.0, 2022-09-19 16:45:18.721
120.0, -12043.589299153007, -10906.734872667179, -21233.285514507952, -17044.18862392767, 187500.0, 187500.0, 2818.8231967476845, -26229.43684213601, 0.742, -0.616, 0.372, 192.0, 0.0, 0.0, 0.0, 0.0, 0.0, 0.0, 0.0, 0.0, 0.0, 1.6635879187279253E9, 0.0, 2022-09-19 16:45:18.727
121.0, -12038.962488050758, -10908.344198267961, -21239.700465166625, -17048.100179207348, 187500.0, 187500.0, 2846.472304638899, -26230.62148459214, 0.742, -0.616, 0.372, 192.0, 0.0, 0.0, 0.0, 0.0, 0.0, 0.0, 0.0, 0.0, 0.0, 1.6635879187308865E9, 0.0, 2022-09-19 16:45:18.730
122.0, -12034.313325204055, -10925.577393243002, -21248.73056992657, -17056.75030431155, 187500.0, 187500.0, 2891.4887179718876, -26240.277438196834, 0.742, -0.616, 0.372, 192.0, 0.0, 0.0, 0.0, 0.0, 0.0, 0.0, 0.0, 0.0, 0.0, 1.6635879187349029E9, 0.0, 2022-09-19 16:45:18.734
123.0, -12053.357011479977, -10962.12249542743, -21252.59742171734, -17059.588975857376, 187500.0, 187500.0, 2885.7219679024183, -26238.556353873773, 0.742, -0.616, 0.372, 192.0, 0.0, 0.0, 0.0, 0.0, 0.0, 0.0, 0.0, 0.0, 0.0, 1.663587918738937E9, 0.0, 2022-09-19 16:45:18.738
124.0, -12058.453209215786, -10948.756152243157, -21242.136805312253, -17053.84457753236, 187500.0, 187500.0, 2849.378031418089, -26233.974246260437, 0.742, -0.616, 0.372, 192.0, 0.0, 0.0, 0.0, 0.0, 0.0, 0.0, 0.0, 0.0, 0.0, 1.6635879187418685E9, 0.0, 2022-09-19 16:45:18.741
125.0, -12046.673839887839, -10907.405425000838, -21236.906497109714, -17048.256641418535, 187500.0, 187500.0, 2847.1428569725585, -26232.09669972619, 0.742, -0.616, 0.372, 192.0, 0.0, 0.0, 0.0, 0.0, 0.0, 0.0, 0.0, 0.0, 0.0, 1.6635879187460387E9, 0.0, 2022-09-19 16:45:18.746
126.0, -12031.765226336149, -10903.24800053215, -21240.371017500285, -17048.70367630764, 187500.0, 187500.0, 2872.6238456516085, -26234.734205571916, 0.736, -0.614, 0.382, 192.0, 23.0, 0.0, 236.0, 208.0, 11.0, 240.0, 0.0, 0.0, 0.0, 1.6635879187499251E9, 0.0, 2022-09-19 16:45:18.749
127.0, -12046.316211976555, -10924.683323464791, -21248.954087371123, -17056.638545589274, 187500.0, 187500.0, 2913.9522211494714, -26242.445557409, 0.736, -0.614, 0.382, 192.0, 0.0, 0.0, 0.0, 0.0, 0.0, 0.0, 0.0, 0.0, 0.0, 1.6635879187539544E9, 0.0, 2022-09-19 16:45:18.753
128.0, -12056.843883615004, -10927.097311865964, -21241.175680300676, -17052.99521124306, 187500.0, 187500.0, 2913.7063519604626, -26240.59036261921, 0.736, -0.614, 0.382, 192.0, 0.0, 0.0, 0.0, 0.0, 0.0, 0.0, 0.0, 0.0, 0.0, 1.6635879187589982E9, 0.0, 2022-09-19 16:45:18.758
129.0, -12039.789502595604, -10911.272276791606, -21232.570258685384, -17043.965106483116, 187500.0, 187500.0, 2877.5859329206864, -26233.728377071428, 0.736, -0.614, 0.382, 192.0, 0.0, 0.0, 0.0, 0.0, 0.0, 0.0, 0.0, 0.0, 0.0, 1.6635879187629895E9, 0.0, 2022-09-19 16:45:18.762
130.0, -12023.875060543425, -10886.841820101956, -21230.469194706584, -17040.3217721369, 187500.0, 187500.0, 2871.483906684388, -26229.548600858285, 0.736, -0.614, 0.382, 192.0, 0.0, 0.0, 0.0, 0.0, 0.0, 0.0, 0.0, 0.0, 0.0, 1.6635879187669575E9, 0.0, 2022-09-19 16:45:18.766
131.0, -12032.346371691987, -10902.555096454036, -21233.889011608248, -17042.489891349065, 187500.0, 187500.0, 2893.567430206231, -26229.883877025113, 0.736, -0.614, 0.382, 192.0, 0.0, 0.0, 0.0, 0.0, 0.0, 0.0, 0.0, 0.0, 0.0, 1.6635879187699087E9, 0.0, 2022-09-19 16:45:18.769
132.0, -12027.630153611917, -10931.813529946034, -21238.20289828812, -17052.61523158732, 187500.0, 187500.0, 2936.1922068825015, -26237.885801540113, 0.736, -0.614, 0.382, 192.0, 0.0, 0.0, 0.0, 0.0, 0.0, 0.0, 0.0, 0.0, 0.0, 1.6635879187742455E9, 0.0, 2022-09-19 16:45:18.774
133.0, -12025.14910997738, -10938.586108515992, -21233.82195637488, -17054.291612421468, 187500.0, 187500.0, 2936.7510004938845, -26242.512612642364, 0.736, -0.614, 0.382, 192.0, 0.0, 0.0, 0.0, 0.0, 0.0, 0.0, 0.0, 0.0, 0.0, 1.6635879187780259E9, 0.0, 2022-09-19 16:45:18.778
134.0, -12037.084941516512, -10926.203242087751, -21229.999808073022, -17050.13418795278, 187500.0, 187500.0, 2901.7481686768733, -26238.91398178506, 0.736, -0.614, 0.382, 192.0, 0.0, 0.0, 0.0, 0.0, 0.0, 0.0, 0.0, 0.0, 0.0, 1.6635879187820382E9, 0.0, 2022-09-19 16:45:18.782
135.0, -12045.220976498244, -10945.939832441787, -21231.67618890717, -17056.37032465581, 187500.0, 187500.0, 2896.2049360519572, -26242.266743453354, 0.736, -0.614, 0.382, 192.0, 0.0, 0.0, 0.0, 0.0, 0.0, 0.0, 0.0, 0.0, 0.0, 1.663587918785988E9, 0.0, 2022-09-19 16:45:18.785
136.0, -12038.895432817393, -10940.441303305783, -21229.59747667283, -17052.07878972039, 187500.0, 187500.0, 2923.7422852208956, -26236.365882917155, 0.742, -0.604, 0.384, 192.0, 23.0, 48.0, 237.0, 32.0, 12.0, 0.0, 0.0, 0.0, 0.0, 1.663587918791044E9, 0.0, 2022-09-19 16:45:18.791
137.0, -12021.95281052027, -10915.317942538017, -21229.97745632857, -17051.56469959792, 187500.0, 187500.0, 2971.6197218441635, -26233.169583460043, 0.742, -0.604, 0.384, 192.0, 0.0, 0.0, 0.0, 0.0, 0.0, 0.0, 0.0, 0.0, 0.0, 1.663587918795008E9, 0.0, 2022-09-19 16:45:18.795
138.0, -12033.75453159267, -10911.339332024972, -21239.655761677714, -17052.637583331776, 187500.0, 187500.0, 2971.5750183552527, -26237.304656184275, 0.742, -0.604, 0.384, 192.0, 0.0, 0.0, 0.0, 0.0, 0.0, 0.0, 0.0, 0.0, 0.0, 1.6635879187990477E9, 0.0, 2022-09-19 16:45:18.799
139.0, -12048.350220721988, -10931.746474712667, -21238.851098877323, -17051.967030998116, 187500.0, 187500.0, 2936.371020838144, -26236.61175210616, 0.742, -0.604, 0.384, 192.0, 0.0, 0.0, 0.0, 0.0, 0.0, 0.0, 0.0, 0.0, 0.0, 1.6635879188021383E9, 0.0, 2022-09-19 16:45:18.802
140.0, -12043.455188686276, -10940.933041683798, -21236.16888954269, -17054.872757777306, 187500.0, 187500.0, 2931.096009146692, -26239.76334807436, 0.742, -0.604, 0.384, 192.0, 0.0, 0.0, 0.0, 0.0, 0.0, 0.0, 0.0, 0.0, 0.0, 1.6635879188080063E9, 0.0, 2022-09-19 16:45:18.808
141.0, -12036.012057782658, -10921.9787623857, -21237.644104676736, -17056.884414778284, 187500.0, 187500.0, 2957.091087948214, -26238.422243407043, 0.742, -0.604, 0.384, 192.0, 0.0, 0.0, 0.0, 0.0, 0.0, 0.0, 0.0, 0.0, 0.0, 1.6635879188110628E9, 0.0, 2022-09-19 16:45:18.811
142.0, -12031.80992982506, -10907.293666278561, -21245.02018034699, -17062.584109614385, 187500.0, 187500.0, 3001.056969291803, -26244.703083598983, 0.742, -0.604, 0.384, 192.0, 0.0, 0.0, 0.0, 0.0, 0.0, 0.0, 0.0, 0.0, 0.0, 1.6635879188150573E9, 0.0, 2022-09-19 16:45:18.815
143.0, -12049.981898067224, -10912.769843670112, -21241.935639612155, -17060.192472957668, 187500.0, 187500.0, 2999.6711611355736, -26244.85954581017, 0.742, -0.604, 0.384, 192.0, 0.0, 0.0, 0.0, 0.0, 0.0, 0.0, 0.0, 0.0, 0.0, 1.6635879188191712E9, 0.0, 2022-09-19 16:45:18.819
144.0, -12056.888587103915, -10914.78150067109, -21232.145575540733, -17051.6764583202, 187500.0, 187500.0, 2968.1999049425012, -26236.343531172697, 0.742, -0.604, 0.384, 192.0, 0.0, 0.0, 0.0, 0.0, 0.0, 0.0, 0.0, 0.0, 0.0, 1.6635879188231106E9, 0.0, 2022-09-19 16:45:18.823
145.0, -12042.047028785591, -10932.618192746424, -21233.151404041222, -17050.80474028644, 187500.0, 187500.0, 2966.054137474792, -26236.455289894973, 0.742, -0.604, 0.384, 192.0, 0.0, 0.0, 0.0, 0.0, 0.0, 0.0, 0.0, 0.0, 0.0, 1.6635879188260505E9, 0.0, 2022-09-19 16:45:18.826
146.0, -12026.71373208925, -10943.771713229622, -21237.82291863238, -17054.71629556612, 187500.0, 187500.0, 2992.11627150968, -26240.970342274948, 0.738, -0.602, 0.39, 192.0, 23.0, 16.0, 237.0, 48.0, 12.0, 48.0, 0.0, 0.0, 0.0, 1.6635879188301103E9, 0.0, 2022-09-19 16:45:18.830
147.0, -12024.009171010157, -10939.077846894008, -21247.992962359545, -17057.599670600852, 187500.0, 187500.0, 3036.618594720196, -26246.781795833325, 0.738, -0.602, 0.39, 192.0, 0.0, 0.0, 0.0, 0.0, 0.0, 0.0, 0.0, 0.0, 0.0, 1.6635879188341136E9, 0.0, 2022-09-19 16:45:18.834
148.0, -12029.306534446067, -10918.670704206314, -21244.997828602533, -17051.251775175544, 187500.0, 187500.0, 3040.463094766509, -26245.999484777392, 0.738, -0.602, 0.39, 192.0, 0.0, 0.0, 0.0, 0.0, 0.0, 0.0, 0.0, 0.0, 0.0, 1.6635879188381102E9, 0.0, 2022-09-19 16:45:18.838
149.0, -12030.446473413287, -10914.893259393366, -21234.06782556389, -17044.41214137222, 187500.0, 187500.0, 3006.9354780835483, -26237.61758060665, 0.738, -0.602, 0.39, 192.0, 0.0, 0.0, 0.0, 0.0, 0.0, 0.0, 0.0, 0.0, 0.0, 1.663587918842162E9, 0.0, 2022-09-19 16:45:18.842
150.0, -12021.595182608984, -10911.764015169623, -21239.63340993326, -17046.021466973005, 187500.0, 187500.0, 3000.3640652136883, -26239.405720163075, 0.738, -0.602, 0.39, 192.0, 0.0, 0.0, 0.0, 0.0, 0.0, 0.0, 0.0, 0.0, 0.0, 1.6635879188471208E9, 0.0, 2022-09-19 16:45:18.847
151.0, -12020.477595386219, -10924.280992064596, -21248.48470073756, -17051.85527227584, 187500.0, 187500.0, 3022.3581817577106, -26242.110281242167, 0.738, -0.602, 0.39, 192.0, 0.0, 0.0, 0.0, 0.0, 0.0, 0.0, 0.0, 0.0, 0.0, 1.6635879188511422E9, 0.0, 2022-09-19 16:45:18.851
152.0, -12018.778862807616, -10930.986515401188, -21249.401122260228, -17054.001039743547, 187500.0, 187500.0, 3064.625330522696, -26243.540792887306, 0.738, -0.602, 0.39, 192.0, 0.0, 0.0, 0.0, 0.0, 0.0, 0.0, 0.0, 0.0, 0.0, 1.6635879188541274E9, 0.0, 2022-09-19 16:45:18.854
153.0, -12025.95377277777, -10920.749416440656, -21251.010447861012, -17050.447112375154, 187500.0, 187500.0, 3062.054879910336, -26238.176374218034, 0.738, -0.602, 0.39, 192.0, 0.0, 0.0, 0.0, 0.0, 0.0, 0.0, 0.0, 0.0, 0.0, 1.663587918858064E9, 0.0, 2022-09-19 16:45:18.858
154.0, -12030.915860046847, -10915.005018115642, -21247.791796659447, -17046.55790883993, 187500.0, 187500.0, 3019.8100828898055, -26239.13749922961, 0.738, -0.602, 0.39, 192.0, 0.0, 0.0, 0.0, 0.0, 0.0, 0.0, 0.0, 0.0, 0.0, 1.6635879188622363E9, 0.0, 2022-09-19 16:45:18.862
155.0, -12026.624325111428, -10917.396654772361, -21241.086273322853, -17043.875699505294, 187500.0, 187500.0, 3008.589507173241, -26236.947028272993, 0.738, -0.602, 0.39, 192.0, 0.0, 0.0, 0.0, 0.0, 0.0, 0.0, 0.0, 0.0, 0.0, 1.663587918866184E9, 0.0, 2022-09-19 16:45:18.866
156.0, -12025.61849661094, -10936.485044537192, -21242.315619267898, -17045.75324603954, 187500.0, 187500.0, 3025.3980190036323, -26235.941199772504, 0.742, -0.604, 0.39, 192.0, 23.0, 48.0, 237.0, 32.0, 12.0, 48.0, 0.0, 0.0, 0.0, 1.6635879188702128E9, 0.0, 2022-09-19 16:45:18.870
157.0, -12022.869232042936, -10941.73770448419, -21251.882165894767, -17052.83874903187, 187500.0, 187500.0, 3061.8090107213275, -26242.311446942265, 0.742, -0.604, 0.39, 192.0, 0.0, 0.0, 0.0, 0.0, 0.0, 0.0, 0.0, 0.0, 0.0, 1.6635879188754156E9, 0.0, 2022-09-19 16:45:18.875
158.0, -12022.064569242546, -10913.261582048128, -21252.53036648397, -17051.251775175544, 187500.0, 187500.0, 3057.2939583413554, -26241.305618441776, 0.742, -0.604, 0.39, 192.0, 0.0, 0.0, 0.0, 0.0, 0.0, 0.0, 0.0, 0.0, 0.0, 1.6635879188791823E9, 0.0, 2022-09-19 16:45:18.879
159.0, -12031.765226336149, -10902.465689476216, -21245.601325702828, -17044.009809972027, 187500.0, 187500.0, 3016.3902659881433, -26236.00825500587, 0.742, -0.604, 0.39, 192.0, 0.0, 0.0, 0.0, 0.0, 0.0, 0.0, 0.0, 0.0, 0.0, 1.66358791888259E9, 0.0, 2022-09-19 16:45:18.882
160.0, -12009.547592347573, -10887.400613713338, -21243.008523346012, -17039.94179248116, 187500.0, 187500.0, 3005.2590972494004, -26232.208458448466, 0.742, -0.604, 0.39, 192.0, 0.0, 0.0, 0.0, 0.0, 0.0, 0.0, 0.0, 0.0, 0.0, 1.6635879188861775E9, 0.0, 2022-09-19 16:45:18.886
161.0, -11996.091842185479, -10897.123622551397, -21244.193165802142, -17044.121568694303, 187500.0, 187500.0, 3021.6429259351407, -26232.09669972619, 0.742, -0.604, 0.39, 192.0, 0.0, 0.0, 0.0, 0.0, 0.0, 0.0, 0.0, 0.0, 0.0, 1.6635879188902063E9, 0.0, 2022-09-19 16:45:18.890
162.0, -11997.90233348636, -10916.614343716425, -21248.328238526374, -17047.876661762795, 187500.0, 187500.0, 3058.2997868418443, -26230.353263658675, 0.742, -0.604, 0.39, 192.0, 0.0, 0.0, 0.0, 0.0, 0.0, 0.0, 0.0, 0.0, 0.0, 1.6635879188942194E9, 0.0, 2022-09-19 16:45:18.894
163.0, -12003.490269600186, -10914.513279737626, -21248.26118329301, -17046.200280928646, 187500.0, 187500.0, 3051.862484438716, -26232.879010782126, 0.742, -0.604, 0.39, 192.0, 0.0, 0.0, 0.0, 0.0, 0.0, 0.0, 0.0, 0.0, 0.0, 1.6635879188982239E9, 0.0, 2022-09-19 16:45:18.898
164.0, -12010.218144681234, -10907.24896278965, -21243.12028206829, -17038.198356413646, 187500.0, 187500.0, 3008.567155428786, -26225.458231622964, 0.742, -0.604, 0.39, 192.0, 0.0, 0.0, 0.0, 0.0, 0.0, 0.0, 0.0, 0.0, 0.0, 1.6635879189032257E9, 0.0, 2022-09-19 16:45:18.903
165.0, -12011.067510970535, -10908.411253501326, -21242.53913671245, -17036.99136221306, 187500.0, 187500.0, 2992.853879076705, -26224.05007172228, 0.742, -0.604, 0.39, 192.0, 0.0, 0.0, 0.0, 0.0, 0.0, 0.0, 0.0, 0.0, 0.0, 1.663587918906238E9, 0.0, 2022-09-19 16:45:18.906
166.0, -12007.334769646499, -10894.843744616956, -21242.695598923638, -17037.88543199127, 187500.0, 187500.0, 3013.6410014201406, -26227.33577815721, 0.736, -0.602, 0.382, 192.0, 23.0, 0.0, 237.0, 48.0, 11.0, 240.0, 0.0, 0.0, 0.0, 1.6635879189102015E9, 0.0, 2022-09-19 16:45:18.910
167.0, -12013.95088600527, -10915.563811727025, -21248.35059027083, -17043.22749891609, 187500.0, 187500.0, 3053.0247751503916, -26237.10349048418, 0.736, -0.602, 0.382, 192.0, 0.0, 0.0, 0.0, 0.0, 0.0, 0.0, 0.0, 0.0, 0.0, 1.6635879189142551E9, 0.0, 2022-09-19 16:45:18.914
168.0, -12031.631115869417, -10932.618192746424, -21249.937564127158, -17044.41214137222, 187500.0, 187500.0, 3047.593301247752, -26238.2434294514, 0.736, -0.602, 0.382, 192.0, 0.0, 0.0, 0.0, 0.0, 0.0, 0.0, 0.0, 0.0, 0.0, 1.6635879189182358E9, 0.0, 2022-09-19 16:45:18.918
169.0, -12058.028526071135, -10943.414085318338, -21250.49635773854, -17047.31786815141, 187500.0, 187500.0, 3005.59437341623, -26243.63019986513, 0.736, -0.602, 0.382, 192.0, 0.0, 0.0, 0.0, 0.0, 0.0, 0.0, 0.0, 0.0, 0.0, 1.6635879189222524E9, 0.0, 2022-09-19 16:45:18.922
170.0, -12052.66410740186, -10922.671666463813, -21241.980343101066, -17040.210013414624, 187500.0, 187500.0, 2995.4466814335206, -26232.364920659653, 0.736, -0.602, 0.382, 192.0, 0.0, 0.0, 0.0, 0.0, 0.0, 0.0, 0.0, 0.0, 0.0, 1.663587918926278E9, 0.0, 2022-09-19 16:45:18.926
171.0, -12027.630153611917, -10908.724177923701, -21236.81709013189, -17039.31594363641, 187500.0, 187500.0, 3017.2619840219004, -26227.58164734622, 0.736, -0.602, 0.382, 192.0, 0.0, 0.0, 0.0, 0.0, 0.0, 0.0, 0.0, 0.0, 0.0, 1.6635879189302845E9, 0.0, 2022-09-19 16:45:18.930
172.0, -12013.012112738146, -10909.081805834987, -21235.185412786654, -17042.959277982627, 187500.0, 187500.0, 3060.311443842822, -26231.694368325996, 0.736, -0.602, 0.382, 192.0, 0.0, 0.0, 0.0, 0.0, 0.0, 0.0, 0.0, 0.0, 0.0, 1.6635879189342365E9, 0.0, 2022-09-19 16:45:18.934
173.0, -12023.159804720855, -10927.29847756606, -21240.125148311276, -17046.960240240125, 187500.0, 187500.0, 3059.730298486984, -26237.259952695367, 0.736, -0.602, 0.382, 192.0, 0.0, 0.0, 0.0, 0.0, 0.0, 0.0, 0.0, 0.0, 0.0, 1.6635879189373028E9, 0.0, 2022-09-19 16:45:18.937
174.0, -12035.587374638008, -10908.120680823407, -21237.44293897664, -17039.56181282542, 187500.0, 187500.0, 3027.3202690267885, -26235.784737561316, 0.736, -0.602, 0.382, 192.0, 0.0, 0.0, 0.0, 0.0, 0.0, 0.0, 0.0, 0.0, 0.0, 1.6635879189423127E9, 0.0, 2022-09-19 16:45:18.942
175.0, -12039.633040384417, -10909.81941340201, -21241.890936123247, -17038.064245946916, 187500.0, 187500.0, 3024.1239695696795, -26233.929542771526, 0.736, -0.602, 0.382, 192.0, 0.0, 0.0, 0.0, 0.0, 0.0, 0.0, 0.0, 0.0, 0.0, 1.6635879189462905E9, 0.0, 2022-09-19 16:45:18.946
