%OpenBCI Raw EEG Data
%Number of channels = 8
%Sample Rate = 250 Hz
%Board = OpenBCI_GUI$BoardCytonSerial
Sample Index, EXG Channel 0, EXG Channel 1, EXG Channel 2, EXG Channel 3, EXG Channel 4, EXG Channel 5, EXG Channel 6, EXG Channel 7, Accel Channel 0, Accel Channel 1, Accel Channel 2, Other, Other, Other, Other, Other, Other, Other, Analog Channel 0, Analog Channel 1, Analog Channel 2, Timestamp, Other, Timestamp (Formatted)
0.0, -24054.030961278793, -19505.897999512912, -69360.01114368573, -20699.794077848685, -15673.15497078359, 187500.0, -59307.42583363364, -20250.278145108005, 0.634, -0.5700000000000001, 0.552, 192.0, 19.0, 208.0, 238.0, 48.0, 17.0, 64.0, 0.0, 0.0, 0.0, 1.6635931290993702E9, 0.0, 2022-09-19 18:12:09.099
1.0, -24292.121743216725, -19526.886287556445, -69277.01911652317, -20657.616336061517, -15744.345276873742, 187500.0, -59306.28589466643, -20219.790365670964, 0.634, -0.5700000000000001, 0.552, 192.0, 0.0, 0.0, 0.0, 0.0, 0.0, 0.0, 0.0, 0.0, 0.0, 1.6635931290994072E9, 0.0, 2022-09-19 18:12:09.099
2.0, -24393.084572921347, -19514.570476361572, -69269.1513024749, -20642.32774285409, -15776.800009822848, 187500.0, -59240.46000724554, -20209.575618454888, 0.634, -0.5700000000000001, 0.552, 192.0, 0.0, 0.0, 0.0, 0.0, 0.0, 0.0, 0.0, 0.0, 0.0, 1.6635931290994244E9, 0.0, 2022-09-19 18:12:09.099
3.0, -24320.687272630606, -19498.23135116474, -69307.81982038257, -20658.666868050917, -15749.061494953812, 187500.0, -59213.503803432446, -20215.789403413466, 0.634, -0.5700000000000001, 0.552, 192.0, 0.0, 0.0, 0.0, 0.0, 0.0, 0.0, 0.0, 0.0, 0.0, 1.6635931290994406E9, 0.0, 2022-09-19 18:12:09.099
0.0, 0.0, 0.0, 0.0, 0.0, 0.0, 0.0, 0.0, 0.0, 0.63, -0.5760000000000001, 0.55, 192.0, 19.0, 176.0, 238.0, 0.0, 17.0, 48.0, 0.0, 0.0, 0.0, 1.663593129201572E9, 0.0, 2022-09-19 18:12:09.201
1.0, -21099.577379176306, -19128.779367062973, -69738.71674999199, -20483.451543265768, -16170.615395380903, 187500.0, -59615.72344490569, -20741.39067428001, 0.63, -0.5760000000000001, 0.55, 192.0, 0.0, 0.0, 0.0, 0.0, 0.0, 0.0, 0.0, 0.0, 0.0, 1.6635931292186396E9, 0.0, 2022-09-19 18:12:09.218
2.0, -21045.709675039016, -19157.724876132594, -69734.8051947123, -20501.95878767476, -16154.991526006643, 187500.0, -59743.01662957867, -20755.069941886657, 0.63, -0.5760000000000001, 0.55, 192.0, 0.0, 0.0, 0.0, 0.0, 0.0, 0.0, 0.0, 0.0, 0.0, 1.6635931292216477E9, 0.0, 2022-09-19 18:12:09.221
3.0, -21393.167542596762, -19199.254417330554, -69625.97455095942, -20456.070656308017, -16284.385774658416, 187500.0, -59761.00978386519, -20741.793005680207, 0.63, -0.5760000000000001, 0.55, 192.0, 0.0, 0.0, 0.0, 0.0, 0.0, 0.0, 0.0, 0.0, 0.0, 1.6635931292255857E9, 0.0, 2022-09-19 18:12:09.225
4.0, -21563.465483601747, -19192.59359748287, -69614.46340256494, -20437.742225854665, -16350.077551612563, 187500.0, -59672.22865488871, -20732.494679986798, 0.63, -0.5760000000000001, 0.55, 192.0, 0.0, 0.0, 0.0, 0.0, 0.0, 0.0, 0.0, 0.0, 0.0, 1.663593129228578E9, 0.0, 2022-09-19 18:12:09.228
5.0, -21516.12448884541, -19171.739419906073, -69661.15619673207, -20452.56143242853, -16334.453682238303, 187500.0, -59630.11796833491, -20738.999037623293, 0.63, -0.5760000000000001, 0.55, 192.0, 0.0, 0.0, 0.0, 0.0, 0.0, 0.0, 0.0, 0.0, 0.0, 1.663593129232596E9, 0.0, 2022-09-19 18:12:09.232
6.0, -21213.43716543164, -19148.158329505724, -69749.44558733054, -20492.68281372581, -16223.812547184534, 187500.0, -59623.47950023169, -20757.595689010108, 0.63, -0.5760000000000001, 0.55, 192.0, 0.0, 0.0, 0.0, 0.0, 0.0, 0.0, 0.0, 0.0, 0.0, 1.66359312923661E9, 0.0, 2022-09-19 18:12:09.236
7.0, -21148.035961155412, -19173.549911206952, -69742.29302910484, -20511.950017446285, -16202.198410296252, 187500.0, -59745.74354240222, -20773.64424152902, 0.63, -0.5760000000000001, 0.55, 192.0, 0.0, 0.0, 0.0, 0.0, 0.0, 0.0, 0.0, 0.0, 0.0, 1.6635931292405994E9, 0.0, 2022-09-19 18:12:09.240
8.0, -21496.58906419147, -19208.508039535052, -69634.04353070779, -20469.884034381394, -16331.32443801456, 187500.0, -59768.13999034643, -20750.286668573222, 0.63, -0.588, 0.546, 192.0, 19.0, 176.0, 237.0, 160.0, 17.0, 16.0, 0.0, 0.0, 0.0, 1.6635931292456048E9, 0.0, 2022-09-19 18:12:09.245
9.0, -21670.776208731677, -19188.12324859181, -69610.685957752, -20437.76457759912, -16392.29999688864, 187500.0, -59671.80397174406, -20724.51510721625, 0.63, -0.588, 0.546, 192.0, 0.0, 0.0, 0.0, 0.0, 0.0, 0.0, 0.0, 0.0, 0.0, 1.6635931292486165E9, 0.0, 2022-09-19 18:12:09.248
10.0, -21614.583923171034, -19164.765675636016, -69659.52451938683, -20452.6284876619, -16369.635328010956, 187500.0, -59628.01690435612, -20724.2915897717, 0.63, -0.588, 0.546, 192.0, 0.0, 0.0, 0.0, 0.0, 0.0, 0.0, 0.0, 0.0, 0.0, 1.6635931292525353E9, 0.0, 2022-09-19 18:12:09.252
11.0, -21309.102631700353, -19140.40227417973, -69752.88775597666, -20502.070546397037, -16256.155521411363, 187500.0, -59627.212241555724, -20748.431473783432, 0.63, -0.588, 0.546, 192.0, 0.0, 0.0, 0.0, 0.0, 0.0, 0.0, 0.0, 0.0, 0.0, 1.6635931292566264E9, 0.0, 2022-09-19 18:12:09.256
12.0, -21236.660627920704, -19180.993042110567, -69748.35035185222, -20523.952904218782, -16229.333428064994, 187500.0, -59755.421847751364, -20768.25747111529, 0.63, -0.588, 0.546, 192.0, 0.0, 0.0, 0.0, 0.0, 0.0, 0.0, 0.0, 0.0, 0.0, 1.663593129260625E9, 0.0, 2022-09-19 18:12:09.260
13.0, -21580.206940198772, -19217.247571617077, -69632.99299871839, -20474.644955950374, -16354.793769692633, 187500.0, -59775.22549333877, -20749.19143309491, 0.63, -0.588, 0.546, 192.0, 0.0, 0.0, 0.0, 0.0, 0.0, 0.0, 0.0, 0.0, 0.0, 1.663593129264649E9, 0.0, 2022-09-19 18:12:09.264
14.0, -21750.571936437125, -19193.107687605345, -69609.72483274041, -20444.17952825779, -16414.85290704404, 187500.0, -59680.94583522628, -20733.94754337639, 0.63, -0.588, 0.546, 192.0, 0.0, 0.0, 0.0, 0.0, 0.0, 0.0, 0.0, 0.0, 0.0, 1.6635931292686636E9, 0.0, 2022-09-19 18:12:09.268
15.0, -21688.52349382919, -19162.84342561286, -69651.65670533857, -20453.61196441793, -16386.73441251927, 187500.0, -59632.64371545836, -20732.941714875906, 0.63, -0.588, 0.546, 192.0, 0.0, 0.0, 0.0, 0.0, 0.0, 0.0, 0.0, 0.0, 0.0, 1.6635931292726624E9, 0.0, 2022-09-19 18:12:09.272
16.0, -21374.83911214341, -19136.401311922233, -69746.40575008461, -20497.935473672806, -16267.107876194463, 187500.0, -59625.93819212177, -20748.654991227984, 0.63, -0.588, 0.546, 192.0, 0.0, 0.0, 0.0, 0.0, 0.0, 0.0, 0.0, 0.0, 0.0, 1.6635931292766852E9, 0.0, 2022-09-19 18:12:09.276
17.0, -21290.707146013636, -19165.950318092146, -69744.8634797172, -20517.20267739328, -16237.69298049128, 187500.0, -59751.46558898278, -20766.87166295906, 0.63, -0.588, 0.546, 192.0, 0.0, 0.0, 0.0, 0.0, 0.0, 0.0, 0.0, 0.0, 0.0, 1.663593129279682E9, 0.0, 2022-09-19 18:12:09.279
18.0, -21630.096033823018, -19214.319493093433, -69640.59259183319, -20473.57207221652, -16360.851092440022, 187500.0, -59788.16715337839, -20754.15352036399, 0.628, -0.586, 0.55, 192.0, 19.0, 160.0, 237.0, 176.0, 17.0, 48.0, 0.0, 0.0, 0.0, 1.6635931292846763E9, 0.0, 2022-09-19 18:12:09.284
19.0, -21801.489210306314, -19200.528466764506, -69618.46436482243, -20444.76067361363, -16419.658532101934, 187500.0, -59696.592056345, -20736.316828288655, 0.628, -0.586, 0.55, 192.0, 0.0, 0.0, 0.0, 0.0, 0.0, 0.0, 0.0, 0.0, 0.0, 1.6635931292897787E9, 0.0, 2022-09-19 18:12:09.289
20.0, -21738.54669792017, -19168.252547771044, -69656.01529550736, -20452.98611557318, -16391.227113154782, 187500.0, -59640.73504695119, -20733.20993580937, 0.628, -0.586, 0.55, 192.0, 0.0, 0.0, 0.0, 0.0, 0.0, 0.0, 0.0, 0.0, 0.0, 1.663593129292775E9, 0.0, 2022-09-19 18:12:09.292
21.0, -21418.648531275812, -19132.690922342652, -69746.18223264006, -20497.555494017066, -16267.845483761488, 187500.0, -59631.70494219124, -20744.47521501484, 0.628, -0.586, 0.55, 192.0, 0.0, 0.0, 0.0, 0.0, 0.0, 0.0, 0.0, 0.0, 0.0, 1.6635931292967434E9, 0.0, 2022-09-19 18:12:09.296
22.0, -21327.74398657608, -19165.03389656948, -69746.69632276254, -20522.85766874047, -16233.893183933877, 187500.0, -59762.37324027697, -20768.54804379321, 0.628, -0.586, 0.55, 192.0, 0.0, 0.0, 0.0, 0.0, 0.0, 0.0, 0.0, 0.0, 0.0, 1.6635931292997437E9, 0.0, 2022-09-19 18:12:09.299
23.0, -21674.844226222544, -19215.817059971938, -69636.94925748698, -20477.260110051648, -16361.007554651209, 187500.0, -59791.51991504669, -20753.48296803033, 0.628, -0.586, 0.55, 192.0, 0.0, 0.0, 0.0, 0.0, 0.0, 0.0, 0.0, 0.0, 0.0, 1.6635931293036735E9, 0.0, 2022-09-19 18:12:09.303
24.0, -21848.18200447345, -19198.673271974716, -69612.60820777515, -20447.28642073708, -16420.239677457772, 187500.0, -59691.92054175384, -20735.355703277077, 0.628, -0.586, 0.55, 192.0, 0.0, 0.0, 0.0, 0.0, 0.0, 0.0, 0.0, 0.0, 0.0, 1.663593129307744E9, 0.0, 2022-09-19 18:12:09.307
25.0, -21787.07233513264, -19174.46633272962, -69660.23977520941, -20461.971516844216, -16391.20476141033, 187500.0, -59648.960488910736, -20743.49173825881, 0.628, -0.586, 0.55, 192.0, 0.0, 0.0, 0.0, 0.0, 0.0, 0.0, 0.0, 0.0, 0.0, 1.6635931293117373E9, 0.0, 2022-09-19 18:12:09.311
26.0, -21468.44821792224, -19149.20886149512, -69755.12293042218, -20508.016110422148, -16266.012640716153, 187500.0, -59642.23261382969, -20763.92123269096, 0.628, -0.586, 0.55, 192.0, 0.0, 0.0, 0.0, 0.0, 0.0, 0.0, 0.0, 0.0, 0.0, 1.663593129316749E9, 0.0, 2022-09-19 18:12:09.316
27.0, -21374.570891209947, -19179.2272542986, -69754.85470948872, -20531.798366522595, -16230.87569843241, 187500.0, -59765.03309786715, -20783.30019513371, 0.628, -0.586, 0.55, 192.0, 0.0, 0.0, 0.0, 0.0, 0.0, 0.0, 0.0, 0.0, 0.0, 1.6635931293207476E9, 0.0, 2022-09-19 18:12:09.320
28.0, -21715.032662753187, -19219.28158036251, -69637.2845336538, -20481.171665331327, -16354.972583648276, 187500.0, -59790.44703131283, -20761.887223945527, 0.63, -0.582, 0.55, 192.0, 19.0, 176.0, 237.0, 208.0, 17.0, 48.0, 0.0, 0.0, 0.0, 1.6635931293247733E9, 0.0, 2022-09-19 18:12:09.324
29.0, -21890.00211834933, -19206.898713934268, -69619.87252472312, -20454.86366210743, -16414.562334366125, 187500.0, -59696.502649367176, -20745.257526070778, 0.63, -0.582, 0.55, 192.0, 0.0, 0.0, 0.0, 0.0, 0.0, 0.0, 0.0, 0.0, 0.0, 1.6635931293277583E9, 0.0, 2022-09-19 18:12:09.327
30.0, -21832.714597310376, -19174.1757600517, -69667.05705726828, -20467.112418068937, -16387.33790961956, 187500.0, -59650.368648811425, -20746.933906904927, 0.63, -0.582, 0.55, 192.0, 0.0, 0.0, 0.0, 0.0, 0.0, 0.0, 0.0, 0.0, 0.0, 1.6635931293317838E9, 0.0, 2022-09-19 18:12:09.331
31.0, -21515.319826045015, -19139.038817767956, -69761.31436363631, -20511.57003779054, -16264.202149415274, 187500.0, -59641.8749859184, -20764.457674557885, 0.63, -0.582, 0.55, 192.0, 0.0, 0.0, 0.0, 0.0, 0.0, 0.0, 0.0, 0.0, 0.0, 1.6635931293358297E9, 0.0, 2022-09-19 18:12:09.335
32.0, -21416.23454287464, -19170.97946059459, -69759.10154093523, -20535.911087502373, -16228.238192586685, 187500.0, -59762.37324027697, -20786.138866679536, 0.63, -0.582, 0.55, 192.0, 0.0, 0.0, 0.0, 0.0, 0.0, 0.0, 0.0, 0.0, 0.0, 1.6635931293398192E9, 0.0, 2022-09-19 18:12:09.339
33.0, -21763.334782521106, -19233.76551076955, -69657.66932459704, -20498.963653917748, -16357.90066217192, 187500.0, -59805.35564486452, -20780.05919218769, 0.63, -0.582, 0.55, 192.0, 0.0, 0.0, 0.0, 0.0, 0.0, 0.0, 0.0, 0.0, 0.0, 1.6635931293448117E9, 0.0, 2022-09-19 18:12:09.344
34.0, -21944.473319586912, -19224.2883711205, -69633.84236500769, -20467.894729124873, -16419.546773379658, 187500.0, -59707.70087333929, -20754.265279086267, 0.63, -0.582, 0.55, 192.0, 0.0, 0.0, 0.0, 0.0, 0.0, 0.0, 0.0, 0.0, 0.0, 1.6635931293487701E9, 0.0, 2022-09-19 18:12:09.348
35.0, -21885.4647142249, -19187.07271660241, -69675.7965893503, -20469.749923914664, -16389.841304998554, 187500.0, -59655.93423318079, -20745.413988281965, 0.63, -0.582, 0.55, 192.0, 0.0, 0.0, 0.0, 0.0, 0.0, 0.0, 0.0, 0.0, 0.0, 1.6635931293528705E9, 0.0, 2022-09-19 18:12:09.352
36.0, -21562.30319289007, -19145.230250982077, -69770.5679858408, -20510.1395261454, -16261.765809269646, 187500.0, -59643.37255279691, -20763.183625123933, 0.63, -0.582, 0.55, 192.0, 0.0, 0.0, 0.0, 0.0, 0.0, 0.0, 0.0, 0.0, 0.0, 1.6635931293558722E9, 0.0, 2022-09-19 18:12:09.355
37.0, -21453.80782530401, -19175.27099553001, -69776.69236382155, -20530.524317088642, -16217.330541292495, 187500.0, -59771.29158631463, -20783.143732922523, 0.63, -0.582, 0.55, 192.0, 0.0, 0.0, 0.0, 0.0, 0.0, 0.0, 0.0, 0.0, 0.0, 1.6635931293598483E9, 0.0, 2022-09-19 18:12:09.359
38.0, -21792.570864268644, -19223.774280998026, -69668.57697589124, -20488.10070611247, -16339.147548573917, 187500.0, -59809.825993755585, -20774.24773862931, 0.628, -0.588, 0.546, 192.0, 19.0, 160.0, 237.0, 160.0, 17.0, 16.0, 0.0, 0.0, 0.0, 1.6635931293638725E9, 0.0, 2022-09-19 18:12:09.363
39.0, -21966.668601831032, -19215.124155893824, -69644.37003664614, -20459.75869414314, -16396.14449693495, 187500.0, -59711.29950419659, -20752.365380807565, 0.628, -0.588, 0.546, 192.0, 0.0, 0.0, 0.0, 0.0, 0.0, 0.0, 0.0, 0.0, 0.0, 1.6635931293678691E9, 0.0, 2022-09-19 18:12:09.367
40.0, -21895.970034118895, -19175.31569901892, -69688.29121450082, -20467.5818047025, -16361.85692094051, 187500.0, -59660.695154749774, -20745.369284793054, 0.628, -0.588, 0.546, 192.0, 0.0, 0.0, 0.0, 0.0, 0.0, 0.0, 0.0, 0.0, 0.0, 1.663593129372897E9, 0.0, 2022-09-19 18:12:09.372
41.0, -21566.728838292223, -19140.938716046658, -69785.40954415912, -20513.894619213894, -16234.317867078527, 187500.0, -59652.06738139003, -20765.128226891546, 0.628, -0.588, 0.546, 192.0, 0.0, 0.0, 0.0, 0.0, 0.0, 0.0, 0.0, 0.0, 0.0, 1.6635931293768072E9, 0.0, 2022-09-19 18:12:09.376
42.0, -21442.743711798634, -19176.880321130793, -69799.17821874359, -20545.097654473502, -16187.401555466839, 187500.0, -59783.45093529832, -20792.844390016126, 0.628, -0.588, 0.546, 192.0, 0.0, 0.0, 0.0, 0.0, 0.0, 0.0, 0.0, 0.0, 0.0, 1.6635931293808708E9, 0.0, 2022-09-19 18:12:09.380
43.0, -21768.609794212556, -19224.936571709703, -69684.96080457697, -20500.170648118336, -16304.055309779085, 187500.0, -59820.80070028314, -20778.271052631266, 0.628, -0.588, 0.546, 192.0, 0.0, 0.0, 0.0, 0.0, 0.0, 0.0, 0.0, 0.0, 0.0, 1.6635931293838546E9, 0.0, 2022-09-19 18:12:09.383
44.0, -21940.561764307233, -19200.439059786684, -69652.81899605025, -20467.33593551349, -16360.024077895176, 187500.0, -59719.636704878416, -20757.64039249902, 0.628, -0.588, 0.546, 192.0, 0.0, 0.0, 0.0, 0.0, 0.0, 0.0, 0.0, 0.0, 0.0, 1.6635931293878767E9, 0.0, 2022-09-19 18:12:09.387
45.0, -21868.544443672236, -19160.49649244505, -69689.36409823467, -20471.359249515444, -16327.077606568053, 187500.0, -59661.0304309166, -20756.545157020708, 0.628, -0.588, 0.546, 192.0, 0.0, 0.0, 0.0, 0.0, 0.0, 0.0, 0.0, 0.0, 0.0, 1.6635931293919797E9, 0.0, 2022-09-19 18:12:09.391
46.0, -21533.02240765362, -19129.382864163264, -69785.4765993925, -20511.748851746186, -16195.135259048375, 187500.0, -59648.20052959926, -20766.223462369857, 0.628, -0.588, 0.546, 192.0, 0.0, 0.0, 0.0, 0.0, 0.0, 0.0, 0.0, 0.0, 0.0, 1.663593129395932E9, 0.0, 2022-09-19 18:12:09.395
47.0, -21400.834190944934, -19160.049457555946, -69795.64664311966, -20538.995628237204, -16142.183976433753, 187500.0, -59779.42762129637, -20790.74332603733, 0.628, -0.588, 0.546, 192.0, 0.0, 0.0, 0.0, 0.0, 0.0, 0.0, 0.0, 0.0, 0.0, 1.663593129399928E9, 0.0, 2022-09-19 18:12:09.399
48.0, -21729.69540711587, -19213.38071982631, -69678.00941205137, -20496.326148072025, -16263.285727892606, 187500.0, -59815.8162612696, -20784.954224223402, 0.628, -0.592, 0.548, 192.0, 19.0, 160.0, 237.0, 128.0, 17.0, 32.0, 0.0, 0.0, 0.0, 1.6635931294049888E9, 0.0, 2022-09-19 18:12:09.404
49.0, -21903.10024060014, -19204.663539488738, -69647.1863564475, -20466.464217479734, -16326.876440867954, 187500.0, -59715.1440042429, -20766.91636644797, 0.628, -0.592, 0.548, 192.0, 0.0, 0.0, 0.0, 0.0, 0.0, 0.0, 0.0, 0.0, 0.0, 1.663593129408926E9, 0.0, 2022-09-19 18:12:09.408
50.0, -21830.479422864846, -19179.003736854047, -69688.73824938992, -20480.992851375682, -16297.550952142592, 187500.0, -59661.56687278353, -20769.1515408935, 0.628, -0.592, 0.548, 192.0, 0.0, 0.0, 0.0, 0.0, 0.0, 0.0, 0.0, 0.0, 0.0, 1.6635931294119487E9, 0.0, 2022-09-19 18:12:09.411
51.0, -21493.63863392337, -19146.59370739385, -69780.40275340114, -20528.467956598754, -16169.184883735763, 187500.0, -59649.2287098442, -20788.73166903635, 0.628, -0.592, 0.548, 192.0, 0.0, 0.0, 0.0, 0.0, 0.0, 0.0, 0.0, 0.0, 0.0, 1.663593129415944E9, 0.0, 2022-09-19 18:12:09.415
52.0, -21354.811949111456, -19176.41093449723, -69786.21420695951, -20554.060704000083, -16117.57470578846, 187500.0, -59779.204103851815, -20806.657768089506, 0.628, -0.592, 0.548, 192.0, 0.0, 0.0, 0.0, 0.0, 0.0, 0.0, 0.0, 0.0, 0.0, 1.6635931294199564E9, 0.0, 2022-09-19 18:12:09.419
53.0, -21680.47686582528, -19221.00266468557, -69666.38650493462, -20506.563247032555, -16237.290649091085, 187500.0, -59816.50916534772, -20787.39056436903, 0.628, -0.592, 0.548, 192.0, 0.0, 0.0, 0.0, 0.0, 0.0, 0.0, 0.0, 0.0, 0.0, 1.6635931294240024E9, 0.0, 2022-09-19 18:12:09.424
54.0, -21853.99345803183, -19206.541086022986, -69641.0843302112, -20471.940394871282, -16299.27203646565, 187500.0, -59719.86022232297, -20762.15544487899, 0.628, -0.592, 0.548, 192.0, 0.0, 0.0, 0.0, 0.0, 0.0, 0.0, 0.0, 0.0, 0.0, 1.663593129427924E9, 0.0, 2022-09-19 18:12:09.427
55.0, -21782.758448452765, -19179.2272542986, -69686.19015052202, -20481.77516243162, -16272.360536141461, 187500.0, -59672.34041361099, -20761.037857656225, 0.628, -0.592, 0.548, 192.0, 0.0, 0.0, 0.0, 0.0, 0.0, 0.0, 0.0, 0.0, 0.0, 1.6635931294328907E9, 0.0, 2022-09-19 18:12:09.432
56.0, -21446.588211844948, -19144.179718992676, -69775.93240451008, -20525.428119352833, -16148.040133481043, 187500.0, -59653.76611396863, -20778.11459042008, 0.628, -0.592, 0.548, 192.0, 0.0, 0.0, 0.0, 0.0, 0.0, 0.0, 0.0, 0.0, 0.0, 1.6635931294370751E9, 0.0, 2022-09-19 18:12:09.437
57.0, -21304.431117109194, -19170.510073961028, -69780.0674772343, -20546.371703907455, -16098.173391601253, 187500.0, -59773.77262994917, -20796.755945295805, 0.628, -0.592, 0.548, 192.0, 0.0, 0.0, 0.0, 0.0, 0.0, 0.0, 0.0, 0.0, 0.0, 1.6635931294399595E9, 0.0, 2022-09-19 18:12:09.439
58.0, -21633.51585072468, -19231.530336324016, -69675.01427829436, -20501.73527023021, -16223.723140206712, 187500.0, -59825.65102882994, -20783.97074746737, 0.632, -0.592, 0.54, 192.0, 19.0, 192.0, 237.0, 128.0, 16.0, 224.0, 0.0, 0.0, 0.0, 1.6635931294439557E9, 0.0, 2022-09-19 18:12:09.443
59.0, -21815.883733735533, -19233.22906890262, -69652.95310651697, -20469.995793103673, -16293.013548018165, 187500.0, -59737.16047253138, -20768.615099026574, 0.632, -0.592, 0.54, 192.0, 0.0, 0.0, 0.0, 0.0, 0.0, 0.0, 0.0, 0.0, 0.0, 1.6635931294479911E9, 0.0, 2022-09-19 18:12:09.447
60.0, -21746.995657324274, -19195.834600428894, -69685.0502115548, -20473.057982094047, -16263.59865231498, 187500.0, -59674.37442235642, -20762.35661057909, 0.632, -0.592, 0.54, 192.0, 0.0, 0.0, 0.0, 0.0, 0.0, 0.0, 0.0, 0.0, 0.0, 1.6635931294520507E9, 0.0, 2022-09-19 18:12:09.452
61.0, -21409.752536982603, -19151.73460861857, -69773.78663704236, -20513.291122113602, -16134.360865874394, 187500.0, -59650.30159357806, -20777.645203786517, 0.632, -0.592, 0.54, 192.0, 0.0, 0.0, 0.0, 0.0, 0.0, 0.0, 0.0, 0.0, 0.0, 1.663593129455968E9, 0.0, 2022-09-19 18:12:09.455
62.0, -21254.519671740494, -19156.182605765178, -69778.07817197779, -20532.06658745606, -16076.961586113166, 187500.0, -59765.59189147853, -20793.470238860875, 0.632, -0.592, 0.54, 192.0, 0.0, 0.0, 0.0, 0.0, 0.0, 0.0, 0.0, 0.0, 0.0, 1.663593129460104E9, 0.0, 2022-09-19 18:12:09.460
63.0, -21582.03978324411, -19208.016301157037, -69675.93069981704, -20497.57784576152, -16202.556038207536, 187500.0, -59820.13014794948, -20787.748192280316, 0.632, -0.592, 0.54, 192.0, 0.0, 0.0, 0.0, 0.0, 0.0, 0.0, 0.0, 0.0, 0.0, 1.663593129465012E9, 0.0, 2022-09-19 18:12:09.465
64.0, -21760.093779575083, -19206.339920322887, -69646.00171399137, -20464.452560478756, -16267.309041894561, 187500.0, -59721.670713623855, -20766.24581411431, 0.632, -0.592, 0.54, 192.0, 0.0, 0.0, 0.0, 0.0, 0.0, 0.0, 0.0, 0.0, 0.0, 1.663593129468073E9, 0.0, 2022-09-19 18:12:09.468
65.0, -21688.881121740476, -19180.724821177104, -69683.17266502055, -20468.744095414175, -16235.994247912677, 187500.0, -59666.70777400825, -20762.446017556907, 0.632, -0.592, 0.54, 192.0, 0.0, 0.0, 0.0, 0.0, 0.0, 0.0, 0.0, 0.0, 0.0, 1.6635931294720592E9, 0.0, 2022-09-19 18:12:09.472
66.0, -21354.677838644726, -19140.759902091017, -69780.71567782351, -20512.4417558243, -16109.081042895443, 187500.0, -59651.48623603419, -20779.500398576307, 0.632, -0.592, 0.54, 192.0, 0.0, 0.0, 0.0, 0.0, 0.0, 0.0, 0.0, 0.0, 0.0, 1.6635931294760263E9, 0.0, 2022-09-19 18:12:09.476
67.0, -21199.310862935887, -19154.036838297467, -69787.71177383802, -20535.978142735737, -16051.614707900848, 187500.0, -59768.78819093564, -20799.840486030636, 0.632, -0.592, 0.54, 192.0, 0.0, 0.0, 0.0, 0.0, 0.0, 0.0, 0.0, 0.0, 0.0, 1.6635931294800568E9, 0.0, 2022-09-19 18:12:09.480
68.0, -21520.505430758647, -19211.90550469226, -69670.1415980031, -20492.213427092247, -16172.58234889297, 187500.0, -59817.73851129276, -20791.12330569307, 0.63, -0.592, 0.542, 192.0, 19.0, 176.0, 237.0, 128.0, 16.0, 240.0, 0.0, 0.0, 0.0, 1.6635931294840596E9, 0.0, 2022-09-19 18:12:09.484
69.0, -21704.974377748298, -19209.066833146433, -69642.00075173387, -20461.032743577092, -16242.766826482633, 187500.0, -59718.317951955556, -20768.615099026574, 0.63, -0.592, 0.542, 192.0, 0.0, 0.0, 0.0, 0.0, 0.0, 0.0, 0.0, 0.0, 0.0, 1.663593129488063E9, 0.0, 2022-09-19 18:12:09.488
70.0, -21644.7587781857, -19176.880321130793, -69679.68579288552, -20470.308717526044, -16220.146861093863, 187500.0, -59659.62227101592, -20767.519863548263, 0.63, -0.592, 0.542, 192.0, 0.0, 0.0, 0.0, 0.0, 0.0, 0.0, 0.0, 0.0, 0.0, 1.6635931294930909E9, 0.0, 2022-09-19 18:12:09.493
71.0, -21309.0802799559, -19140.17875673518, -69773.40665738663, -20515.235723881215, -16090.752612442091, 187500.0, -59642.21026208524, -20786.720012035374, 0.63, -0.592, 0.542, 192.0, 0.0, 0.0, 0.0, 0.0, 0.0, 0.0, 0.0, 0.0, 0.0, 1.6635931294960537E9, 0.0, 2022-09-19 18:12:09.496
72.0, -21147.18659486611, -19168.207844282133, -69789.99165177246, -20546.282296929636, -16031.900469291268, 187500.0, -59771.24688282572, -20812.603332114617, 0.63, -0.592, 0.542, 192.0, 0.0, 0.0, 0.0, 0.0, 0.0, 0.0, 0.0, 0.0, 0.0, 1.6635931295000513E9, 0.0, 2022-09-19 18:12:09.500
73.0, -21468.20234873323, -19227.641132788794, -69680.69162138601, -20507.881999955418, -16151.594060849437, 187500.0, -59826.03100848568, -20803.93085526596, 0.63, -0.592, 0.542, 192.0, 0.0, 0.0, 0.0, 0.0, 0.0, 0.0, 0.0, 0.0, 0.0, 1.6635931295040636E9, 0.0, 2022-09-19 18:12:09.504
74.0, -21656.873423680478, -19224.064853675944, -69645.97936224692, -20474.734362928197, -16220.392730282872, 187500.0, -59727.48216718223, -20782.92021547797, 0.63, -0.592, 0.542, 192.0, 0.0, 0.0, 0.0, 0.0, 0.0, 0.0, 0.0, 0.0, 0.0, 1.6635931295081096E9, 0.0, 2022-09-19 18:12:09.508
75.0, -21594.109725249975, -19192.548893993964, -69675.70718237248, -20468.76644715863, -16189.837895612467, 187500.0, -59664.114971651434, -20771.744343250317, 0.63, -0.592, 0.542, 192.0, 0.0, 0.0, 0.0, 0.0, 0.0, 0.0, 0.0, 0.0, 0.0, 1.6635931295120893E9, 0.0, 2022-09-19 18:12:09.512
76.0, -21264.041514878456, -19160.876472100794, -69770.88091026318, -20511.614741279453, -16062.790580128501, 187500.0, -59645.36185805343, -20791.72680279336, 0.63, -0.592, 0.542, 192.0, 0.0, 0.0, 0.0, 0.0, 0.0, 0.0, 0.0, 0.0, 0.0, 1.663593129516034E9, 0.0, 2022-09-19 18:12:09.516
77.0, -21099.487972198483, -19186.26805380202, -69788.09175349376, -20541.58843059402, -16004.050195699954, 187500.0, -59772.23035958176, -20820.1135182516, 0.63, -0.592, 0.542, 192.0, 0.0, 0.0, 0.0, 0.0, 0.0, 0.0, 0.0, 0.0, 0.0, 1.6635931295211911E9, 0.0, 2022-09-19 18:12:09.521
78.0, -21421.37544409936, -19238.593487571896, -69675.21544399446, -20497.331976572514, -16124.928429714255, 187500.0, -59827.64033408646, -20808.937646023947, 0.634, -0.594, 0.546, 192.0, 19.0, 208.0, 237.0, 112.0, 17.0, 16.0, 0.0, 0.0, 0.0, 1.6635931295241137E9, 0.0, 2022-09-19 18:12:09.524
79.0, -21613.75690862619, -19232.200888657677, -69644.10181571267, -20464.72078141222, -16192.654215413835, 187500.0, -59731.952516073296, -20788.73166903635, 0.634, -0.594, 0.546, 192.0, 0.0, 0.0, 0.0, 0.0, 0.0, 0.0, 0.0, 0.0, 0.0, 1.6635931295281117E9, 0.0, 2022-09-19 18:12:09.528
80.0, -21554.16715790834, -19194.247626572567, -69680.49045568591, -20467.447694235765, -16160.981793520665, 187500.0, -59675.156733412354, -20772.906633961993, 0.634, -0.594, 0.546, 192.0, 0.0, 0.0, 0.0, 0.0, 0.0, 0.0, 0.0, 0.0, 0.0, 1.6635931295320547E9, 0.0, 2022-09-19 18:12:09.532
81.0, -21226.758805127003, -19149.87941382878, -69768.9139567511, -20508.038462166605, -16032.861594302845, 187500.0, -59651.15095986736, -20789.26811090328, 0.634, -0.594, 0.546, 192.0, 0.0, 0.0, 0.0, 0.0, 0.0, 0.0, 0.0, 0.0, 0.0, 1.66359312953614E9, 0.0, 2022-09-19 18:12:09.536
82.0, -21060.148901957145, -19173.75107690705, -69784.58252961427, -20536.82750902504, -15970.67904122818, 187500.0, -59770.55397874761, -20813.5644571262, 0.634, -0.594, 0.546, 192.0, 0.0, 0.0, 0.0, 0.0, 0.0, 0.0, 0.0, 0.0, 0.0, 1.6635931295401037E9, 0.0, 2022-09-19 18:12:09.540
83.0, -21385.18796982622, -19237.118272437845, -69681.13865627511, -20502.651691752875, -16092.406641531783, 187500.0, -59832.84829054455, -20810.614026858097, 0.634, -0.594, 0.546, 192.0, 0.0, 0.0, 0.0, 0.0, 0.0, 0.0, 0.0, 0.0, 0.0, 1.6635931295441232E9, 0.0, 2022-09-19 18:12:09.544
84.0, -21585.50430363468, -19235.441891603696, -69653.06486523926, -20477.52833098511, -16165.206273222719, 187500.0, -59744.78241739064, -20797.78412554075, 0.634, -0.594, 0.546, 192.0, 0.0, 0.0, 0.0, 0.0, 0.0, 0.0, 0.0, 0.0, 0.0, 1.66359312954912E9, 0.0, 2022-09-19 18:12:09.549
85.0, -21531.860116941945, -19208.977426168614, -69686.07839179975, -20480.76933393113, -16139.233546165651, 187500.0, -59685.57264632853, -20790.16218068149, 0.634, -0.594, 0.546, 192.0, 0.0, 0.0, 0.0, 0.0, 0.0, 0.0, 0.0, 0.0, 0.0, 1.6635931295522273E9, 0.0, 2022-09-19 18:12:09.552
86.0, -21208.922113051667, -19160.228271511587, -69761.96256422551, -20511.63709302391, -16014.220239427119, 187500.0, -59650.10042787796, -20796.040689473237, 0.634, -0.594, 0.546, 192.0, 0.0, 0.0, 0.0, 0.0, 0.0, 0.0, 0.0, 0.0, 0.0, 1.6635931295561593E9, 0.0, 2022-09-19 18:12:09.556
87.0, -21035.07024467829, -19160.652954656238, -69772.40082888614, -20531.954828733782, -15945.734494416058, 187500.0, -59760.048658853615, -20804.601407599617, 0.634, -0.594, 0.546, 192.0, 0.0, 0.0, 0.0, 0.0, 0.0, 0.0, 0.0, 0.0, 0.0, 1.6635931295601895E9, 0.0, 2022-09-19 18:12:09.560
88.0, -21353.0908647884, -19200.684928975694, -69660.46329265396, -20489.553569502066, -16060.220129516141, 187500.0, -59816.19624092535, -20794.051384216713, 0.636, -0.586, 0.546, 192.0, 19.0, 224.0, 237.0, 176.0, 17.0, 16.0, 0.0, 0.0, 0.0, 1.663593129564159E9, 0.0, 2022-09-19 18:12:09.564
89.0, -21548.80273923907, -19193.331205049897, -69631.29426613978, -20456.47298770821, -16128.996447205122, 187500.0, -59718.943800800305, -20777.3546311086, 0.636, -0.586, 0.546, 192.0, 0.0, 0.0, 0.0, 0.0, 0.0, 0.0, 0.0, 0.0, 0.0, 1.6635931295681643E9, 0.0, 2022-09-19 18:12:09.568
90.0, -21498.824238637, -19166.196187281155, -69678.25528124039, -20466.15129305736, -16107.04703415001, 187500.0, -59668.182989142304, -20782.29436663322, 0.636, -0.586, 0.546, 192.0, 0.0, 0.0, 0.0, 0.0, 0.0, 0.0, 0.0, 0.0, 0.0, 1.6635931295721838E9, 0.0, 2022-09-19 18:12:09.572
91.0, -21176.243862658008, -19136.110739244312, -69770.00919222942, -20509.91600870085, -15984.53712279047, 187500.0, -59644.60189874195, -20798.49938136332, 0.636, -0.586, 0.546, 192.0, 0.0, 0.0, 0.0, 0.0, 0.0, 0.0, 0.0, 0.0, 0.0, 1.663593129576185E9, 0.0, 2022-09-19 18:12:09.576
92.0, -20997.027575615357, -19155.534405175975, -69789.96930002801, -20539.889698015417, -15917.370130702273, 187500.0, -59758.104057086, -20808.44590764593, 0.636, -0.586, 0.546, 192.0, 0.0, 0.0, 0.0, 0.0, 0.0, 0.0, 0.0, 0.0, 0.0, 1.6635931295792038E9, 0.0, 2022-09-19 18:12:09.579
93.0, -21314.26588466953, -19213.42542331522, -69679.08229578522, -20503.29989234208, -16034.582678625904, 187500.0, -59818.900802004435, -20802.343881409633, 0.636, -0.586, 0.546, 192.0, 0.0, 0.0, 0.0, 0.0, 0.0, 0.0, 0.0, 0.0, 0.0, 1.6635931295842044E9, 0.0, 2022-09-19 18:12:09.584
94.0, -21516.63857896788, -19212.33018783691, -69645.35351340217, -20471.023973348616, -16106.488240538627, 187500.0, -59726.7445596152, -20782.74140152233, 0.636, -0.586, 0.546, 192.0, 0.0, 0.0, 0.0, 0.0, 0.0, 0.0, 0.0, 0.0, 0.0, 1.6635931295882876E9, 0.0, 2022-09-19 18:12:09.588
95.0, -21461.541528885547, -19180.613062454828, -69680.87043534165, -20470.688697181788, -16080.694327437202, 187500.0, -59668.92059670933, -20770.2020728829, 0.636, -0.586, 0.546, 192.0, 0.0, 0.0, 0.0, 0.0, 0.0, 0.0, 0.0, 0.0, 0.0, 1.663593129592208E9, 0.0, 2022-09-19 18:12:09.592
96.0, -21138.022379639435, -19151.68990512966, -69781.56504411281, -20517.381491348922, -15956.843311410346, 187500.0, -59655.06251514704, -20787.412916113488, 0.636, -0.586, 0.546, 192.0, 0.0, 0.0, 0.0, 0.0, 0.0, 0.0, 0.0, 0.0, 0.0, 1.6635931295961795E9, 0.0, 2022-09-19 18:12:09.596
97.0, -20950.737112848416, -19167.850216370847, -69793.32206169631, -20543.175404450347, -15881.0485459624, 187500.0, -59764.34019378903, -20803.08148897666, 0.636, -0.586, 0.546, 192.0, 0.0, 0.0, 0.0, 0.0, 0.0, 0.0, 0.0, 0.0, 0.0, 1.6635931296012068E9, 0.0, 2022-09-19 18:12:09.601
98.0, -21266.34374455735, -19223.66252227575, -69683.5973481652, -20501.556456274564, -15990.907369960234, 187500.0, -59829.62963934299, -20791.97267198237, 0.636, -0.586, 0.546, 192.0, 0.0, 0.0, 0.0, 0.0, 0.0, 0.0, 0.0, 0.0, 0.0, 1.663593129604195E9, 0.0, 2022-09-19 18:12:09.604
99.0, -21473.9690988027, -19221.784975741502, -69645.62173433564, -20469.571109959023, -16062.9917458286, 187500.0, -59735.1488155304, -20770.49264556082, 0.624, -0.59, 0.544, 192.0, 19.0, 128.0, 237.0, 144.0, 17.0, 0.0, 0.0, 0.0, 0.0, 1.6635931296072545E9, 0.0, 2022-09-19 18:12:09.607
100.0, -21428.371540113872, -19194.493495761573, -69682.0997812867, -20478.802380419063, -16042.562251396448, 187500.0, -59680.36468987045, -20769.844444971615, 0.624, -0.59, 0.544, 192.0, 0.0, 0.0, 0.0, 0.0, 0.0, 0.0, 0.0, 0.0, 0.0, 1.6635931296122348E9, 0.0, 2022-09-19 18:12:09.612
101.0, -21105.388832734687, -19158.70835288863, -69769.85273001823, -20517.53795356011, -15913.972665545067, 187500.0, -59655.889529691885, -20786.58590156864, 0.624, -0.59, 0.544, 192.0, 0.0, 0.0, 0.0, 0.0, 0.0, 0.0, 0.0, 0.0, 0.0, 1.6635931296162412E9, 0.0, 2022-09-19 18:12:09.616
102.0, -20919.645836311083, -19184.18934156768, -69792.71856459601, -20546.572869607553, -15840.033094886912, 187500.0, -59776.25367358371, -20808.334148923655, 0.624, -0.59, 0.544, 192.0, 0.0, 0.0, 0.0, 0.0, 0.0, 0.0, 0.0, 0.0, 0.0, 1.6635931296202238E9, 0.0, 2022-09-19 18:12:09.620
103.0, -21236.705331409616, -19244.114368452356, -69675.70718237248, -20502.3387673305, -15951.188320063153, 187500.0, -59830.233136443276, -20794.409012128, 0.624, -0.59, 0.544, 192.0, 0.0, 0.0, 0.0, 0.0, 0.0, 0.0, 0.0, 0.0, 0.0, 1.6635931296242568E9, 0.0, 2022-09-19 18:12:09.624
104.0, -21443.034284476555, -19232.491461335598, -69635.36228363065, -20465.72660991271, -16022.333922664397, 187500.0, -59728.599754405, -20766.53638679223, 0.624, -0.59, 0.544, 192.0, 0.0, 0.0, 0.0, 0.0, 0.0, 0.0, 0.0, 0.0, 0.0, 1.663593129628214E9, 0.0, 2022-09-19 18:12:09.628
105.0, -21393.301653063496, -19199.299120819465, -69671.95208930399, -20469.928737870305, -15996.718823518613, 187500.0, -59668.406506586856, -20762.557776279187, 0.624, -0.59, 0.544, 192.0, 0.0, 0.0, 0.0, 0.0, 0.0, 0.0, 0.0, 0.0, 0.0, 1.663593129632269E9, 0.0, 2022-09-19 18:12:09.632
106.0, -21075.057515508834, -19168.274899515498, -69764.68947704906, -20512.128831401926, -15875.460609848573, 187500.0, -59645.71948596472, -20779.299232876212, 0.624, -0.59, 0.544, 192.0, 0.0, 0.0, 0.0, 0.0, 0.0, 0.0, 0.0, 0.0, 0.0, 1.6635931296352232E9, 0.0, 2022-09-19 18:12:09.635
107.0, -20885.22414984991, -19177.84144614237, -69790.88572155067, -20544.31534341757, -15809.724129405515, 187500.0, -59764.13902808893, -20802.410936643, 0.624, -0.59, 0.544, 192.0, 0.0, 0.0, 0.0, 0.0, 0.0, 0.0, 0.0, 0.0, 0.0, 1.663593129639326E9, 0.0, 2022-09-19 18:12:09.639
108.0, -21195.712232078582, -19229.406920600763, -69681.60804290867, -20500.707089985262, -15924.701502883614, 187500.0, -59829.20495619834, -20790.609215570596, 0.624, -0.59, 0.544, 192.0, 0.0, 0.0, 0.0, 0.0, 0.0, 0.0, 0.0, 0.0, 0.0, 1.6635931296443253E9, 0.0, 2022-09-19 18:12:09.644
109.0, -21404.65633924679, -19224.0872054204, -69650.31560067125, -20462.843234877975, -16005.100727689354, 187500.0, -59738.54628068761, -20767.87749145955, 0.634, -0.594, 0.542, 192.0, 19.0, 208.0, 237.0, 112.0, 16.0, 240.0, 0.0, 0.0, 0.0, 1.6635931296483076E9, 0.0, 2022-09-19 18:12:09.648
110.0, -21354.18610026671, -19178.51199847603, -69684.2455487544, -20461.85975812194, -15985.945282691157, 187500.0, -59677.39190785789, -20760.836691956127, 0.634, -0.594, 0.542, 192.0, 0.0, 0.0, 0.0, 0.0, 0.0, 0.0, 0.0, 0.0, 0.0, 1.6635931296523015E9, 0.0, 2022-09-19 18:12:09.652
111.0, -21037.73010226847, -19141.631620124772, -69775.97710799899, -20503.054023153072, -15871.660813291172, 187500.0, -59650.05572438905, -20780.930910221447, 0.634, -0.594, 0.542, 192.0, 0.0, 0.0, 0.0, 0.0, 0.0, 0.0, 0.0, 0.0, 0.0, 1.6635931296562698E9, 0.0, 2022-09-19 18:12:09.656
112.0, -20847.0697220647, -19160.518844189508, -69794.39494543016, -20533.54180259011, -15809.768832894426, 187500.0, -59761.32270828757, -20805.54018086674, 0.634, -0.594, 0.542, 192.0, 0.0, 0.0, 0.0, 0.0, 0.0, 0.0, 0.0, 0.0, 0.0, 1.6635931296603236E9, 0.0, 2022-09-19 18:12:09.660
113.0, -21156.37316183724, -19211.011434914046, -69675.66247888356, -20492.34753755898, -15926.310828484397, 187500.0, -59823.08057821758, -20789.49162834783, 0.634, -0.594, 0.542, 192.0, 0.0, 0.0, 0.0, 0.0, 0.0, 0.0, 0.0, 0.0, 0.0, 1.6635931296634145E9, 0.0, 2022-09-19 18:12:09.663
114.0, -21374.123856320843, -19209.692681991182, -69637.10571969816, -20462.552662200054, -16010.420442869718, 187500.0, -59726.67750438184, -20771.677288016952, 0.634, -0.594, 0.542, 192.0, 0.0, 0.0, 0.0, 0.0, 0.0, 0.0, 0.0, 0.0, 0.0, 1.6635931296673331E9, 0.0, 2022-09-19 18:12:09.667
115.0, -21330.9849895221, -19180.50130373255, -69669.31458345825, -20468.25235703616, -15995.221256640109, 187500.0, -59663.936157695796, -20769.10683740459, 0.634, -0.594, 0.542, 192.0, 0.0, 0.0, 0.0, 0.0, 0.0, 0.0, 0.0, 0.0, 0.0, 1.6635931296723244E9, 0.0, 2022-09-19 18:12:09.672
116.0, -21015.803040957813, -19137.87652705628, -69754.94411646655, -20508.68666275581, -15878.52279883895, 187500.0, -59636.26469806012, -20779.276881131755, 0.634, -0.594, 0.542, 192.0, 0.0, 0.0, 0.0, 0.0, 0.0, 0.0, 0.0, 0.0, 0.0, 1.6635931296764185E9, 0.0, 2022-09-19 18:12:09.676
117.0, -20829.054216033725, -19164.139826791266, -69783.50964588042, -20546.327000418547, -15819.60360045476, 187500.0, -59760.02630710916, -20810.412861157998, 0.634, -0.594, 0.542, 192.0, 0.0, 0.0, 0.0, 0.0, 0.0, 0.0, 0.0, 0.0, 0.0, 1.6635931296803782E9, 0.0, 2022-09-19 18:12:09.680
118.0, -21143.05152214188, -19218.812193728947, -69668.28640321332, -20506.317377843545, -15938.067846067888, 187500.0, -59827.08154047508, -20807.685948334452, 0.634, -0.594, 0.542, 192.0, 0.0, 0.0, 0.0, 0.0, 0.0, 0.0, 0.0, 0.0, 0.0, 1.6635931296843226E9, 0.0, 2022-09-19 18:12:09.684
119.0, -21363.216205026652, -19214.274789604522, -69630.31078938374, -20467.96178435824, -16021.797480797468, 187500.0, -59736.08758879753, -20788.597558569618, 0.632, -0.588, 0.544, 192.0, 19.0, 192.0, 237.0, 160.0, 17.0, 0.0, 0.0, 0.0, 0.0, 1.6635931296883547E9, 0.0, 2022-09-19 18:12:09.688
120.0, -21322.580733606905, -19180.52365547701, -69656.50703388537, -20461.591537188477, -16003.893733488767, 187500.0, -59667.66889901983, -20771.40906708349, 0.632, -0.588, 0.544, 192.0, 0.0, 0.0, 0.0, 0.0, 0.0, 0.0, 0.0, 0.0, 0.0, 1.6635931296913483E9, 0.0, 2022-09-19 18:12:09.691
121.0, -21010.103346121712, -19144.202070737134, -69744.63996227265, -20502.24936035268, -15888.04464197691, 187500.0, -59638.544575994565, -20783.948395722913, 0.632, -0.588, 0.544, 192.0, 0.0, 0.0, 0.0, 0.0, 0.0, 0.0, 0.0, 0.0, 0.0, 1.6635931296953807E9, 0.0, 2022-09-19 18:12:09.695
122.0, -20813.765622826293, -19166.50911170353, -69778.30168942234, -20543.935363761826, -15823.313990034341, 187500.0, -59751.91262387188, -20807.574189612173, 0.632, -0.588, 0.544, 192.0, 0.0, 0.0, 0.0, 0.0, 0.0, 0.0, 0.0, 0.0, 0.0, 1.6635931296993828E9, 0.0, 2022-09-19 18:12:09.699
123.0, -21122.0855858428, -19220.95796119666, -69670.61098463667, -20503.478706297723, -15938.783101890458, 187500.0, -59818.16319443741, -20788.5081515918, 0.632, -0.588, 0.544, 192.0, 0.0, 0.0, 0.0, 0.0, 0.0, 0.0, 0.0, 0.0, 0.0, 1.6635931297044384E9, 0.0, 2022-09-19 18:12:09.704
124.0, -21341.13268150481, -19212.75487098156, -69632.76948127383, -20462.41855173332, -16017.662408073236, 187500.0, -59722.83300433553, -20763.742418735317, 0.632, -0.588, 0.544, 192.0, 0.0, 0.0, 0.0, 0.0, 0.0, 0.0, 0.0, 0.0, 0.0, 1.6635931297084124E9, 0.0, 2022-09-19 18:12:09.708
125.0, -21303.134715930788, -19186.357460779844, -69674.52253991635, -20463.402028489356, -16000.183343909186, 187500.0, -59661.00807917215, -20761.127264634048, 0.632, -0.588, 0.544, 192.0, 0.0, 0.0, 0.0, 0.0, 0.0, 0.0, 0.0, 0.0, 0.0, 1.663593129712408E9, 0.0, 2022-09-19 18:12:09.712
126.0, -20993.294834291322, -19148.471253928095, -69766.38820962766, -20504.14925863138, -15883.52958959694, 187500.0, -59632.75547418064, -20776.661727030485, 0.632, -0.588, 0.544, 192.0, 0.0, 0.0, 0.0, 0.0, 0.0, 0.0, 0.0, 0.0, 0.0, 1.6635931297164006E9, 0.0, 2022-09-19 18:12:09.716
127.0, -20791.525637093262, -19161.18939652317, -69798.99940478794, -20537.16278519187, -15812.60750444025, 187500.0, -59746.25763252469, -20801.22629418687, 0.632, -0.588, 0.544, 192.0, 0.0, 0.0, 0.0, 0.0, 0.0, 0.0, 0.0, 0.0, 0.0, 1.6635931297194023E9, 0.0, 2022-09-19 18:12:09.719
128.0, -21101.812553621836, -19220.17565014072, -69695.08614481523, -20496.974348661228, -15927.29430524043, 187500.0, -59822.72295030629, -20786.407087613, 0.632, -0.588, 0.544, 192.0, 0.0, 0.0, 0.0, 0.0, 0.0, 0.0, 0.0, 0.0, 0.0, 1.6635931297234619E9, 0.0, 2022-09-19 18:12:09.723
129.0, -21328.191021465187, -19219.70626350716, -69658.18341471952, -20462.932641855794, -16009.88400100279, 187500.0, -59728.800920105095, -20767.698677503908, 0.63, -0.586, 0.546, 192.0, 19.0, 176.0, 237.0, 176.0, 17.0, 16.0, 0.0, 0.0, 0.0, 1.6635931297274098E9, 0.0, 2022-09-19 18:12:09.727
130.0, -21294.48459082658, -19184.949300879158, -69685.16197027707, -20463.67024942282, -15995.154201406742, 187500.0, -59657.72237273722, -20764.904709446993, 0.63, -0.586, 0.546, 192.0, 0.0, 0.0, 0.0, 0.0, 0.0, 0.0, 0.0, 0.0, 0.0, 1.663593129732428E9, 0.0, 2022-09-19 18:12:09.732
131.0, -20983.951805109, -19139.262335212512, -69767.84107301725, -20501.176476618824, -15876.622900560249, 187500.0, -59623.300686276045, -20776.05822993019, 0.63, -0.586, 0.546, 192.0, 0.0, 0.0, 0.0, 0.0, 0.0, 0.0, 0.0, 0.0, 0.0, 1.6635931297364495E9, 0.0, 2022-09-19 18:12:09.736
132.0, -20773.957165951393, -19153.656858641727, -69801.45809667803, -20534.25705841268, -15801.208114768044, 187500.0, -59737.473396953756, -20794.25254991681, 0.63, -0.586, 0.546, 192.0, 0.0, 0.0, 0.0, 0.0, 0.0, 0.0, 0.0, 0.0, 0.0, 1.6635931297394664E9, 0.0, 2022-09-19 18:12:09.739
133.0, -21081.852445823246, -19224.154260653766, -69695.06379307077, -20499.656557995862, -15915.20201149011, 187500.0, -59815.07865370258, -20785.490666090333, 0.63, -0.586, 0.546, 192.0, 0.0, 0.0, 0.0, 0.0, 0.0, 0.0, 0.0, 0.0, 0.0, 1.6635931297434604E9, 0.0, 2022-09-19 18:12:09.743
134.0, -21308.543838088972, -19232.312647379953, -69659.59157462021, -20468.565281458534, -15998.149335163753, 187500.0, -59730.477300939245, -20768.145712393012, 0.63, -0.586, 0.546, 192.0, 0.0, 0.0, 0.0, 0.0, 0.0, 0.0, 0.0, 0.0, 0.0, 1.663593129747434E9, 0.0, 2022-09-19 18:12:09.747
135.0, -21273.183378360674, -19195.27580681751, -69689.14058079012, -20469.593461703476, -15985.140619890764, 187500.0, -59667.71360250874, -20759.92027043346, 0.63, -0.586, 0.546, 192.0, 0.0, 0.0, 0.0, 0.0, 0.0, 0.0, 0.0, 0.0, 0.0, 1.6635931297514832E9, 0.0, 2022-09-19 18:12:09.751
136.0, -20962.181206009533, -19148.806530094927, -69770.34446839624, -20500.4388690518, -15866.229339388532, 187500.0, -59630.81087241303, -20767.698677503908, 0.63, -0.586, 0.546, 192.0, 0.0, 0.0, 0.0, 0.0, 0.0, 0.0, 0.0, 0.0, 0.0, 1.6635931297555397E9, 0.0, 2022-09-19 18:12:09.755
137.0, -20745.190470837413, -19158.1719110217, -69803.98384380148, -20531.35133163349, -15785.919521560612, 187500.0, -59740.93791734432, -20790.273939403767, 0.63, -0.586, 0.546, 192.0, 0.0, 0.0, 0.0, 0.0, 0.0, 0.0, 0.0, 0.0, 0.0, 1.6635931297604833E9, 0.0, 2022-09-19 18:12:09.760
138.0, -21046.64844830614, -19209.759737224547, -69688.201807523, -20494.62741549342, -15895.24190369152, 187500.0, -59813.35756937952, -20787.30115739121, 0.63, -0.586, 0.546, 192.0, 0.0, 0.0, 0.0, 0.0, 0.0, 0.0, 0.0, 0.0, 0.0, 1.6635931297644744E9, 0.0, 2022-09-19 18:12:09.764
139.0, -21272.69163998266, -19204.663539488738, -69641.19608893349, -20458.75286564265, -15975.886997686268, 187500.0, -59719.25672522268, -20765.105875147092, 0.63, -0.578, 0.546, 192.0, 19.0, 176.0, 237.0, 240.0, 17.0, 16.0, 0.0, 0.0, 0.0, 1.663593129768519E9, 0.0, 2022-09-19 18:12:09.768
140.0, -21240.39336924474, -19176.32152751941, -69675.93069981704, -20461.65859242184, -15960.330183545375, 187500.0, -59661.0304309166, -20757.64039249902, 0.63, -0.578, 0.546, 192.0, 0.0, 0.0, 0.0, 0.0, 0.0, 0.0, 0.0, 0.0, 0.0, 1.6635931297715557E9, 0.0, 2022-09-19 18:12:09.771
141.0, -20935.113243474156, -19138.636486367763, -69768.19870092854, -20501.66821499684, -15843.721132722038, 187500.0, -59633.49308174766, -20774.515959562774, 0.63, -0.578, 0.546, 192.0, 0.0, 0.0, 0.0, 0.0, 0.0, 0.0, 0.0, 0.0, 0.0, 1.663593129775506E9, 0.0, 2022-09-19 18:12:09.775
142.0, -20712.556923932665, -19153.50039643054, -69802.50862866743, -20535.911087502373, -15760.639698581661, 187500.0, -59742.23431852274, -20795.526599350764, 0.63, -0.578, 0.546, 192.0, 0.0, 0.0, 0.0, 0.0, 0.0, 0.0, 0.0, 0.0, 0.0, 1.6635931297795036E9, 0.0, 2022-09-19 18:12:09.779
143.0, -21014.752508968417, -19213.045443659477, -69695.64493842662, -20499.43304055131, -15875.348851126297, 187500.0, -59820.51012760522, -20790.698622548418, 0.63, -0.578, 0.546, 192.0, 0.0, 0.0, 0.0, 0.0, 0.0, 0.0, 0.0, 0.0, 0.0, 1.663593129783584E9, 0.0, 2022-09-19 18:12:09.783
144.0, -21245.467215236094, -19210.810269213947, -69652.77429256133, -20460.56335694353, -15960.687811456659, 187500.0, -59730.36554221697, -20769.330354849142, 0.63, -0.578, 0.546, 192.0, 0.0, 0.0, 0.0, 0.0, 0.0, 0.0, 0.0, 0.0, 0.0, 1.6635931297886431E9, 0.0, 2022-09-19 18:12:09.788
145.0, -21210.86671481928, -19175.74038216357, -69682.36800222016, -20456.651801663855, -15941.82293913638, 187500.0, -59668.607672286955, -20752.454787785387, 0.63, -0.578, 0.546, 192.0, 0.0, 0.0, 0.0, 0.0, 0.0, 0.0, 0.0, 0.0, 0.0, 1.6635931297925377E9, 0.0, 2022-09-19 18:12:09.792
146.0, -20909.52049607283, -19138.949410790137, -69768.19870092854, -20497.421383550332, -15826.934972636102, 187500.0, -59634.87888990389, -20769.084485660136, 0.63, -0.578, 0.546, 192.0, 0.0, 0.0, 0.0, 0.0, 0.0, 0.0, 0.0, 0.0, 0.0, 1.6635931297955253E9, 0.0, 2022-09-19 18:12:09.795
147.0, -20685.28779569719, -19155.35559122033, -69798.86529432122, -20533.810023523572, -15746.938079230558, 187500.0, -59739.82033012156, -20794.923102250472, 0.63, -0.578, 0.546, 192.0, 0.0, 0.0, 0.0, 0.0, 0.0, 0.0, 0.0, 0.0, 0.0, 1.6635931297996001E9, 0.0, 2022-09-19 18:12:09.799
148.0, -20978.296813761808, -19214.587714026897, -69690.30287150179, -20495.16385736035, -15855.589909027805, 187500.0, -59821.53830785016, -20789.558683581196, 0.63, -0.578, 0.546, 192.0, 0.0, 0.0, 0.0, 0.0, 0.0, 0.0, 0.0, 0.0, 0.0, 1.663593129803553E9, 0.0, 2022-09-19 18:12:09.803
149.0, -21211.336101452842, -19218.789841984493, -69647.96866750345, -20456.629449919397, -15940.079503068866, 187500.0, -59736.35580973099, -20768.503340304298, 0.64, -0.582, 0.542, 192.0, 20.0, 0.0, 237.0, 208.0, 16.0, 240.0, 0.0, 0.0, 0.0, 1.6635931298074987E9, 0.0, 2022-09-19 18:12:09.807
150.0, -21180.893025504713, -19187.676213702707, -69676.10951377267, -20452.98611557318, -15923.159232516198, 187500.0, -59671.71456476624, -20760.72493323385, 0.64, -0.582, 0.542, 192.0, 0.0, 0.0, 0.0, 0.0, 0.0, 0.0, 0.0, 0.0, 0.0, 1.6635931298116229E9, 0.0, 2022-09-19 18:12:09.811
151.0, -20878.742143957872, -19153.098065030346, -69768.82454977329, -20496.6390724944, -15810.573495694816, 187500.0, -59640.69034346227, -20773.085447917634, 0.64, -0.582, 0.542, 192.0, 0.0, 0.0, 0.0, 0.0, 0.0, 0.0, 0.0, 0.0, 0.0, 1.6635931298155477E9, 0.0, 2022-09-19 18:12:09.815
152.0, -20651.13433016948, -19165.592690180863, -69800.80989608883, -20532.223049667246, -15727.134433643156, 187500.0, -59743.57542319005, -20789.290462647732, 0.64, -0.582, 0.542, 192.0, 0.0, 0.0, 0.0, 0.0, 0.0, 0.0, 0.0, 0.0, 0.0, 1.6635931298205996E9, 0.0, 2022-09-19 18:12:09.820
153.0, -20945.05976975677, -19223.19313564219, -69691.42045872456, -20492.4369445368, -15832.791129683392, 187500.0, -59821.135976449965, -20775.29827061871, 0.64, -0.582, 0.542, 192.0, 0.0, 0.0, 0.0, 0.0, 0.0, 0.0, 0.0, 0.0, 0.0, 1.6635931298235822E9, 0.0, 2022-09-19 18:12:09.823
154.0, -21184.692822062116, -19229.451624089674, -69651.63435359411, -20458.037609820083, -15923.539212171938, 187500.0, -59736.82519636455, -20759.339125077622, 0.64, -0.582, 0.542, 192.0, 0.0, 0.0, 0.0, 0.0, 0.0, 0.0, 0.0, 0.0, 0.0, 1.6635931298275888E9, 0.0, 2022-09-19 18:12:09.827
155.0, -21160.70940026157, -19208.552743023964, -69688.60413892318, -20461.837406377486, -15914.91143881219, 187500.0, -59678.531846825106, -20756.58986050962, 0.64, -0.582, 0.542, 192.0, 0.0, 0.0, 0.0, 0.0, 0.0, 0.0, 0.0, 0.0, 0.0, 1.6635931298316329E9, 0.0, 2022-09-19 18:12:09.831
156.0, -20862.51477748332, -19168.051382070946, -69780.98389875697, -20502.361119074958, -15800.582265923294, 187500.0, -59646.8817766764, -20775.275918874257, 0.64, -0.582, 0.542, 192.0, 0.0, 0.0, 0.0, 0.0, 0.0, 0.0, 0.0, 0.0, 0.0, 1.6635931298356943E9, 0.0, 2022-09-19 18:12:09.835
157.0, -20625.65334149043, -19168.453713471143, -69818.66893990862, -20537.095729958502, -15712.248171835921, 187500.0, -59749.275118026155, -20801.315701164687, 0.64, -0.582, 0.542, 192.0, 0.0, 0.0, 0.0, 0.0, 0.0, 0.0, 0.0, 0.0, 0.0, 1.663593129839642E9, 0.0, 2022-09-19 18:12:09.839
158.0, -20915.354301375664, -19226.836469988404, -69709.43596475554, -20501.399994063377, -15819.268324287932, 187500.0, -59829.29436317615, -20794.520770850275, 0.64, -0.582, 0.542, 192.0, 0.0, 0.0, 0.0, 0.0, 0.0, 0.0, 0.0, 0.0, 0.0, 1.6635931298436697E9, 0.0, 2022-09-19 18:12:09.843
159.0, -21150.18172862312, -19222.85785947536, -69654.98711526241, -20456.33887724148, -15899.399328160207, 187500.0, -59730.2984869836, -20765.19528212491, 0.63, -0.592, 0.542, 192.0, 19.0, 176.0, 237.0, 128.0, 16.0, 240.0, 0.0, 0.0, 0.0, 1.6635931298486514E9, 0.0, 2022-09-19 18:12:09.848
160.0, -21122.26439979844, -19193.532370749996, -69681.6974498865, -20451.488548694677, -15881.607339573782, 187500.0, -59658.57173902652, -20753.214747096867, 0.63, -0.592, 0.542, 192.0, 0.0, 0.0, 0.0, 0.0, 0.0, 0.0, 0.0, 0.0, 0.0, 1.663593129851767E9, 0.0, 2022-09-19 18:12:09.851
161.0, -20828.182497999966, -19163.46927445761, -69781.29682317935, -20499.365985317945, -15769.759210319426, 187500.0, -59640.42212252881, -20775.991174696825, 0.63, -0.592, 0.542, 192.0, 0.0, 0.0, 0.0, 0.0, 0.0, 0.0, 0.0, 0.0, 0.0, 1.6635931298556583E9, 0.0, 2022-09-19 18:12:09.855
162.0, -20584.079096803558, -19166.822036125905, -69815.07030905131, -20530.97135197775, -15676.015994073869, 187500.0, -59737.741617887215, -20794.945453994926, 0.63, -0.592, 0.542, 192.0, 0.0, 0.0, 0.0, 0.0, 0.0, 0.0, 0.0, 0.0, 0.0, 1.6635931298606343E9, 0.0, 2022-09-19 18:12:09.860
163.0, -20873.623594477605, -19236.537127082007, -69714.62156946916, -20499.85772369596, -15781.27035871391, 187500.0, -59825.09223521856, -20783.188436411434, 0.63, -0.592, 0.542, 192.0, 0.0, 0.0, 0.0, 0.0, 0.0, 0.0, 0.0, 0.0, 0.0, 1.6635931298636937E9, 0.0, 2022-09-19 18:12:09.863
164.0, -21112.1837630491, -19230.300990378975, -69664.6430688671, -20459.848101120962, -15866.072877177345, 187500.0, -59733.07010329606, -20759.897918689003, 0.63, -0.592, 0.542, 192.0, 0.0, 0.0, 0.0, 0.0, 0.0, 0.0, 0.0, 0.0, 0.0, 1.6635931298676805E9, 0.0, 2022-09-19 18:12:09.867
165.0, -21088.960300560037, -19192.66065271624, -69695.6002349377, -20461.43507497729, -15856.349868339286, 187500.0, -59671.133419410406, -20754.242927341813, 0.63, -0.592, 0.542, 192.0, 0.0, 0.0, 0.0, 0.0, 0.0, 0.0, 0.0, 0.0, 0.0, 1.663593129871726E9, 0.0, 2022-09-19 18:12:09.871
166.0, -20795.63835807304, -19150.952297562635, -69780.96154701251, -20498.82954345102, -15748.390942620152, 187500.0, -59640.71269520673, -20768.145712393012, 0.63, -0.592, 0.542, 192.0, 0.0, 0.0, 0.0, 0.0, 0.0, 0.0, 0.0, 0.0, 0.0, 1.6635931298756776E9, 0.0, 2022-09-19 18:12:09.875
167.0, -20554.30657318909, -19158.775408121994, -69821.99934983246, -20535.575811335544, -15663.253147989888, 187500.0, -59743.24014702322, -20795.794820284227, 0.63, -0.592, 0.542, 192.0, 0.0, 0.0, 0.0, 0.0, 0.0, 0.0, 0.0, 0.0, 0.0, 1.663593129879711E9, 0.0, 2022-09-19 18:12:09.879
168.0, -20838.17372777149, -19220.0862431629, -69717.75081369291, -20497.130810872415, -15768.529864374384, 187500.0, -59829.13790096497, -20788.798724269716, 0.63, -0.592, 0.542, 192.0, 0.0, 0.0, 0.0, 0.0, 0.0, 0.0, 0.0, 0.0, 0.0, 1.663593129883742E9, 0.0, 2022-09-19 18:12:09.883
169.0, -21080.73485860048, -19223.528411809017, -69666.90059505709, -20458.5293481981, -15856.483978806018, 187500.0, -59734.36650447446, -20766.2011106254, 0.628, -0.59, 0.544, 192.0, 19.0, 160.0, 237.0, 144.0, 17.0, 0.0, 0.0, 0.0, 0.0, 1.6635931298887348E9, 0.0, 2022-09-19 18:12:09.888
170.0, -21062.0711519803, -19192.83946667188, -69694.77322039286, -20461.971516844216, -15848.325592079831, 187500.0, -59666.171332141326, -20759.96497392237, 0.628, -0.59, 0.544, 192.0, 0.0, 0.0, 0.0, 0.0, 0.0, 0.0, 0.0, 0.0, 0.0, 1.663593129891678E9, 0.0, 2022-09-19 18:12:09.891
171.0, -20771.83375022814, -19156.495530187553, -69785.5213028814, -20505.803287721075, -15741.93128847257, 187500.0, -59637.51639574962, -20775.790008996726, 0.628, -0.59, 0.544, 192.0, 0.0, 0.0, 0.0, 0.0, 0.0, 0.0, 0.0, 0.0, 0.0, 1.6635931298947802E9, 0.0, 2022-09-19 18:12:09.894
172.0, -20528.602067065487, -19165.100951802844, -69827.94491385757, -20547.48929113022, -15657.53110140933, 187500.0, -59740.35677198849, -20802.187419198446, 0.628, -0.59, 0.544, 192.0, 0.0, 0.0, 0.0, 0.0, 0.0, 0.0, 0.0, 0.0, 0.0, 1.6635931298997169E9, 0.0, 2022-09-19 18:12:09.899
173.0, -20814.36911992659, -19221.1367751523, -69717.97433113746, -20514.475764569732, -15766.78642830687, 187500.0, -59828.333238164574, -20796.73359355135, 0.628, -0.59, 0.544, 192.0, 0.0, 0.0, 0.0, 0.0, 0.0, 0.0, 0.0, 0.0, 0.0, 1.663593129903696E9, 0.0, 2022-09-19 18:12:09.903
174.0, -21059.679515323583, -19218.09693790638, -69662.27378395484, -20469.571109959023, -15858.47328406254, 187500.0, -59738.658039409886, -20770.380886838542, 0.628, -0.59, 0.544, 192.0, 0.0, 0.0, 0.0, 0.0, 0.0, 0.0, 0.0, 0.0, 0.0, 1.6635931299077318E9, 0.0, 2022-09-19 18:12:09.907
175.0, -21039.317076124797, -19193.286501560986, -69688.33591798972, -20464.94429885677, -15852.393609570696, 187500.0, -59670.30640486556, -20761.90957568998, 0.628, -0.59, 0.544, 192.0, 0.0, 0.0, 0.0, 0.0, 0.0, 0.0, 0.0, 0.0, 0.0, 1.6635931299117622E9, 0.0, 2022-09-19 18:12:09.911
176.0, -20750.666648228962, -19162.35168723484, -69774.8148172873, -20503.836334209005, -15748.88268099817, 187500.0, -59637.2258230717, -20778.092238675625, 0.628, -0.59, 0.544, 192.0, 0.0, 0.0, 0.0, 0.0, 0.0, 0.0, 0.0, 0.0, 0.0, 1.6635931299167643E9, 0.0, 2022-09-19 18:12:09.916
177.0, -20506.25032261018, -19169.571300693908, -69823.85454462226, -20546.885794029928, -15668.662270148072, 187500.0, -59743.41896097887, -20807.663596589995, 0.628, -0.59, 0.544, 192.0, 0.0, 0.0, 0.0, 0.0, 0.0, 0.0, 0.0, 0.0, 0.0, 1.663593129919753E9, 0.0, 2022-09-19 18:12:09.919
178.0, -20784.35072712311, -19219.639208273795, -69711.38056652315, -20508.73136624472, -15774.721297588505, 187500.0, -59824.26522067371, -20792.53146559375, 0.628, -0.59, 0.544, 192.0, 0.0, 0.0, 0.0, 0.0, 0.0, 0.0, 0.0, 0.0, 0.0, 1.663593129922762E9, 0.0, 2022-09-19 18:12:09.922
179.0, -21031.359855098708, -19219.236876873598, -69658.92102228654, -20462.776179644607, -15865.13410391022, 187500.0, -59731.81840560656, -20766.156407136492, 0.628, -0.592, 0.548, 192.0, 19.0, 160.0, 237.0, 128.0, 17.0, 32.0, 0.0, 0.0, 0.0, 1.66359312992787E9, 0.0, 2022-09-19 18:12:09.927
180.0, -21017.479421791963, -19200.975501653615, -69698.95299660599, -20464.67607792331, -15861.401362586184, 187500.0, -59675.82728574602, -20768.503340304298, 0.628, -0.592, 0.548, 192.0, 0.0, 0.0, 0.0, 0.0, 0.0, 0.0, 0.0, 0.0, 0.0, 1.6635931299317784E9, 0.0, 2022-09-19 18:12:09.931
181.0, -20730.170098563445, -19157.63546915477, -69785.4765993925, -20500.796496963085, -15757.778675291382, 187500.0, -59641.47265451821, -20787.83759925814, 0.628, -0.592, 0.548, 192.0, 0.0, 0.0, 0.0, 0.0, 0.0, 0.0, 0.0, 0.0, 0.0, 1.6635931299357803E9, 0.0, 2022-09-19 18:12:09.935
182.0, -20476.67896469581, -19155.98144006508, -69827.85550687976, -20537.25219216969, -15669.355174226186, 187500.0, -59732.82423410705, -20809.183515212957, 0.628, -0.592, 0.548, 192.0, 0.0, 0.0, 0.0, 0.0, 0.0, 0.0, 0.0, 0.0, 0.0, 1.6635931299398077E9, 0.0, 2022-09-19 18:12:09.939
183.0, -20755.91930817596, -19218.253400117566, -69723.78578469584, -20506.38443307691, -15774.989518521968, 187500.0, -59819.92898224938, -20802.656805832008, 0.628, -0.592, 0.548, 192.0, 0.0, 0.0, 0.0, 0.0, 0.0, 0.0, 0.0, 0.0, 0.0, 1.66359312994483E9, 0.0, 2022-09-19 18:12:09.944
184.0, -21011.511506022394, -19227.238801388597, -69675.46131318346, -20471.67217393782, -15872.197255158098, 187500.0, -59735.39468471941, -20789.335166136643, 0.628, -0.592, 0.548, 192.0, 0.0, 0.0, 0.0, 0.0, 0.0, 0.0, 0.0, 0.0, 0.0, 1.6635931299477952E9, 0.0, 2022-09-19 18:12:09.947
185.0, -20992.378412768652, -19187.743268936072, -69695.35436574869, -20461.926813355305, -15863.591833542805, 187500.0, -59662.662108261844, -20774.06892467367, 0.628, -0.592, 0.548, 192.0, 0.0, 0.0, 0.0, 0.0, 0.0, 0.0, 0.0, 0.0, 0.0, 1.6635931299508214E9, 0.0, 2022-09-19 18:12:09.950
186.0, -20706.387842463, -19143.46446317011, -69772.19966318604, -20492.34753755898, -15757.130474702177, 187500.0, -59623.36774150941, -20780.39446835452, 0.628, -0.592, 0.548, 192.0, 0.0, 0.0, 0.0, 0.0, 0.0, 0.0, 0.0, 0.0, 0.0, 1.663593129955816E9, 0.0, 2022-09-19 18:12:09.955
187.0, -20453.500205695655, -19154.75209412004, -69818.31131199734, -20529.384378121424, -15669.198712014999, 187500.0, -59721.76012060167, -20801.561570353697, 0.628, -0.592, 0.548, 192.0, 0.0, 0.0, 0.0, 0.0, 0.0, 0.0, 0.0, 0.0, 0.0, 1.6635931299598556E9, 0.0, 2022-09-19 18:12:09.959
188.0, -20732.561735220163, -19223.528411809017, -69720.09774686072, -20504.708052242764, -15779.683384857582, 187500.0, -59823.661723573416, -20801.58392209815, 0.628, -0.592, 0.548, 192.0, 0.0, 0.0, 0.0, 0.0, 0.0, 0.0, 0.0, 0.0, 0.0, 1.6635931299638298E9, 0.0, 2022-09-19 18:12:09.963
189.0, -20989.584444711738, -19234.27960089202, -69666.3418014457, -20469.81697914803, -15877.181694171632, 187500.0, -59741.00497257769, -20782.406125355497, 0.63, -0.598, 0.544, 192.0, 19.0, 176.0, 237.0, 80.0, 17.0, 0.0, 0.0, 0.0, 0.0, 1.6635931299678483E9, 0.0, 2022-09-19 18:12:09.967
190.0, -20976.128694549643, -19195.812248684437, -69689.74407789041, -20467.71591516923, -15873.001917958489, 187500.0, -59672.47452407772, -20780.21565439888, 0.63, -0.598, 0.544, 192.0, 0.0, 0.0, 0.0, 0.0, 0.0, 0.0, 0.0, 0.0, 0.0, 1.6635931299718454E9, 0.0, 2022-09-19 18:12:09.971
191.0, -20693.11090625655, -19142.972724792093, -69768.10929395072, -20498.49426728419, -15768.954547519035, 187500.0, -59638.388113783374, -20788.083468447145, 0.63, -0.598, 0.544, 192.0, 0.0, 0.0, 0.0, 0.0, 0.0, 0.0, 0.0, 0.0, 0.0, 1.6635931299760032E9, 0.0, 2022-09-19 18:12:09.976
192.0, -20437.63046713239, -19151.198166751645, -69811.27051249391, -20537.67687531434, -15679.43581097553, 187500.0, -59736.847548109006, -20808.758832068306, 0.63, -0.598, 0.544, 192.0, 0.0, 0.0, 0.0, 0.0, 0.0, 0.0, 0.0, 0.0, 0.0, 1.663593129978906E9, 0.0, 2022-09-19 18:12:09.978
193.0, -20711.595798921087, -19213.157202381757, -69706.39612750961, -20505.713880743253, -15784.310195959832, 187500.0, -59833.585898111574, -20800.555741853208, 0.63, -0.598, 0.544, 192.0, 0.0, 0.0, 0.0, 0.0, 0.0, 0.0, 0.0, 0.0, 0.0, 1.6635931299839172E9, 0.0, 2022-09-19 18:12:09.983
194.0, -20974.228796270945, -19219.840373973893, -69650.51676637135, -20464.005525589648, -15885.429487875641, 187500.0, -59745.63178367994, -20775.097104918612, 0.63, -0.598, 0.544, 192.0, 0.0, 0.0, 0.0, 0.0, 0.0, 0.0, 0.0, 0.0, 0.0, 1.6635931299878352E9, 0.0, 2022-09-19 18:12:09.987
195.0, -20965.91394733357, -19189.017318370024, -69676.17656900604, -20460.116322054426, -15881.361470384774, 187500.0, -59673.30153862257, -20762.803645468193, 0.63, -0.598, 0.544, 192.0, 0.0, 0.0, 0.0, 0.0, 0.0, 0.0, 0.0, 0.0, 0.0, 1.6635931299919705E9, 0.0, 2022-09-19 18:12:09.991
196.0, -20689.75814458825, -19146.705466116127, -69756.79931125633, -20496.706127727764, -15779.705736602038, 187500.0, -59633.56013698103, -20776.97465145286, 0.63, -0.598, 0.544, 192.0, 0.0, 0.0, 0.0, 0.0, 0.0, 0.0, 0.0, 0.0, 0.0, 1.6635931299958832E9, 0.0, 2022-09-19 18:12:09.995
197.0, -20432.400158929846, -19152.002829552035, -69807.89539908116, -20540.33673290452, -15693.137430326633, 187500.0, -59732.01957130666, -20800.77925929776, 0.63, -0.598, 0.544, 192.0, 0.0, 0.0, 0.0, 0.0, 0.0, 0.0, 0.0, 0.0, 0.0, 1.6635931299999049E9, 0.0, 2022-09-19 18:12:09.999
198.0, -20703.99620580628, -19208.0833563904, -69707.3572525212, -20508.77606973363, -15799.039995555879, 187500.0, -59829.0708457316, -20795.995985984326, 0.63, -0.598, 0.544, 192.0, 0.0, 0.0, 0.0, 0.0, 0.0, 0.0, 0.0, 0.0, 0.0, 1.6635931300039363E9, 0.0, 2022-09-19 18:12:10.003
199.0, -20961.600060653695, -19204.305911577452, -69646.26993492484, -20462.977345344705, -15896.962988014579, 187500.0, -59740.177958032844, -20773.912462462482, 0.63, -0.598, 0.544, 192.0, 0.0, 0.0, 0.0, 0.0, 0.0, 0.0, 0.0, 0.0, 0.0, 1.6635931300069535E9, 0.0, 2022-09-19 18:12:10.006
200.0, -20957.040304784812, -19174.46633272962, -69676.4447899395, -20462.44090347778, -15898.9522932711, 187500.0, -59670.39581184338, -20768.659802515485, 0.634, -0.592, 0.546, 192.0, 19.0, 208.0, 237.0, 128.0, 17.0, 16.0, 0.0, 0.0, 0.0, 1.6635931300110197E9, 0.0, 2022-09-19 18:12:10.011
201.0, -20684.550188130164, -19139.575259634883, -69765.76236078292, -20499.120116128935, -15802.03512931289, 187500.0, -59635.43768351528, -20783.97074746737, 0.634, -0.592, 0.546, 192.0, 0.0, 0.0, 0.0, 0.0, 0.0, 0.0, 0.0, 0.0, 0.0, 1.663593130015973E9, 0.0, 2022-09-19 18:12:10.015
202.0, -20421.224286702192, -19143.93384980367, -69817.99838757496, -20536.380474135934, -15710.325921812764, 187500.0, -59731.326667228546, -20805.584884355652, 0.634, -0.592, 0.546, 192.0, 0.0, 0.0, 0.0, 0.0, 0.0, 0.0, 0.0, 0.0, 0.0, 1.663593130019898E9, 0.0, 2022-09-19 18:12:10.019
203.0, -20689.691089354885, -19208.23981860159, -69711.44762175651, -20500.751793474174, -15812.071062573323, 187500.0, -59820.733645049775, -20799.840486030636, 0.634, -0.592, 0.546, 192.0, 0.0, 0.0, 0.0, 0.0, 0.0, 0.0, 0.0, 0.0, 0.0, 1.6635931300239644E9, 0.0, 2022-09-19 18:12:10.023
204.0, -20954.872185572647, -19216.018225672036, -69654.67419084003, -20457.09883655296, -15910.53049689895, 187500.0, -59734.590021919015, -20777.332279364146, 0.634, -0.592, 0.546, 192.0, 0.0, 0.0, 0.0, 0.0, 0.0, 0.0, 0.0, 0.0, 0.0, 1.6635931300279677E9, 0.0, 2022-09-19 18:12:10.027
205.0, -20952.86052857167, -19189.017318370024, -69684.62552841015, -20460.228080776702, -15909.09998525381, 187500.0, -59673.346242111475, -20775.477084574355, 0.634, -0.592, 0.546, 192.0, 0.0, 0.0, 0.0, 0.0, 0.0, 0.0, 0.0, 0.0, 0.0, 1.6635931300319488E9, 0.0, 2022-09-19 18:12:10.031
206.0, -20681.55505437315, -19144.671457370696, -69768.33281139527, -20496.706127727764, -15809.992350338978, 187500.0, -59635.79531142656, -20788.619910314075, 0.634, -0.592, 0.546, 192.0, 0.0, 0.0, 0.0, 0.0, 0.0, 0.0, 0.0, 0.0, 0.0, 1.6635931300349934E9, 0.0, 2022-09-19 18:12:10.034
207.0, -20411.45657437522, -19148.583012650375, -69820.65824516515, -20535.48640435772, -15711.801136946815, 187500.0, -59727.258649737676, -20802.522695365275, 0.634, -0.592, 0.546, 192.0, 0.0, 0.0, 0.0, 0.0, 0.0, 0.0, 0.0, 0.0, 0.0, 1.6635931300389848E9, 0.0, 2022-09-19 18:12:10.038
208.0, -20677.3305746711, -19210.340882580385, -69718.93545614905, -20503.501058042177, -15812.026359084412, 187500.0, -59822.90176426194, -20797.225331929367, 0.634, -0.592, 0.546, 192.0, 0.0, 0.0, 0.0, 0.0, 0.0, 0.0, 0.0, 0.0, 0.0, 1.6635931300440552E9, 0.0, 2022-09-19 18:12:10.044
209.0, -20943.741016833905, -19217.404033828265, -69665.8947665566, -20463.46908372272, -15914.844383578824, 187500.0, -59742.39078073392, -20780.841503243628, 0.634, -0.592, 0.546, 192.0, 0.0, 0.0, 0.0, 0.0, 0.0, 0.0, 0.0, 0.0, 0.0, 1.6635931300480447E9, 0.0, 2022-09-19 18:12:10.048
210.0, -20938.354246420175, -19183.94347237867, -69691.24164476892, -20456.115359796928, -15912.318636455375, 187500.0, -59676.3860793574, -20773.331317106644, 0.624, -0.596, 0.542, 192.0, 19.0, 128.0, 237.0, 96.0, 16.0, 240.0, 0.0, 0.0, 0.0, 1.6635931300520942E9, 0.0, 2022-09-19 18:12:10.052
211.0, -20668.56869084462, -19154.729742375584, -69778.21228244451, -20496.907293427863, -15815.043844585878, 187500.0, -59642.746703952165, -20791.905616749005, 0.624, -0.596, 0.542, 192.0, 0.0, 0.0, 0.0, 0.0, 0.0, 0.0, 0.0, 0.0, 0.0, 1.6635931300560384E9, 0.0, 2022-09-19 18:12:10.056
212.0, -20394.581007311466, -19167.671402415206, -69833.91282962714, -20543.555384106086, -15716.53970677134, 187500.0, -59732.69012364032, -20823.22041073089, 0.624, -0.596, 0.542, 192.0, 0.0, 0.0, 0.0, 0.0, 0.0, 0.0, 0.0, 0.0, 0.0, 1.6635931300590124E9, 0.0, 2022-09-19 18:12:10.059
213.0, -20647.4239405899, -19211.07849014741, -69734.1569941231, -20505.691528998796, -15810.305274761353, 187500.0, -59832.80358705564, -20815.30789319371, 0.624, -0.596, 0.542, 192.0, 0.0, 0.0, 0.0, 0.0, 0.0, 0.0, 0.0, 0.0, 0.0, 1.663593130063076E9, 0.0, 2022-09-19 18:12:10.063
214.0, -20912.04624319628, -19216.912295450245, -69673.31554571576, -20462.150330799857, -15907.490659653027, 187500.0, -59746.1011703135, -20791.190360926434, 0.624, -0.596, 0.542, 192.0, 0.0, 0.0, 0.0, 0.0, 0.0, 0.0, 0.0, 0.0, 0.0, 1.6635931300670426E9, 0.0, 2022-09-19 18:12:10.067
215.0, -20904.826629737214, -19182.870588644815, -69692.02395582486, -20451.645010905864, -15899.488735138028, 187500.0, -59673.32389036702, -20775.16416015198, 0.624, -0.596, 0.542, 192.0, 0.0, 0.0, 0.0, 0.0, 0.0, 0.0, 0.0, 0.0, 0.0, 1.6635931300710979E9, 0.0, 2022-09-19 18:12:10.071
216.0, -20634.236411361268, -19150.46055918462, -69780.8721400347, -20491.118191613936, -15798.302387988853, 187500.0, -59647.82054994351, -20790.67627080396, 0.624, -0.596, 0.542, 192.0, 0.0, 0.0, 0.0, 0.0, 0.0, 0.0, 0.0, 0.0, 0.0, 1.6635931300760174E9, 0.0, 2022-09-19 18:12:10.076
217.0, -20360.56165225049, -19152.651030141238, -69831.78941390388, -20535.64286656891, -15703.173363587066, 187500.0, -59738.523928943156, -20819.331207195664, 0.624, -0.596, 0.542, 192.0, 0.0, 0.0, 0.0, 0.0, 0.0, 0.0, 0.0, 0.0, 0.0, 1.663593130080058E9, 0.0, 2022-09-19 18:12:10.080
218.0, -20614.924504151884, -19207.99394941258, -69729.79840395432, -20504.126906886926, -15799.218809511522, 187500.0, -59834.09998823405, -20808.848239046125, 0.624, -0.596, 0.542, 192.0, 0.0, 0.0, 0.0, 0.0, 0.0, 0.0, 0.0, 0.0, 0.0, 1.6635931300830946E9, 0.0, 2022-09-19 18:12:10.083
219.0, -20880.3291178142, -19217.26992336153, -69670.5886328922, -20461.032743577092, -15895.1524967137, 187500.0, -59752.002030849704, -20776.77348575276, 0.624, -0.596, 0.542, 192.0, 0.0, 0.0, 0.0, 0.0, 0.0, 0.0, 0.0, 0.0, 0.0, 1.6635931300871038E9, 0.0, 2022-09-19 18:12:10.087
220.0, -20879.52445501381, -19192.75005969406, -69692.82861862524, -20461.09979881046, -15893.252598434998, 187500.0, -59681.21405615975, -20770.91732870547, 0.624, -0.592, 0.54, 192.0, 19.0, 128.0, 237.0, 128.0, 16.0, 224.0, 0.0, 0.0, 0.0, 1.663593130091074E9, 0.0, 2022-09-19 18:12:10.091
221.0, -20616.444422774843, -19151.801663851937, -69772.78080854188, -20497.39903180588, -15795.039033298379, 187500.0, -59644.71365746423, -20782.92021547797, 0.624, -0.592, 0.54, 192.0, 0.0, 0.0, 0.0, 0.0, 0.0, 0.0, 0.0, 0.0, 0.0, 1.6635931300950472E9, 0.0, 2022-09-19 18:12:10.095
222.0, -20337.4499484837, -19143.531518403473, -69820.45707946505, -20532.603029322985, -15695.1043838387, 187500.0, -59725.224640992245, -20802.58975059864, 0.624, -0.592, 0.54, 192.0, 0.0, 0.0, 0.0, 0.0, 0.0, 0.0, 0.0, 0.0, 0.0, 1.6635931300990531E9, 0.0, 2022-09-19 18:12:10.099
223.0, -20592.818628885583, -19213.93951343769, -69723.27169457337, -20506.943226688294, -15795.396661209663, 187500.0, -59830.25548818773, -20807.328320423167, 0.624, -0.592, 0.54, 192.0, 0.0, 0.0, 0.0, 0.0, 0.0, 0.0, 0.0, 0.0, 0.0, 1.663593130104056E9, 0.0, 2022-09-19 18:12:10.104
224.0, -20861.59835596065, -19221.248533874576, -69661.44676940999, -20462.91029011134, -15893.364357157274, 187500.0, -59744.603603434996, -20792.9561487384, 0.624, -0.592, 0.54, 192.0, 0.0, 0.0, 0.0, 0.0, 0.0, 0.0, 0.0, 0.0, 0.0, 1.6635931301080496E9, 0.0, 2022-09-19 18:12:10.108
225.0, -20863.051219350247, -19195.61108298434, -69689.87818835714, -20461.25626102165, -15891.285644922931, 187500.0, -59677.4366113468, -20792.35265163811, 0.624, -0.592, 0.54, 192.0, 0.0, 0.0, 0.0, 0.0, 0.0, 0.0, 0.0, 0.0, 0.0, 1.663593130111118E9, 0.0, 2022-09-19 18:12:10.111
226.0, -20599.010062099704, -19154.305059230934, -69766.58937532775, -20489.307700313057, -15794.03320479789, 187500.0, -59638.79044518357, -20796.420669128976, 0.624, -0.592, 0.54, 192.0, 0.0, 0.0, 0.0, 0.0, 0.0, 0.0, 0.0, 0.0, 0.0, 1.663593130115132E9, 0.0, 2022-09-19 18:12:10.115
227.0, -20318.383910463323, -19147.085445771867, -69822.64755042167, -20530.569020577554, -15694.098555338212, 187500.0, -59727.70568462679, -20816.514887394296, 0.624, -0.592, 0.54, 192.0, 0.0, 0.0, 0.0, 0.0, 0.0, 0.0, 0.0, 0.0, 0.0, 1.6635931301190891E9, 0.0, 2022-09-19 18:12:10.119
228.0, -20567.047067528616, -19206.697548234173, -69721.59531373922, -20503.076374897526, -15789.294634973365, 187500.0, -59828.93673526487, -20814.033843759757, 0.624, -0.592, 0.54, 192.0, 0.0, 0.0, 0.0, 0.0, 0.0, 0.0, 0.0, 0.0, 0.0, 1.6635931301231089E9, 0.0, 2022-09-19 18:12:10.123
229.0, -20843.98518132987, -19222.85785947536, -69667.52644390184, -20464.497263967667, -15892.179714701142, 187500.0, -59754.05839133959, -20791.68209930445, 0.624, -0.592, 0.54, 192.0, 0.0, 0.0, 0.0, 0.0, 0.0, 0.0, 0.0, 0.0, 0.0, 1.6635931301270907E9, 0.0, 2022-09-19 18:12:10.127
230.0, -20847.60616393163, -19190.581940481894, -69687.55360693378, -20459.19990053176, -15891.732679812038, 187500.0, -59685.170314928335, -20780.34976486561, 0.628, -0.592, 0.544, 192.0, 19.0, 160.0, 237.0, 128.0, 17.0, 0.0, 0.0, 0.0, 0.0, 1.663593130132088E9, 0.0, 2022-09-19 18:12:10.132
231.0, -20583.45324795881, -19145.40906493772, -69761.04614270283, -20490.313528813545, -15791.708623374538, 187500.0, -59641.36089579593, -20790.07277370367, 0.628, -0.592, 0.544, 192.0, 0.0, 0.0, 0.0, 0.0, 0.0, 0.0, 0.0, 0.0, 0.0, 1.6635931301361125E9, 0.0, 2022-09-19 18:12:10.136
232.0, -20299.608445120866, -19151.332277218375, -69821.50761145445, -20536.87221251395, -15691.192828559022, 187500.0, -59730.320838728054, -20815.665521104995, 0.628, -0.592, 0.544, 192.0, 0.0, 0.0, 0.0, 0.0, 0.0, 0.0, 0.0, 0.0, 0.0, 1.6635931301392002E9, 0.0, 2022-09-19 18:12:10.139
233.0, -20545.656448084887, -19216.107632649855, -69724.29987481832, -20514.475764569732, -15786.254797727443, 187500.0, -59837.586860369076, -20812.044538503236, 0.628, -0.592, 0.544, 192.0, 0.0, 0.0, 0.0, 0.0, 0.0, 0.0, 0.0, 0.0, 0.0, 1.6635931301431189E9, 0.0, 2022-09-19 18:12:10.143
234.0, -20819.398262429033, -19221.04736817448, -69657.75873157487, -20465.413685490334, -15886.211798931576, 187500.0, -59755.287737284634, -20783.411953855986, 0.628, -0.592, 0.544, 192.0, 0.0, 0.0, 0.0, 0.0, 0.0, 0.0, 0.0, 0.0, 0.0, 1.6635931301470895E9, 0.0, 2022-09-19 18:12:10.147
235.0, -20823.68979736445, -19190.93956839318, -69684.78199062133, -20458.059961564537, -15886.14474369821, 187500.0, -59689.52890509712, -20775.477084574355, 0.628, -0.592, 0.544, 192.0, 0.0, 0.0, 0.0, 0.0, 0.0, 0.0, 0.0, 0.0, 0.0, 1.6635931301511128E9, 0.0, 2022-09-19 18:12:10.151
236.0, -20564.007230282692, -19149.79000685096, -69760.50970083592, -20488.19011309029, -15787.953530306046, 187500.0, -59647.7311429657, -20785.915349234983, 0.628, -0.592, 0.544, 192.0, 0.0, 0.0, 0.0, 0.0, 0.0, 0.0, 0.0, 0.0, 0.0, 1.663593130155198E9, 0.0, 2022-09-19 18:12:10.155
237.0, -20279.11189545535, -19157.25548949903, -69814.75738462895, -20534.59233457951, -15688.622377946662, 187500.0, -59725.939896814816, -20815.710224593906, 0.628, -0.592, 0.544, 192.0, 0.0, 0.0, 0.0, 0.0, 0.0, 0.0, 0.0, 0.0, 0.0, 1.6635931301602683E9, 0.0, 2022-09-19 18:12:10.160
238.0, -20522.589447807008, -19222.56728679744, -69715.73915669194, -20512.687625013306, -15781.650338369649, 187500.0, -59833.65295334494, -20821.11934675209, 0.628, -0.592, 0.544, 192.0, 0.0, 0.0, 0.0, 0.0, 0.0, 0.0, 0.0, 0.0, 0.0, 1.663593130164173E9, 0.0, 2022-09-19 18:12:10.164
239.0, -20800.57809359766, -19233.810214258458, -69651.9919815054, -20469.772275659117, -15882.47905760754, 187500.0, -59756.628841951955, -20795.21367492839, 0.628, -0.592, 0.544, 192.0, 0.0, 0.0, 0.0, 0.0, 0.0, 0.0, 0.0, 0.0, 0.0, 1.6635931301671855E9, 0.0, 2022-09-19 18:12:10.167
240.0, -20812.02218675878, -19201.690757476183, -69681.60804290867, -20464.117284311928, -15886.48001986504, 187500.0, -59689.640663819395, -20775.58884329663, 0.628, -0.584, 0.548, 192.0, 19.0, 160.0, 237.0, 192.0, 17.0, 32.0, 0.0, 0.0, 0.0, 1.6635931301711433E9, 0.0, 2022-09-19 18:12:10.171
241.0, -20557.726390090753, -19154.46152144212, -69761.00143921393, -20496.39320330539, -15791.194533252066, 187500.0, -59645.94300340927, -20789.11164869209, 0.628, -0.584, 0.548, 192.0, 0.0, 0.0, 0.0, 0.0, 0.0, 0.0, 0.0, 0.0, 0.0, 1.6635931301751428E9, 0.0, 2022-09-19 18:12:10.175
242.0, -20266.304345882458, -19140.670495113194, -69816.32200674081, -20533.16182293437, -15685.940168612024, 187500.0, -59721.022513034644, -20813.631512359563, 0.628, -0.584, 0.548, 192.0, 0.0, 0.0, 0.0, 0.0, 0.0, 0.0, 0.0, 0.0, 0.0, 1.6635931301792777E9, 0.0, 2022-09-19 18:12:10.179
243.0, -20504.86451445395, -19198.337995807888, -69719.91893290507, -20507.367909832945, -15778.40933542363, 187500.0, -59825.13693870747, -20811.21752395839, 0.628, -0.584, 0.548, 192.0, 0.0, 0.0, 0.0, 0.0, 0.0, 0.0, 0.0, 0.0, 0.0, 1.6635931301832037E9, 0.0, 2022-09-19 18:12:10.183
244.0, -20786.78706726874, -19211.234952358598, -69656.75290307438, -20465.614851190432, -15884.401307630696, 187500.0, -59746.79407439162, -20786.563549824186, 0.628, -0.584, 0.548, 192.0, 0.0, 0.0, 0.0, 0.0, 0.0, 0.0, 0.0, 0.0, 0.0, 1.6635931301872156E9, 0.0, 2022-09-19 18:12:10.187
245.0, -20797.426497629465, -19192.347728293866, -69685.38548772162, -20467.291232024578, -15887.463496621072, 187500.0, -59684.00802421666, -20779.053363687202, 0.628, -0.584, 0.548, 192.0, 0.0, 0.0, 0.0, 0.0, 0.0, 0.0, 0.0, 0.0, 0.0, 1.6635931301922069E9, 0.0, 2022-09-19 18:12:10.192
246.0, -20542.728369561242, -19150.326448717886, -69759.32505837978, -20499.902427184872, -15791.798030352358, 187500.0, -59643.41725628582, -20790.005718470304, 0.628, -0.584, 0.548, 192.0, 0.0, 0.0, 0.0, 0.0, 0.0, 0.0, 0.0, 0.0, 0.0, 1.6635931301952217E9, 0.0, 2022-09-19 18:12:10.195
247.0, -20250.90399395275, -19153.679210386184, -69818.04309106387, -20544.91884051786, -15688.980005857946, 187500.0, -59725.82813809254, -20815.129079238068, 0.628, -0.584, 0.548, 192.0, 0.0, 0.0, 0.0, 0.0, 0.0, 0.0, 0.0, 0.0, 0.0, 1.6635931301993213E9, 0.0, 2022-09-19 18:12:10.199
248.0, -20487.05017412307, -19208.776260468516, -69721.7070724615, -20519.102575671983, -15780.97978603599, 187500.0, -59840.090255748066, -20816.58194262766, 0.628, -0.584, 0.548, 192.0, 0.0, 0.0, 0.0, 0.0, 0.0, 0.0, 0.0, 0.0, 0.0, 1.66359313020319E9, 0.0, 2022-09-19 18:12:10.203
249.0, -20767.832787970638, -19214.632417515804, -69652.59547860568, -20470.57693845951, -15881.719098296058, 187500.0, -59757.92524313036, -20794.476067361364, 0.628, -0.584, 0.548, 192.0, 0.0, 0.0, 0.0, 0.0, 0.0, 0.0, 0.0, 0.0, 0.0, 1.6635931302072203E9, 0.0, 2022-09-19 18:12:10.207
250.0, -20779.20982589839, -19185.84337065737, -69675.30485097229, -20460.920984854816, -15885.138915197722, 187500.0, -59681.817553260036, -20781.579110810653, 0.622, -0.586, 0.546, 192.0, 19.0, 112.0, 237.0, 176.0, 17.0, 16.0, 0.0, 0.0, 0.0, 1.6635931302112625E9, 0.0, 2022-09-19 18:12:10.211
251.0, -20526.657465297874, -19146.92898356068, -69746.20458438451, -20485.30673805556, -15789.764021606927, 187500.0, -59636.42116027131, -20779.321584620666, 0.622, -0.586, 0.546, 192.0, 0.0, 0.0, 0.0, 0.0, 0.0, 0.0, 0.0, 0.0, 0.0, 1.663593130215266E9, 0.0, 2022-09-19 18:12:10.215
252.0, -20232.10617686584, -19149.83471033987, -69808.90122758165, -20531.35133163349, -15686.208389545489, 187500.0, -59719.65905662288, -20808.289445434744, 0.622, -0.586, 0.546, 192.0, 0.0, 0.0, 0.0, 0.0, 0.0, 0.0, 0.0, 0.0, 0.0, 1.663593130220248E9, 0.0, 2022-09-19 18:12:10.220
253.0, -20468.073543080514, -19211.57022852543, -69728.21143009799, -20515.77216574814, -15781.180951736087, 187500.0, -59838.88326154748, -20819.107689751112, 0.622, -0.586, 0.546, 192.0, 0.0, 0.0, 0.0, 0.0, 0.0, 0.0, 0.0, 0.0, 0.0, 1.66359313022323E9, 0.0, 2022-09-19 18:12:10.223
254.0, -20759.786159966727, -19221.449699574674, -69662.92198454404, -20471.71687742673, -15892.894970523712, 187500.0, -59764.18373157785, -20801.896846520525, 0.622, -0.586, 0.546, 192.0, 0.0, 0.0, 0.0, 0.0, 0.0, 0.0, 0.0, 0.0, 0.0, 1.6635931302275283E9, 0.0, 2022-09-19 18:12:10.227
255.0, -20772.660764772983, -19184.74813517906, -69681.6527463976, -20460.965688343727, -15897.030043247945, 187500.0, -59687.76311728515, -20788.82107601417, 0.622, -0.586, 0.546, 192.0, 0.0, 0.0, 0.0, 0.0, 0.0, 0.0, 0.0, 0.0, 0.0, 1.6635931302313828E9, 0.0, 2022-09-19 18:12:10.231
0.0, -20523.3941106074, -19150.773483606994, -69763.16955842609, -20496.795534705583, -15805.834925870291, 187500.0, -59653.27437559061, -20802.92502676547, 0.622, -0.586, 0.546, 192.0, 0.0, 0.0, 0.0, 0.0, 0.0, 0.0, 0.0, 0.0, 0.0, 1.6635931302352953E9, 0.0, 2022-09-19 18:12:10.235
1.0, -20223.165479083716, -19146.75016960504, -69817.21607651902, -20533.094767701004, -15698.904180396103, 187500.0, -59725.090530525515, -20821.655788619017, 0.622, -0.586, 0.546, 192.0, 0.0, 0.0, 0.0, 0.0, 0.0, 0.0, 0.0, 0.0, 0.0, 1.663593130239324E9, 0.0, 2022-09-19 18:12:10.239
2.0, -20452.360266728436, -19210.51969653603, -69727.09384287523, -20511.01124417916, -15787.417088439119, 187500.0, -59841.2748982042, -20821.678140363474, 0.622, -0.586, 0.546, 192.0, 0.0, 0.0, 0.0, 0.0, 0.0, 0.0, 0.0, 0.0, 0.0, 1.6635931302432845E9, 0.0, 2022-09-19 18:12:10.243
3.0, -20741.793005680207, -19220.57798154092, -69660.30683044277, -20465.77131340162, -15894.19137170212, 187500.0, -59765.860112411996, -20800.466334875386, 0.622, -0.586, 0.546, 192.0, 0.0, 0.0, 0.0, 0.0, 0.0, 0.0, 0.0, 0.0, 0.0, 1.6635931302483091E9, 0.0, 2022-09-19 18:12:10.248
4.0, -20758.66857274396, -19182.065925844425, -69682.61387140916, -20457.791740631073, -15901.209819461086, 187500.0, -59690.132402197414, -20797.06886971818, 0.63, -0.59, 0.55, 192.0, 19.0, 176.0, 237.0, 144.0, 17.0, 48.0, 0.0, 0.0, 0.0, 1.6635931302513337E9, 0.0, 2022-09-19 18:12:10.251
5.0, -20515.526296559132, -19141.07282651339, -69756.93342172306, -20486.96076714525, -15812.965132351535, 187500.0, -59647.775846454606, -20803.707337821405, 0.63, -0.59, 0.55, 192.0, 0.0, 0.0, 0.0, 0.0, 0.0, 0.0, 0.0, 0.0, 0.0, 1.663593130255418E9, 0.0, 2022-09-19 18:12:10.255
6.0, -20216.99639761405, -19141.050474768934, -69824.32393125581, -20533.430043867833, -15712.404634047109, 187500.0, -59726.766911359664, -20832.295218979743, 0.63, -0.59, 0.55, 192.0, 0.0, 0.0, 0.0, 0.0, 0.0, 0.0, 0.0, 0.0, 0.0, 1.6635931302593753E9, 0.0, 2022-09-19 18:12:10.259
7.0, -20442.301981723547, -19205.93758892269, -69731.67595048857, -20512.374700590935, -15804.1808967806, 187500.0, -59840.06790400361, -20835.60327715913, 0.63, -0.59, 0.55, 192.0, 0.0, 0.0, 0.0, 0.0, 0.0, 0.0, 0.0, 0.0, 0.0, 1.6635931302633252E9, 0.0, 2022-09-19 18:12:10.263
8.0, -20733.120528831547, -19214.632417515804, -69662.25143221038, -20471.67217393782, -15914.643217878727, 187500.0, -59769.123467102465, -20812.35746292561, 0.63, -0.59, 0.55, 192.0, 0.0, 0.0, 0.0, 0.0, 0.0, 0.0, 0.0, 0.0, 0.0, 1.6635931302673252E9, 0.0, 2022-09-19 18:12:10.267
9.0, -20750.57724125114, -19190.291367803977, -69685.2513772549, -20465.793665146073, -15922.511031926995, 187500.0, -59698.84958253498, -20803.97555875487, 0.63, -0.59, 0.55, 192.0, 0.0, 0.0, 0.0, 0.0, 0.0, 0.0, 0.0, 0.0, 0.0, 1.6635931302713764E9, 0.0, 2022-09-19 18:12:10.271
10.0, -20510.273636612135, -19153.522748174997, -69767.97518348398, -20500.595331262986, -15836.814443685347, 187500.0, -59661.70098325026, -20816.26901820529, 0.63, -0.59, 0.55, 192.0, 0.0, 0.0, 0.0, 0.0, 0.0, 0.0, 0.0, 0.0, 0.0, 1.6635931302764764E9, 0.0, 2022-09-19 18:12:10.276
11.0, -20212.458993489625, -19147.26425972751, -69833.01875984893, -20546.5505178631, -15735.359875602708, 187500.0, -59736.22169926426, -20844.476919707886, 0.63, -0.59, 0.55, 192.0, 0.0, 0.0, 0.0, 0.0, 0.0, 0.0, 0.0, 0.0, 0.0, 1.6635931302793584E9, 0.0, 2022-09-19 18:12:10.279
12.0, -20430.746129840154, -19201.578998753906, -69738.62734301417, -20522.142412917903, -15822.308161533852, 187500.0, -59842.03485751568, -20843.918126096505, 0.63, -0.59, 0.55, 192.0, 0.0, 0.0, 0.0, 0.0, 0.0, 0.0, 0.0, 0.0, 0.0, 1.6635931302833498E9, 0.0, 2022-09-19 18:12:10.283
13.0, -20728.359607262566, -19218.32045535093, -69667.28057471283, -20481.931624642806, -15934.983305333057, 187500.0, -59768.721135702275, -20826.327303210175, 0.63, -0.59, 0.55, 192.0, 0.0, 0.0, 0.0, 0.0, 0.0, 0.0, 0.0, 0.0, 0.0, 1.663593130287342E9, 0.0, 2022-09-19 18:12:10.287
14.0, -20753.013581396768, -19185.686908446183, -69686.65953715557, -20472.588595460486, -15945.39921824923, 187500.0, -59696.3908906449, -20816.64899786103, 0.63, -0.588, 0.542, 192.0, 19.0, 176.0, 237.0, 160.0, 16.0, 240.0, 0.0, 0.0, 0.0, 1.663593130291364E9, 0.0, 2022-09-19 18:12:10.291
15.0, -20517.940284960307, -19142.190413736156, -69761.56023282532, -20497.421383550332, -15859.076781162834, 187500.0, -59653.60965175744, -20823.756852597817, 0.63, -0.588, 0.542, 192.0, 0.0, 0.0, 0.0, 0.0, 0.0, 0.0, 0.0, 0.0, 0.0, 1.66359313029542E9, 0.0, 2022-09-19 18:12:10.295
16.0, -20209.4191562437, -19131.30511418642, -69827.38612024618, -20538.392131136912, -15746.960430975012, 187500.0, -59729.40441720539, -20838.240783004854, 0.63, -0.588, 0.542, 192.0, 0.0, 0.0, 0.0, 0.0, 0.0, 0.0, 0.0, 0.0, 0.0, 1.6635931302993703E9, 0.0, 2022-09-19 18:12:10.299
17.0, -20425.2699524486, -19194.314681805932, -69740.23666861495, -20521.67302628434, -15830.332437793308, 187500.0, -59848.85213957455, -20838.03961730476, 0.63, -0.588, 0.542, 192.0, 0.0, 0.0, 0.0, 0.0, 0.0, 0.0, 0.0, 0.0, 0.0, 1.6635931303034675E9, 0.0, 2022-09-19 18:12:10.303
18.0, -20724.738624660808, -19212.263132603544, -69663.16785373304, -20478.24358680768, -15944.77336940448, 187500.0, -59770.665737469884, -20820.292332207246, 0.63, -0.588, 0.542, 192.0, 0.0, 0.0, 0.0, 0.0, 0.0, 0.0, 0.0, 0.0, 0.0, 1.6635931303065753E9, 0.0, 2022-09-19 18:12:10.306
19.0, -20750.934869162425, -19185.530446234996, -69683.84321735421, -20469.973441359216, -15957.513863744005, 187500.0, -59697.262608678655, -20809.943474524436, 0.63, -0.588, 0.542, 192.0, 0.0, 0.0, 0.0, 0.0, 0.0, 0.0, 0.0, 0.0, 0.0, 1.6635931303104005E9, 0.0, 2022-09-19 18:12:10.310
20.0, -20520.600142550487, -19154.46152144212, -69763.23661365946, -20507.412613321856, -15873.918339481157, 187500.0, -59660.31517509403, -20823.063948519703, 0.63, -0.588, 0.542, 192.0, 0.0, 0.0, 0.0, 0.0, 0.0, 0.0, 0.0, 0.0, 0.0, 1.663593130315462E9, 0.0, 2022-09-19 18:12:10.315
21.0, -20212.70486267863, -19149.65589638423, -69825.3297597563, -20552.205509210293, -15763.344259660753, 187500.0, -59728.040960793616, -20847.874384865092, 0.63, -0.588, 0.542, 192.0, 0.0, 0.0, 0.0, 0.0, 0.0, 0.0, 0.0, 0.0, 0.0, 1.6635931303194163E9, 0.0, 2022-09-19 18:12:10.319
22.0, -20428.846231561452, -19210.586751769395, -69729.15020336512, -20527.43977635381, -15848.437350802107, 187500.0, -59841.43136041539, -20848.969620343403, 0.63, -0.588, 0.542, 192.0, 0.0, 0.0, 0.0, 0.0, 0.0, 0.0, 0.0, 0.0, 0.0, 1.663593130323456E9, 0.0, 2022-09-19 18:12:10.323
23.0, -20732.807604409172, -19229.272810134033, -69659.74803683138, -20484.636185721898, -15963.101799857832, 187500.0, -59772.766801448684, -20829.45654743392, 0.63, -0.588, 0.542, 192.0, 0.0, 0.0, 0.0, 0.0, 0.0, 0.0, 0.0, 0.0, 0.0, 1.6635931303275058E9, 0.0, 2022-09-19 18:12:10.327
24.0, -20758.48975878832, -19197.913312663237, -69677.67413588455, -20476.05311585106, -15971.908387173224, 187500.0, -59696.212076689255, -20817.230143216868, 0.63, -0.584, 0.546, 192.0, 19.0, 176.0, 237.0, 192.0, 17.0, 16.0, 0.0, 0.0, 0.0, 1.6635931303325098E9, 0.0, 2022-09-19 18:12:10.332
25.0, -20523.52822107413, -19159.06598079991, -69753.29008737685, -20504.842162709494, -15882.412002374174, 187500.0, -59655.77777096961, -20819.55472464022, 0.63, -0.584, 0.546, 192.0, 0.0, 0.0, 0.0, 0.0, 0.0, 0.0, 0.0, 0.0, 0.0, 1.6635931303354857E9, 0.0, 2022-09-19 18:12:10.335
26.0, -20208.748603910044, -19151.68990512966, -69820.70294865406, -20547.15401496339, -15766.898187029146, 187500.0, -59729.15854801638, -20842.33115224018, 0.63, -0.584, 0.546, 192.0, 0.0, 0.0, 0.0, 0.0, 0.0, 0.0, 0.0, 0.0, 0.0, 1.6635931303385026E9, 0.0, 2022-09-19 18:12:10.338
27.0, -20417.17862095578, -19212.196077370176, -69736.19100286854, -20525.517526330656, -15848.437350802107, 187500.0, -59850.23794773078, -20840.543012683753, 0.63, -0.584, 0.546, 192.0, 0.0, 0.0, 0.0, 0.0, 0.0, 0.0, 0.0, 0.0, 0.0, 1.663593130343505E9, 0.0, 2022-09-19 18:12:10.343
28.0, -20725.118604316547, -19232.80438575797, -69665.35832468967, -20478.86943565243, -15965.15816034772, 187500.0, -59781.707499230804, -20816.15725948301, 0.63, -0.584, 0.546, 192.0, 0.0, 0.0, 0.0, 0.0, 0.0, 0.0, 0.0, 0.0, 0.0, 1.6635931303474631E9, 0.0, 2022-09-19 18:12:10.347
29.0, -20755.025238397746, -19207.725728479116, -69682.03272605332, -20469.884034381394, -15975.328204074885, 187500.0, -59702.40350990338, -20806.322491922678, 0.63, -0.584, 0.546, 192.0, 0.0, 0.0, 0.0, 0.0, 0.0, 0.0, 0.0, 0.0, 0.0, 1.663593130351564E9, 0.0, 2022-09-19 18:12:10.351
30.0, -20519.77312800564, -19168.341954748867, -69754.5641368108, -20495.745002716187, -15883.641348319215, 187500.0, -59656.00128841416, -20814.2126577154, 0.63, -0.584, 0.546, 192.0, 0.0, 0.0, 0.0, 0.0, 0.0, 0.0, 0.0, 0.0, 0.0, 1.6635931303554947E9, 0.0, 2022-09-19 18:12:10.355
31.0, -20204.27825501898, -19162.575204679397, -69825.44151847858, -20542.81777653906, -15771.189721964565, 187500.0, -59726.38693170392, -20839.64894290554, 0.63, -0.584, 0.546, 192.0, 0.0, 0.0, 0.0, 0.0, 0.0, 0.0, 0.0, 0.0, 0.0, 1.6635931303584983E9, 0.0, 2022-09-19 18:12:10.358
32.0, -20409.4672691187, -19222.94726645318, -69740.2590203594, -20522.947075718293, -15852.32655433733, 187500.0, -59847.6227936295, -20839.78305337227, 0.63, -0.584, 0.546, 192.0, 0.0, 0.0, 0.0, 0.0, 0.0, 0.0, 0.0, 0.0, 0.0, 1.6635931303625064E9, 0.0, 2022-09-19 18:12:10.362
33.0, -20710.254694253767, -19226.210621143655, -69663.57018513324, -20468.922909369816, -15962.319488801897, 187500.0, -59776.92422591737, -20807.64124484554, 0.63, -0.584, 0.546, 192.0, 0.0, 0.0, 0.0, 0.0, 0.0, 0.0, 0.0, 0.0, 0.0, 1.663593130366472E9, 0.0, 2022-09-19 18:12:10.366
34.0, -20740.898935901994, -19206.630493000805, -69685.452542955, -20463.223214533715, -15973.920044174201, 187500.0, -59708.12555648394, -20801.58392209815, 0.63, -0.592, 0.54, 192.0, 19.0, 176.0, 237.0, 128.0, 16.0, 224.0, 0.0, 0.0, 0.0, 1.6635931303706136E9, 0.0, 2022-09-19 18:12:10.370
35.0, -20510.050119167583, -19175.2262920411, -69763.10250319273, -20499.365985317945, -15887.284682665431, 187500.0, -59669.83701823199, -20821.655788619017, 0.63, -0.592, 0.54, 192.0, 0.0, 0.0, 0.0, 0.0, 0.0, 0.0, 0.0, 0.0, 0.0, 1.6635931303755915E9, 0.0, 2022-09-19 18:12:10.375
36.0, -20191.046022301438, -19158.84246335536, -69832.50466972646, -20546.72933181874, -15772.955509776535, 187500.0, -59735.88642309743, -20847.22618427589, 0.63, -0.592, 0.54, 192.0, 0.0, 0.0, 0.0, 0.0, 0.0, 0.0, 0.0, 0.0, 0.0, 1.6635931303795965E9, 0.0, 2022-09-19 18:12:10.379
37.0, -20391.965853210193, -19218.387510584296, -69745.0646454173, -20530.12198568845, -15852.483016548518, 187500.0, -59854.03774428818, -20849.79663488825, 0.63, -0.592, 0.54, 192.0, 0.0, 0.0, 0.0, 0.0, 0.0, 0.0, 0.0, 0.0, 0.0, 1.663593130383502E9, 0.0, 2022-09-19 18:12:10.383
38.0, -20700.196409248878, -19231.48563283511, -69670.65568812558, -20487.988947390193, -15967.639203982259, 187500.0, -59784.76968822118, -20828.56247765571, 0.63, -0.592, 0.54, 192.0, 0.0, 0.0, 0.0, 0.0, 0.0, 0.0, 0.0, 0.0, 0.0, 1.6635931303865707E9, 0.0, 2022-09-19 18:12:10.386
39.0, -20734.305171287677, -19202.1824958542, -69687.95593833398, -20478.24358680768, -15980.491457044061, 187500.0, -59710.472489651744, -20817.319550194687, 0.63, -0.592, 0.54, 192.0, 0.0, 0.0, 0.0, 0.0, 0.0, 0.0, 0.0, 0.0, 0.0, 1.6635931303905852E9, 0.0, 2022-09-19 18:12:10.390
40.0, -20502.78580221961, -19152.181643507676, -69758.49804383493, -20502.38347081941, -15890.838610033825, 187500.0, -59667.400678086364, -20823.063948519703, 0.63, -0.592, 0.54, 192.0, 0.0, 0.0, 0.0, 0.0, 0.0, 0.0, 0.0, 0.0, 0.0, 1.6635931303945663E9, 0.0, 2022-09-19 18:12:10.394
41.0, -20182.395897197235, -19146.258431227023, -69826.20147779006, -20548.740988819718, -15775.078925499789, 187500.0, -59732.6007166625, -20842.152338284533, 0.63, -0.592, 0.54, 192.0, 0.0, 0.0, 0.0, 0.0, 0.0, 0.0, 0.0, 0.0, 0.0, 1.6635931303996139E9, 0.0, 2022-09-19 18:12:10.399
42.0, -20377.392515825333, -19203.70241447716, -69730.11132837669, -20523.05883444057, -15849.666696747148, 187500.0, -59840.11260749253, -20834.64215214755, 0.63, -0.592, 0.54, 192.0, 0.0, 0.0, 0.0, 0.0, 0.0, 0.0, 0.0, 0.0, 0.0, 1.663593130403554E9, 0.0, 2022-09-19 18:12:10.403
43.0, -20687.34415618708, -19221.09207166339, -69652.37196116113, -20477.371868773924, -15963.59353823585, 187500.0, -59770.68808921434, -20811.08341349166, 0.63, -0.592, 0.54, 192.0, 0.0, 0.0, 0.0, 0.0, 0.0, 0.0, 0.0, 0.0, 0.0, 1.6635931304075875E9, 0.0, 2022-09-19 18:12:10.407
44.0, -20725.900915372484, -19203.90358017726, -69675.41660969456, -20479.607043219454, -15979.73149773258, 187500.0, -59699.69894882428, -20810.301102435722, 0.624, -0.596, 0.542, 192.0, 19.0, 128.0, 237.0, 96.0, 16.0, 240.0, 0.0, 0.0, 0.0, 1.6635931304116304E9, 0.0, 2022-09-19 18:12:10.411
45.0, -20500.841200451996, -19168.274899515498, -69746.5175088069, -20506.518543543643, -15896.113621725277, 187500.0, -59660.13636113839, -20817.431308916966, 0.624, -0.596, 0.542, 192.0, 0.0, 0.0, 0.0, 0.0, 0.0, 0.0, 0.0, 0.0, 0.0, 1.6635931304145713E9, 0.0, 2022-09-19 18:12:10.414
46.0, -20177.098533761327, -19158.618945910806, -69816.34435848526, -20551.803177810096, -15780.130419746689, 187500.0, -59726.36457995947, -20835.51387018131, 0.624, -0.596, 0.542, 192.0, 0.0, 0.0, 0.0, 0.0, 0.0, 0.0, 0.0, 0.0, 0.0, 1.663593130418603E9, 0.0, 2022-09-19 18:12:10.418
47.0, -20364.45085578571, -19218.65573151776, -69728.25613358691, -20529.20556416578, -15851.432484559118, 187500.0, -59846.61696512902, -20830.730596867874, 0.624, -0.596, 0.542, 192.0, 0.0, 0.0, 0.0, 0.0, 0.0, 0.0, 0.0, 0.0, 0.0, 1.6635931304228003E9, 0.0, 2022-09-19 18:12:10.422
48.0, -20670.490940867778, -19234.816042758946, -69648.95214425947, -20478.064772852038, -15964.934642903167, 187500.0, -59781.59574050853, -20806.613064600595, 0.624, -0.596, 0.542, 192.0, 0.0, 0.0, 0.0, 0.0, 0.0, 0.0, 0.0, 0.0, 0.0, 1.6635931304266672E9, 0.0, 2022-09-19 18:12:10.426
49.0, -20701.492810427288, -19211.011434914046, -69667.68290611303, -20470.554586715054, -15975.618776752804, 187500.0, -59705.800975060585, -20798.78995404124, 0.624, -0.596, 0.542, 192.0, 0.0, 0.0, 0.0, 0.0, 0.0, 0.0, 0.0, 0.0, 0.0, 1.6635931304316268E9, 0.0, 2022-09-19 18:12:10.431
50.0, -20475.24845305067, -19173.974594351603, -69741.93540119355, -20499.410688806856, -15889.8998367667, 187500.0, -59662.61740477293, -20807.663596589995, 0.624, -0.596, 0.542, 192.0, 0.0, 0.0, 0.0, 0.0, 0.0, 0.0, 0.0, 0.0, 0.0, 1.663593130435654E9, 0.0, 2022-09-19 18:12:10.435
51.0, -20154.14329220573, -19169.258376271533, -69814.71268114004, -20549.433892897832, -15777.0235272674, 187500.0, -59728.71151312727, -20833.971599813893, 0.624, -0.596, 0.542, 192.0, 0.0, 0.0, 0.0, 0.0, 0.0, 0.0, 0.0, 0.0, 0.0, 1.663593130439669E9, 0.0, 2022-09-19 18:12:10.439
52.0, -20336.377064749846, -19227.641132788794, -69731.20656385501, -20532.96065723427, -15844.61520250025, 187500.0, -59850.59557564206, -20838.46430044941, 0.624, -0.596, 0.542, 192.0, 0.0, 0.0, 0.0, 0.0, 0.0, 0.0, 0.0, 0.0, 0.0, 1.6635931304426534E9, 0.0, 2022-09-19 18:12:10.442
53.0, -20649.614411546518, -19248.651772576784, -69654.56243211776, -20489.19594159078, -15959.59257597835, 187500.0, -59786.35666207751, -20816.470183905385, 0.624, -0.596, 0.542, 192.0, 0.0, 0.0, 0.0, 0.0, 0.0, 0.0, 0.0, 0.0, 0.0, 1.663593130446758E9, 0.0, 2022-09-19 18:12:10.446
54.0, -20682.694993340374, -19216.822888472427, -69668.28640321332, -20478.3329937855, -15968.10859061582, 187500.0, -59703.61050410396, -20802.03095698726, 0.624, -0.596, 0.542, 192.0, 0.0, 0.0, 0.0, 0.0, 0.0, 0.0, 0.0, 0.0, 0.0, 1.6635931304506855E9, 0.0, 2022-09-19 18:12:10.450
55.0, -20456.67415340831, -19180.389545010275, -69742.13656689365, -20504.082203398015, -15879.394516872708, 187500.0, -59660.695154749774, -20806.36719541159, 0.634, -0.598, 0.538, 192.0, 19.0, 208.0, 237.0, 80.0, 16.0, 208.0, 0.0, 0.0, 0.0, 1.6635931304546325E9, 0.0, 2022-09-19 18:12:10.454
56.0, -20126.538887803425, -19186.80449566895, -69819.29478875337, -20557.234651712733, -15757.085771213267, 187500.0, -59730.36554221697, -20838.129024282578, 0.634, -0.598, 0.538, 192.0, 0.0, 0.0, 0.0, 0.0, 0.0, 0.0, 0.0, 0.0, 0.0, 1.6635931304597127E9, 0.0, 2022-09-19 18:12:10.459
57.0, -20302.380061433323, -19233.877269491826, -69729.68664523204, -20538.392131136912, -15821.682312689105, 187500.0, -59853.03191578769, -20841.191213272956, 0.634, -0.598, 0.538, 192.0, 0.0, 0.0, 0.0, 0.0, 0.0, 0.0, 0.0, 0.0, 0.0, 1.663593130463848E9, 0.0, 2022-09-19 18:12:10.463
58.0, -20612.68932970635, -19227.864650233347, -69648.61686809265, -20487.921892156828, -15936.324410000374, 187500.0, -59791.89989470242, -20811.955131525414, 0.634, -0.598, 0.538, 192.0, 0.0, 0.0, 0.0, 0.0, 0.0, 0.0, 0.0, 0.0, 0.0, 1.663593130467755E9, 0.0, 2022-09-19 18:12:10.467
59.0, -20647.28983012317, -19191.74423119357, -69665.73830434542, -20474.019107105625, -15945.421569993685, 187500.0, -59714.40639667588, -20797.046517973726, 0.634, -0.598, 0.538, 192.0, 0.0, 0.0, 0.0, 0.0, 0.0, 0.0, 0.0, 0.0, 0.0, 1.6635931304706793E9, 0.0, 2022-09-19 18:12:10.470
60.0, -20426.298132693548, -19152.583974907873, -69738.5602877808, -20501.981139419215, -15857.80273172888, 187500.0, -59670.75343975466, -20803.550875610217, 0.634, -0.598, 0.538, 192.0, 0.0, 0.0, 0.0, 0.0, 0.0, 0.0, 0.0, 0.0, 0.0, 1.6635931304747097E9, 0.0, 2022-09-19 18:12:10.474
61.0, -20093.16773333165, -19147.26425972751, -69815.15971602914, -20553.524262133153, -15734.935192458057, 187500.0, -59733.405379462885, -20831.669370134994, 0.634, -0.598, 0.538, 192.0, 0.0, 0.0, 0.0, 0.0, 0.0, 0.0, 0.0, 0.0, 0.0, 1.6635931304787462E9, 0.0, 2022-09-19 18:12:10.478
62.0, -20266.237290649093, -19205.84818194487, -69730.44660454353, -20531.887773500417, -15799.576437422806, 187500.0, -59858.28457573469, -20828.093091022147, 0.634, -0.598, 0.538, 192.0, 0.0, 0.0, 0.0, 0.0, 0.0, 0.0, 0.0, 0.0, 0.0, 1.6635931304827895E9, 0.0, 2022-09-19 18:12:10.482
63.0, -20576.635965899943, -19219.70626350716, -69646.67226632504, -20477.953014129762, -15910.06111026539, 187500.0, -59793.665682514395, -20799.706375563906, 0.634, -0.598, 0.538, 192.0, 0.0, 0.0, 0.0, 0.0, 0.0, 0.0, 0.0, 0.0, 0.0, 1.6635931304876986E9, 0.0, 2022-09-19 18:12:10.487
64.0, -20616.958512897316, -19202.294254576478, -69672.75675210438, -20472.29802278257, -15924.701502883614, 187500.0, -59724.174109002844, -20794.520770850275, 0.634, -0.598, 0.538, 192.0, 0.0, 0.0, 0.0, 0.0, 0.0, 0.0, 0.0, 0.0, 0.0, 1.6635931304917893E9, 0.0, 2022-09-19 18:12:10.491
65.0, -20397.352623623923, -19165.25741401403, -69740.8625174597, -20498.67308123983, -15838.691990219593, 187500.0, -59677.16839041333, -20805.428422144465, 0.63, -0.582, 0.542, 192.0, 19.0, 176.0, 237.0, 208.0, 16.0, 240.0, 0.0, 0.0, 0.0, 1.6635931304957187E9, 0.0, 2022-09-19 18:12:10.495
66.0, -20062.59054691679, -19154.3721144643, -69821.39585273217, -20550.68559058733, -15711.912895669091, 187500.0, -59737.36163823148, -20837.34671322664, 0.63, -0.582, 0.542, 192.0, 0.0, 0.0, 0.0, 0.0, 0.0, 0.0, 0.0, 0.0, 0.0, 1.6635931304988432E9, 0.0, 2022-09-19 18:12:10.498
67.0, -20226.85351691884, -19212.106670392357, -69742.51654654939, -20534.83820376852, -15768.395753907653, 187500.0, -59862.44200020337, -20840.74417838385, 0.63, -0.582, 0.542, 192.0, 0.0, 0.0, 0.0, 0.0, 0.0, 0.0, 0.0, 0.0, 0.0, 1.6635931305027592E9, 0.0, 2022-09-19 18:12:10.502
68.0, -20541.476671871744, -19237.118272437845, -69664.88893805612, -20489.665328224342, -15882.0990779518, 187500.0, -59802.78519425216, -20810.59167511364, 0.63, -0.582, 0.542, 192.0, 0.0, 0.0, 0.0, 0.0, 0.0, 0.0, 0.0, 0.0, 0.0, 1.6635931305067935E9, 0.0, 2022-09-19 18:12:10.506
69.0, -20577.395925211422, -19204.14944936627, -69681.36217371967, -20476.85777865145, -15891.419755389663, 187500.0, -59720.03903627861, -20791.36917488208, 0.63, -0.582, 0.542, 192.0, 0.0, 0.0, 0.0, 0.0, 0.0, 0.0, 0.0, 0.0, 0.0, 1.6635931305107846E9, 0.0, 2022-09-19 18:12:10.510
70.0, -20357.678277215753, -19166.84438787036, -69751.23372688696, -20505.132735387415, -15806.013739825934, 187500.0, -59674.977919456716, -20802.276826176265, 0.63, -0.582, 0.542, 192.0, 0.0, 0.0, 0.0, 0.0, 0.0, 0.0, 0.0, 0.0, 0.0, 1.6635931305148163E9, 0.0, 2022-09-19 18:12:10.514
71.0, -20018.602313828746, -19152.449864441143, -69829.44248073608, -20553.92659353335, -15679.569921442262, 187500.0, -59734.455911452285, -20826.55082065473, 0.63, -0.582, 0.542, 192.0, 0.0, 0.0, 0.0, 0.0, 0.0, 0.0, 0.0, 0.0, 0.0, 1.663593130519796E9, 0.0, 2022-09-19 18:12:10.519
72.0, -20179.62428088478, -19201.89192317628, -69746.1151774067, -20538.92857300384, -15738.802044248825, 187500.0, -59858.88807283498, -20828.40601544452, 0.63, -0.582, 0.542, 192.0, 0.0, 0.0, 0.0, 0.0, 0.0, 0.0, 0.0, 0.0, 0.0, 1.6635931305227501E9, 0.0, 2022-09-19 18:12:10.522
73.0, -20494.135677115402, -19220.51092630755, -69661.82674906573, -20486.849008422974, -15850.828987458824, 187500.0, -59796.057319171116, -20802.410936643, 0.63, -0.582, 0.542, 192.0, 0.0, 0.0, 0.0, 0.0, 0.0, 0.0, 0.0, 0.0, 0.0, 1.6635931305268068E9, 0.0, 2022-09-19 18:12:10.526
74.0, -20538.436834625823, -19197.46627777413, -69684.51376968787, -20476.835426906997, -15866.56461555536, 187500.0, -59721.469547923756, -20789.961014981393, 0.63, -0.582, 0.542, 192.0, 0.0, 0.0, 0.0, 0.0, 0.0, 0.0, 0.0, 0.0, 0.0, 1.6635931305308018E9, 0.0, 2022-09-19 18:12:10.530
75.0, -20323.07777679894, -19160.2729750005, -69751.99368619845, -20497.980177161717, -15781.426820925097, 187500.0, -59676.60959680195, -20788.999889969815, 0.63, -0.584, 0.538, 192.0, 19.0, 176.0, 237.0, 192.0, 16.0, 208.0, 0.0, 0.0, 0.0, 1.6635931305347607E9, 0.0, 2022-09-19 18:12:10.534
76.0, -19982.839522700255, -19146.88428007177, -69828.43665223558, -20542.415445138868, -15655.586499641717, 187500.0, -59737.65221090939, -20813.653864104017, 0.63, -0.584, 0.538, 192.0, 0.0, 0.0, 0.0, 0.0, 0.0, 0.0, 0.0, 0.0, 0.0, 1.663593130538844E9, 0.0, 2022-09-19 18:12:10.538
77.0, -20143.7050275451, -19205.445850544675, -69752.32896236527, -20534.145299690404, -15720.227744606465, 187500.0, -59871.42740147441, -20826.84139333265, 0.63, -0.584, 0.538, 192.0, 0.0, 0.0, 0.0, 0.0, 0.0, 0.0, 0.0, 0.0, 0.0, 1.663593130542824E9, 0.0, 2022-09-19 18:12:10.542
78.0, -20461.4797784662, -19224.75775775406, -69663.81605432225, -20483.116267098936, -15834.735731451005, 187500.0, -59811.569429823096, -20804.579055855163, 0.63, -0.584, 0.538, 192.0, 0.0, 0.0, 0.0, 0.0, 0.0, 0.0, 0.0, 0.0, 0.0, 1.6635931305479035E9, 0.0, 2022-09-19 18:12:10.547
79.0, -20504.126906886926, -19193.152391094256, -69672.0414962818, -20472.186264060292, -15847.856205446269, 187500.0, -59728.242126493715, -20787.68113704695, 0.63, -0.584, 0.538, 192.0, 0.0, 0.0, 0.0, 0.0, 0.0, 0.0, 0.0, 0.0, 0.0, 1.6635931305508947E9, 0.0, 2022-09-19 18:12:10.550
80.0, -20292.277072939527, -19159.31184998892, -69740.72840699296, -20502.137601630402, -15766.518207373407, 187500.0, -59682.42105036033, -20798.11940170758, 0.63, -0.584, 0.538, 192.0, 0.0, 0.0, 0.0, 0.0, 0.0, 0.0, 0.0, 0.0, 0.0, 1.6635931305548365E9, 0.0, 2022-09-19 18:12:10.554
81.0, -19946.09325481573, -19144.090312014858, -69814.60092241775, -20544.985895751226, -15635.536984865306, 187500.0, -59733.852414352, -20820.247628718334, 0.63, -0.584, 0.538, 192.0, 0.0, 0.0, 0.0, 0.0, 0.0, 0.0, 0.0, 0.0, 0.0, 1.6635931305588827E9, 0.0, 2022-09-19 18:12:10.558
82.0, -20096.252274066483, -19194.381737039297, -69742.65065701613, -20538.16861369236, -15691.14812507011, 187500.0, -59865.59359617157, -20830.663541634505, 0.63, -0.584, 0.538, 192.0, 0.0, 0.0, 0.0, 0.0, 0.0, 0.0, 0.0, 0.0, 0.0, 1.6635931305628836E9, 0.0, 2022-09-19 18:12:10.562
83.0, -20410.987187741663, -19206.898713934268, -69646.64991458057, -20483.67506071032, -15802.482164201996, 187500.0, -59801.220572140286, -20803.282654676754, 0.63, -0.584, 0.538, 192.0, 0.0, 0.0, 0.0, 0.0, 0.0, 0.0, 0.0, 0.0, 0.0, 1.663593130566877E9, 0.0, 2022-09-19 18:12:10.566
84.0, -20457.367057486423, -19186.84919915786, -69661.98321127692, -20471.51571172663, -15816.362597508742, 187500.0, -59718.586172889016, -20792.620872571573, 0.63, -0.584, 0.538, 192.0, 0.0, 0.0, 0.0, 0.0, 0.0, 0.0, 0.0, 0.0, 0.0, 1.6635931305708852E9, 0.0, 2022-09-19 18:12:10.570
85.0, -20247.19360437317, -19154.59563190885, -69729.95486616551, -20496.59436900549, -15733.839956979748, 187500.0, -59672.76509675564, -20797.11357320709, 0.634, -0.586, 0.542, 192.0, 19.0, 208.0, 237.0, 176.0, 16.0, 240.0, 0.0, 0.0, 0.0, 1.6635931305759647E9, 0.0, 2022-09-19 18:12:10.575
86.0, -19899.735736815423, -19141.65397186923, -69807.73893686998, -20539.5991253375, -15604.937446705992, 187500.0, -59723.10122526899, -20817.520715894785, 0.634, -0.586, 0.542, 192.0, 0.0, 0.0, 0.0, 0.0, 0.0, 0.0, 0.0, 0.0, 0.0, 1.663593130579919E9, 0.0, 2022-09-19 18:12:10.579
87.0, -20045.737331597487, -19197.93566440769, -69733.28527608934, -20527.596238565, -15660.660345633072, 187500.0, -59851.64610763146, -20824.40505318702, 0.634, -0.586, 0.542, 192.0, 0.0, 0.0, 0.0, 0.0, 0.0, 0.0, 0.0, 0.0, 0.0, 1.663593130582921E9, 0.0, 2022-09-19 18:12:10.582
88.0, -20361.053390628505, -19218.767490240036, -69650.11443497115, -20483.160970587847, -15776.330623189286, 187500.0, -59797.55488604962, -20804.623759344075, 0.634, -0.586, 0.542, 192.0, 0.0, 0.0, 0.0, 0.0, 0.0, 0.0, 0.0, 0.0, 0.0, 1.6635931305868828E9, 0.0, 2022-09-19 18:12:10.586
89.0, -20402.22530391518, -19196.0804696179, -69662.25143221038, -20470.71104892624, -15787.193570994565, 187500.0, -59713.66878910885, -20792.1067824491, 0.634, -0.586, 0.542, 192.0, 0.0, 0.0, 0.0, 0.0, 0.0, 0.0, 0.0, 0.0, 0.0, 1.6635931305909317E9, 0.0, 2022-09-19 18:12:10.590
90.0, -20193.99645256954, -19157.724876132594, -69724.74690970742, -20495.119153871437, -15705.162668843588, 187500.0, -59663.779695484605, -20796.040689473237, 0.634, -0.586, 0.542, 192.0, 0.0, 0.0, 0.0, 0.0, 0.0, 0.0, 0.0, 0.0, 0.0, 1.6635931305950053E9, 0.0, 2022-09-19 18:12:10.595
91.0, -19851.053637391764, -19148.314791716908, -69807.4260124476, -20545.67879982934, -15579.814085938227, 187500.0, -59721.58130664603, -20817.83364031716, 0.634, -0.586, 0.542, 192.0, 0.0, 0.0, 0.0, 0.0, 0.0, 0.0, 0.0, 0.0, 0.0, 1.6635931305989597E9, 0.0, 2022-09-19 18:12:10.598
92.0, -19998.39633684115, -19210.452641302665, -69734.42521505657, -20531.68660780032, -15636.09577847669, 187500.0, -59857.904596078944, -20825.589695643153, 0.634, -0.586, 0.542, 192.0, 0.0, 0.0, 0.0, 0.0, 0.0, 0.0, 0.0, 0.0, 0.0, 1.663593130603902E9, 0.0, 2022-09-19 18:12:10.603
93.0, -20321.513154687065, -19235.263077648055, -69651.05320823827, -20482.289252554092, -15752.727181044482, 187500.0, -59806.58499080956, -20802.03095698726, 0.634, -0.586, 0.542, 192.0, 0.0, 0.0, 0.0, 0.0, 0.0, 0.0, 0.0, 0.0, 0.0, 1.6635931306069055E9, 0.0, 2022-09-19 18:12:10.606
94.0, -20370.105847132905, -19193.867646916824, -69666.49826365689, -20469.258185536648, -15768.954547519035, 187500.0, -59722.497728168695, -20788.93283473645, 0.634, -0.586, 0.542, 192.0, 0.0, 0.0, 0.0, 0.0, 0.0, 0.0, 0.0, 0.0, 0.0, 1.663593130609954E9, 0.0, 2022-09-19 18:12:10.609
95.0, -20166.168530722683, -19153.1204167748, -69737.35329358022, -20491.095839869482, -15691.215180303478, 187500.0, -59675.40260260137, -20796.197151684424, 0.638, -0.59, 0.544, 192.0, 19.0, 240.0, 237.0, 144.0, 17.0, 0.0, 0.0, 0.0, 0.0, 1.6635931306149046E9, 0.0, 2022-09-19 18:12:10.614
96.0, -19816.855468375143, -19132.489756642553, -69814.8244398623, -20533.497099101198, -15562.938518874469, 187500.0, -59715.05459726508, -20817.811288572706, 0.638, -0.59, 0.544, 192.0, 0.0, 0.0, 0.0, 0.0, 0.0, 0.0, 0.0, 0.0, 0.0, 1.6635931306189818E9, 0.0, 2022-09-19 18:12:10.618
97.0, -19949.71423741749, -19175.31569901892, -69736.03454065735, -20512.799383735586, -15611.464156086942, 187500.0, -59842.70540984934, -20813.54210538174, 0.638, -0.59, 0.544, 192.0, 0.0, 0.0, 0.0, 0.0, 0.0, 0.0, 0.0, 0.0, 0.0, 1.6635931306229994E9, 0.0, 2022-09-19 18:12:10.622
98.0, -20273.948642486175, -19201.51194352054, -69650.98615300491, -20467.067714580025, -15730.800119733825, 187500.0, -59794.246827870236, -20791.436230115443, 0.638, -0.59, 0.544, 192.0, 0.0, 0.0, 0.0, 0.0, 0.0, 0.0, 0.0, 0.0, 0.0, 1.6635931306269574E9, 0.0, 2022-09-19 18:12:10.626
99.0, -20323.435404710224, -19184.815190412428, -69671.03566778133, -20456.875319108407, -15748.122721686688, 187500.0, -59712.73001584173, -20776.92994796395, 0.638, -0.59, 0.544, 192.0, 0.0, 0.0, 0.0, 0.0, 0.0, 0.0, 0.0, 0.0, 0.0, 1.6635931306311264E9, 0.0, 2022-09-19 18:12:10.631
100.0, -20121.84502146781, -19153.813320852914, -69739.76728198139, -20481.10461009796, -15671.500941693896, 187500.0, -59662.99738442867, -20788.26228240279, 0.638, -0.59, 0.544, 192.0, 0.0, 0.0, 0.0, 0.0, 0.0, 0.0, 0.0, 0.0, 0.0, 1.663593130635059E9, 0.0, 2022-09-19 18:12:10.635
101.0, -19770.363839908106, -19132.467404898096, -69822.24521902147, -20525.137546674916, -15542.93370758697, 187500.0, -59709.4443094068, -20809.563494868697, 0.638, -0.59, 0.544, 192.0, 0.0, 0.0, 0.0, 0.0, 0.0, 0.0, 0.0, 0.0, 0.0, 1.6635931306381016E9, 0.0, 2022-09-19 18:12:10.638
102.0, -19901.07684148274, -19177.9755566091, -69747.76920649639, -20508.016110422148, -15594.32036808972, 187500.0, -59839.1738342254, -20808.065927990192, 0.638, -0.59, 0.544, 192.0, 0.0, 0.0, 0.0, 0.0, 0.0, 0.0, 0.0, 0.0, 0.0, 1.6635931306430678E9, 0.0, 2022-09-19 18:12:10.643
103.0, -20225.735929696075, -19202.629530743307, -69658.11635948616, -20461.368019743924, -15713.812793947793, 187500.0, -59784.099135887525, -20793.492590605332, 0.638, -0.59, 0.544, 192.0, 0.0, 0.0, 0.0, 0.0, 0.0, 0.0, 0.0, 0.0, 0.0, 1.6635931306471124E9, 0.0, 2022-09-19 18:12:10.647
104.0, -20283.224616435127, -19178.959033365136, -69668.8451968247, -20446.638220147877, -15736.946849459035, 187500.0, -59694.98273074422, -20780.752096265805, 0.638, -0.59, 0.544, 192.0, 0.0, 0.0, 0.0, 0.0, 0.0, 0.0, 0.0, 0.0, 0.0, 1.6635931306510036E9, 0.0, 2022-09-19 18:12:10.651
105.0, -20087.579797217822, -19140.15640499072, -69730.67012198808, -20467.738266913686, -15664.124866023645, 187500.0, -59640.31036380654, -20784.574244567662, 0.62, -0.586, 0.544, 192.0, 19.0, 96.0, 237.0, 176.0, 17.0, 0.0, 0.0, 0.0, 0.0, 1.6635931306549969E9, 0.0, 2022-09-19 18:12:10.654
106.0, -19739.071397670676, -19122.409119893207, -69814.91384684014, -20518.119098915948, -15537.41282670651, 187500.0, -59688.47837310772, -20808.78118381276, 0.62, -0.586, 0.544, 192.0, 0.0, 0.0, 0.0, 0.0, 0.0, 0.0, 0.0, 0.0, 0.0, 1.66359313065905E9, 0.0, 2022-09-19 18:12:10.659
107.0, -19870.007916689865, -19181.976518866602, -69750.87609897567, -20511.72650000173, -15590.27470234331, 187500.0, -59829.048493987146, -20813.765622826293, 0.62, -0.586, 0.544, 192.0, 0.0, 0.0, 0.0, 0.0, 0.0, 0.0, 0.0, 0.0, 0.0, 1.6635931306630445E9, 0.0, 2022-09-19 18:12:10.663
108.0, -20203.5182957075, -19212.732519237106, -69668.86754856915, -20473.549720472067, -15716.986741660447, 187500.0, -59789.21768536779, -20798.141753452033, 0.62, -0.586, 0.544, 192.0, 0.0, 0.0, 0.0, 0.0, 0.0, 0.0, 0.0, 0.0, 0.0, 1.6635931306660335E9, 0.0, 2022-09-19 18:12:10.666
109.0, -20260.425837090712, -19187.005661369047, -69679.1493510186, -20459.71399065423, -15738.131491915166, 187500.0, -59705.62216110494, -20779.433343342942, 0.62, -0.586, 0.544, 192.0, 0.0, 0.0, 0.0, 0.0, 0.0, 0.0, 0.0, 0.0, 0.0, 1.6635931306701095E9, 0.0, 2022-09-19 18:12:10.670
110.0, -20066.92678534112, -19152.248698741045, -69747.65744777411, -20485.038517122095, -15665.488322435418, 187500.0, -59657.92353843732, -20785.557721323697, 0.62, -0.586, 0.544, 192.0, 0.0, 0.0, 0.0, 0.0, 0.0, 0.0, 0.0, 0.0, 0.0, 1.663593130675037E9, 0.0, 2022-09-19 18:12:10.675
111.0, -19715.71382471488, -19135.149614232734, -69830.51536446993, -20533.050064212093, -15537.748102873338, 187500.0, -59702.26939943664, -20816.69370134994, 0.62, -0.586, 0.544, 192.0, 0.0, 0.0, 0.0, 0.0, 0.0, 0.0, 0.0, 0.0, 0.0, 1.663593130679126E9, 0.0, 2022-09-19 18:12:10.679
112.0, -19839.229564574907, -19188.592635225374, -69757.20164265652, -20521.06952918405, -15586.832533697194, 187500.0, -59836.98336326878, -20822.303989208223, 0.62, -0.586, 0.544, 192.0, 0.0, 0.0, 0.0, 0.0, 0.0, 0.0, 0.0, 0.0, 0.0, 1.6635931306830213E9, 0.0, 2022-09-19 18:12:10.683
113.0, -20168.448408657125, -19214.23008611561, -69662.60906012167, -20468.76644715863, -15710.080052623756, 187500.0, -59788.59183652304, -20790.78802952624, 0.62, -0.586, 0.544, 192.0, 0.0, 0.0, 0.0, 0.0, 0.0, 0.0, 0.0, 0.0, 0.0, 1.6635931306871605E9, 0.0, 2022-09-19 18:12:10.687
114.0, -20233.6260954888, -19189.352594536853, -69670.85685382568, -20457.32235399751, -15732.96823894599, 187500.0, -59702.06823373655, -20777.17581715296, 0.62, -0.586, 0.544, 192.0, 0.0, 0.0, 0.0, 0.0, 0.0, 0.0, 0.0, 0.0, 0.0, 1.6635931306910572E9, 0.0, 2022-09-19 18:12:10.691
115.0, -20049.224203732516, -19158.350724977343, -69741.48836630445, -20484.30090955507, -15663.968403812458, 187500.0, -59658.817608215526, -20785.53536957924, 0.626, -0.59, 0.548, 192.0, 19.0, 144.0, 237.0, 144.0, 17.0, 32.0, 0.0, 0.0, 0.0, 1.6635931306940534E9, 0.0, 2022-09-19 18:12:10.694
116.0, -19693.13856281502, -19140.78225383547, -69825.15094580066, -20531.083110700027, -15534.641210394051, 187500.0, -59701.732957569715, -20810.345805924633, 0.626, -0.59, 0.548, 192.0, 0.0, 0.0, 0.0, 0.0, 0.0, 0.0, 0.0, 0.0, 0.0, 1.66359313069907E9, 0.0, 2022-09-19 18:12:10.699
117.0, -19813.905038107045, -19199.16501035273, -69759.79444501334, -20526.59041006451, -15584.060917384735, 187500.0, -59837.38569466898, -20818.03480601726, 0.626, -0.59, 0.548, 192.0, 0.0, 0.0, 0.0, 0.0, 0.0, 0.0, 0.0, 0.0, 0.0, 1.663593130703112E9, 0.0, 2022-09-19 18:12:10.703
118.0, -20148.04126596943, -19221.60616178586, -69662.13967348811, -20475.226101306213, -15707.263732822388, 187500.0, -59787.00486266671, -20789.290462647732, 0.626, -0.59, 0.548, 192.0, 0.0, 0.0, 0.0, 0.0, 0.0, 0.0, 0.0, 0.0, 0.0, 1.6635931307072015E9, 0.0, 2022-09-19 18:12:10.707
119.0, -20207.42985098718, -19194.493495761573, -69668.28640321332, -20458.70816215374, -15728.721407499483, 187500.0, -59695.943855755795, -20774.560663051685, 0.626, -0.59, 0.548, 192.0, 0.0, 0.0, 0.0, 0.0, 0.0, 0.0, 0.0, 0.0, 0.0, 1.6635931307111084E9, 0.0, 2022-09-19 18:12:10.711
120.0, -20020.278694662895, -19161.278803500987, -69735.78867146834, -20485.753772944663, -15662.403781700586, 187500.0, -59652.42500930131, -20782.24966314431, 0.626, -0.59, 0.548, 192.0, 0.0, 0.0, 0.0, 0.0, 0.0, 0.0, 0.0, 0.0, 0.0, 1.6635931307150953E9, 0.0, 2022-09-19 18:12:10.715
121.0, -19668.17166425844, -19146.21372773811, -69824.99448358947, -20536.648695069398, -15540.095036041146, 187500.0, -59703.565800615055, -20808.60236985712, 0.626, -0.59, 0.548, 192.0, 0.0, 0.0, 0.0, 0.0, 0.0, 0.0, 0.0, 0.0, 0.0, 1.6635931307181306E9, 0.0, 2022-09-19 18:12:10.718
122.0, -19779.39394466805, -19195.387565539786, -69750.33965710875, -20517.78382274912, -15585.022042396313, 187500.0, -59830.88133703248, -20814.950265282427, 0.626, -0.59, 0.548, 192.0, 0.0, 0.0, 0.0, 0.0, 0.0, 0.0, 0.0, 0.0, 0.0, 1.6635931307221005E9, 0.0, 2022-09-19 18:12:10.722
123.0, -20114.93833243112, -19222.36612109734, -69660.88797579861, -20468.6323366919, -15713.432814292053, 187500.0, -59788.2118568673, -20799.281692419256, 0.626, -0.59, 0.548, 192.0, 0.0, 0.0, 0.0, 0.0, 0.0, 0.0, 0.0, 0.0, 0.0, 1.6635931307262316E9, 0.0, 2022-09-19 18:12:10.726
124.0, -20182.75352510852, -19198.114478363335, -69670.18630149202, -20456.584746430486, -15743.87589024018, 187500.0, -59705.66686459385, -20780.01448869878, 0.626, -0.59, 0.548, 192.0, 0.0, 0.0, 0.0, 0.0, 0.0, 0.0, 0.0, 0.0, 0.0, 1.6635931307311354E9, 0.0, 2022-09-19 18:12:10.731
125.0, -19997.882246718676, -19161.345858734352, -69733.88877318964, -20479.584691475, -15679.793438886814, 187500.0, -59663.511474551146, -20788.73166903635, 0.634, -0.592, 0.548, 192.0, 19.0, 208.0, 237.0, 128.0, 17.0, 32.0, 0.0, 0.0, 0.0, 1.6635931307351296E9, 0.0, 2022-09-19 18:12:10.735
126.0, -19645.283477936206, -19141.58691663586, -69819.22773352, -20527.082148442525, -15557.238824038366, 187500.0, -59707.23148670572, -20818.414785672998, 0.634, -0.592, 0.548, 192.0, 0.0, 0.0, 0.0, 0.0, 0.0, 0.0, 0.0, 0.0, 0.0, 1.6635931307392733E9, 0.0, 2022-09-19 18:12:10.739
127.0, -19760.81964502569, -19199.16501035273, -69756.24051764495, -20523.77409026314, -15609.094871174679, 187500.0, -59848.047476774154, -20829.300085222734, 0.634, -0.592, 0.548, 192.0, 0.0, 0.0, 0.0, 0.0, 0.0, 0.0, 0.0, 0.0, 0.0, 1.663593130742163E9, 0.0, 2022-09-19 18:12:10.742
128.0, -20099.716794457054, -19226.612952543852, -69658.76456007536, -20471.91804312683, -15739.629058793673, 187500.0, -59803.5675053081, -20800.689852319938, 0.634, -0.592, 0.548, 192.0, 0.0, 0.0, 0.0, 0.0, 0.0, 0.0, 0.0, 0.0, 0.0, 1.6635931307461584E9, 0.0, 2022-09-19 18:12:10.746
129.0, -20170.527120891467, -19204.663539488738, -69667.21351947945, -20454.23781326268, -15770.474466141995, 187500.0, -59713.0429402641, -20783.74723002282, 0.634, -0.592, 0.548, 192.0, 0.0, 0.0, 0.0, 0.0, 0.0, 0.0, 0.0, 0.0, 0.0, 1.6635931307502344E9, 0.0, 2022-09-19 18:12:10.750
130.0, -19990.77439198189, -19171.717068161615, -69733.77701446737, -20476.47779899571, -15704.53681999884, 187500.0, -59667.37832634191, -20788.68696554744, 0.634, -0.592, 0.548, 192.0, 0.0, 0.0, 0.0, 0.0, 0.0, 0.0, 0.0, 0.0, 0.0, 1.6635931307541337E9, 0.0, 2022-09-19 18:12:10.754
131.0, -19636.32042840963, -19170.55477744994, -69825.55327720086, -20532.96065723427, -15577.400097537053, 187500.0, -59710.539544885105, -20822.34869269713, 0.634, -0.592, 0.548, 192.0, 0.0, 0.0, 0.0, 0.0, 0.0, 0.0, 0.0, 0.0, 0.0, 1.6635931307591977E9, 0.0, 2022-09-19 18:12:10.759
132.0, -19747.14037741904, -19240.202813172677, -69769.38334338467, -20531.328979889033, -15626.730397549916, 187500.0, -59853.14367450997, -20833.83748934716, 0.634, -0.592, 0.548, 192.0, 0.0, 0.0, 0.0, 0.0, 0.0, 0.0, 0.0, 0.0, 0.0, 1.6635931307631495E9, 0.0, 2022-09-19 18:12:10.763
133.0, -20088.20564606257, -19258.710057581673, -69666.7441328459, -20473.661479194343, -15752.861291511213, 187500.0, -59803.58985705255, -20804.042613988237, 0.634, -0.592, 0.548, 192.0, 0.0, 0.0, 0.0, 0.0, 0.0, 0.0, 0.0, 0.0, 0.0, 1.663593130767234E9, 0.0, 2022-09-19 18:12:10.767
134.0, -20154.99265849503, -19207.681024990205, -69669.7392666029, -20451.13092078339, -15776.442381911564, 187500.0, -59709.15373672888, -20783.814285256183, 0.634, -0.592, 0.548, 192.0, 0.0, 0.0, 0.0, 0.0, 0.0, 0.0, 0.0, 0.0, 0.0, 1.6635931307702E9, 0.0, 2022-09-19 18:12:10.770
135.0, -19978.14565636464, -19167.090257059368, -69735.52045053488, -20471.71687742673, -15713.276352080866, 187500.0, -59664.22673037371, -20783.74723002282, 0.626, -0.59, 0.546, 192.0, 19.0, 144.0, 237.0, 144.0, 17.0, 16.0, 0.0, 0.0, 0.0, 1.6635931307741783E9, 0.0, 2022-09-19 18:12:10.774
136.0, -19619.26604739023, -19130.656913597217, -69822.42403297711, -20522.611799551465, -15584.284434829287, 187500.0, -59699.855411035474, -20815.866686805093, 0.626, -0.59, 0.546, 192.0, 0.0, 0.0, 0.0, 0.0, 0.0, 0.0, 0.0, 0.0, 0.0, 1.6635931307781997E9, 0.0, 2022-09-19 18:12:10.778
137.0, -19718.306627071695, -19169.347783249355, -69752.50777632091, -20513.380529091424, -15624.674037060027, 187500.0, -59830.858985288025, -20821.96871304139, 0.626, -0.59, 0.546, 192.0, 0.0, 0.0, 0.0, 0.0, 0.0, 0.0, 0.0, 0.0, 0.0, 1.663593130782196E9, 0.0, 2022-09-19 18:12:10.782
138.0, -20059.617764904233, -19199.522638264018, -69645.93465875801, -20460.518653454623, -15750.73787578796, 187500.0, -59780.4110980524, -20792.3079481492, 0.626, -0.59, 0.546, 192.0, 0.0, 0.0, 0.0, 0.0, 0.0, 0.0, 0.0, 0.0, 0.0, 1.6635931307872007E9, 0.0, 2022-09-19 18:12:10.787
139.0, -20133.825556495853, -19180.233082799088, -69652.86369953916, -20445.207708502738, -15777.872893556703, 187500.0, -59691.9875969872, -20780.774448010263, 0.626, -0.59, 0.546, 192.0, 0.0, 0.0, 0.0, 0.0, 0.0, 0.0, 0.0, 0.0, 0.0, 1.6635931307912135E9, 0.0, 2022-09-19 18:12:10.791
140.0, -19959.48194974446, -19152.98630630807, -69720.23185732745, -20471.001621604162, -15714.505698025907, 187500.0, -59652.98380291269, -20786.362384124088, 0.626, -0.59, 0.546, 192.0, 0.0, 0.0, 0.0, 0.0, 0.0, 0.0, 0.0, 0.0, 0.0, 1.6635931307951903E9, 0.0, 2022-09-19 18:12:10.795
141.0, -19604.178619882896, -19138.949410790137, -69808.11891652571, -20527.082148442525, -15589.268873842822, 187500.0, -59692.8369632765, -20815.486707149354, 0.626, -0.59, 0.546, 192.0, 0.0, 0.0, 0.0, 0.0, 0.0, 0.0, 0.0, 0.0, 0.0, 1.6635931307982533E9, 0.0, 2022-09-19 18:12:10.798
142.0, -19702.079260597144, -19196.549856251462, -69746.53986055135, -20524.377587363433, -15629.792586540294, 187500.0, -59830.90368877694, -20825.03090203177, 0.626, -0.59, 0.546, 192.0, 0.0, 0.0, 0.0, 0.0, 0.0, 0.0, 0.0, 0.0, 0.0, 1.6635931308022175E9, 0.0, 2022-09-19 18:12:10.802
143.0, -20044.753854841456, -19230.502156079074, -69655.09887398468, -20478.24358680768, -15755.834073523769, 187500.0, -59797.77840349417, -20802.0086052428, 0.626, -0.59, 0.546, 192.0, 0.0, 0.0, 0.0, 0.0, 0.0, 0.0, 0.0, 0.0, 0.0, 1.6635931308062706E9, 0.0, 2022-09-19 18:12:10.806
144.0, -20121.397986578704, -19203.14362086578, -69657.08817924121, -20457.747037142162, -15784.332547704285, 187500.0, -59706.40447216087, -20783.456657344897, 0.626, -0.59, 0.546, 192.0, 0.0, 0.0, 0.0, 0.0, 0.0, 0.0, 0.0, 0.0, 0.0, 1.663593130810269E9, 0.0, 2022-09-19 18:12:10.810
145.0, -19946.8085106383, -19162.530501190486, -69717.2590753149, -20471.09102858198, -15720.071282395278, 187500.0, -59653.006154657145, -20779.790971254228, 0.626, -0.5760000000000001, 0.546, 192.0, 19.0, 144.0, 238.0, 0.0, 17.0, 16.0, 0.0, 0.0, 0.0, 1.663593130814266E9, 0.0, 2022-09-19 18:12:10.814
146.0, -19590.253483087243, -19146.99603879405, -69812.18693401659, -20526.925686231338, -15594.722699489916, 187500.0, -59692.5910940875, -20814.860858304604, 0.626, -0.5760000000000001, 0.546, 192.0, 0.0, 0.0, 0.0, 0.0, 0.0, 0.0, 0.0, 0.0, 0.0, 1.6635931308193069E9, 0.0, 2022-09-19 18:12:10.819
147.0, -19685.158990044474, -19203.8812284328, -69757.08988393426, -20528.132680431925, -15635.42522614303, 187500.0, -59831.1719097104, -20826.595524143642, 0.626, -0.5760000000000001, 0.546, 192.0, 0.0, 0.0, 0.0, 0.0, 0.0, 0.0, 0.0, 0.0, 0.0, 1.663593130823302E9, 0.0, 2022-09-19 18:12:10.823
148.0, -20028.235915688983, -19229.22810664512, -69655.47885364042, -20470.643993692876, -15760.326774159286, 187500.0, -59790.13410689046, -20795.101916206113, 0.626, -0.5760000000000001, 0.546, 192.0, 0.0, 0.0, 0.0, 0.0, 0.0, 0.0, 0.0, 0.0, 0.0, 1.6635931308262703E9, 0.0, 2022-09-19 18:12:10.826
149.0, -20111.540867273914, -19212.37489132582, -69665.44773166749, -20456.71885689722, -15793.563818164328, 187500.0, -59706.80680356107, -20787.43526785794, 0.626, -0.5760000000000001, 0.546, 192.0, 0.0, 0.0, 0.0, 0.0, 0.0, 0.0, 0.0, 0.0, 0.0, 1.6635931308303428E9, 0.0, 2022-09-19 18:12:10.830
150.0, -19944.059246070297, -19183.407030511742, -69728.99374115393, -20477.90831064085, -15732.007113934413, 187500.0, -59666.372497841425, -20790.855084759605, 0.626, -0.5760000000000001, 0.546, 192.0, 0.0, 0.0, 0.0, 0.0, 0.0, 0.0, 0.0, 0.0, 0.0, 1.6635931308343241E9, 0.0, 2022-09-19 18:12:10.834
151.0, -19583.056221372633, -19156.540233676464, -69815.0256055624, -20522.00830245117, -15600.064766414735, 187500.0, -59702.157640714366, -20811.910428036503, 0.626, -0.5760000000000001, 0.546, 192.0, 0.0, 0.0, 0.0, 0.0, 0.0, 0.0, 0.0, 0.0, 0.0, 1.663593130838334E9, 0.0, 2022-09-19 18:12:10.838
152.0, -19672.93258582742, -19207.74808022357, -69755.77113101138, -20516.576828548532, -15636.431054643519, 187500.0, -59838.905613291936, -20821.11934675209, 0.626, -0.5760000000000001, 0.546, 192.0, 0.0, 0.0, 0.0, 0.0, 0.0, 0.0, 0.0, 0.0, 0.0, 1.6635931308423002E9, 0.0, 2022-09-19 18:12:10.842
153.0, -20022.91620050862, -19241.253345162077, -69661.71499034346, -20465.748961657162, -15765.490027128462, 187500.0, -59800.661778528905, -20795.481895861853, 0.626, -0.5760000000000001, 0.546, 192.0, 0.0, 0.0, 0.0, 0.0, 0.0, 0.0, 0.0, 0.0, 0.0, 1.6635931308472953E9, 0.0, 2022-09-19 18:12:10.847
154.0, -20101.415527035657, -19206.451679045163, -69670.02983928083, -20448.26989749311, -15793.60852165324, 187500.0, -59708.460832650766, -20778.718087520374, 0.626, -0.5760000000000001, 0.546, 192.0, 0.0, 0.0, 0.0, 0.0, 0.0, 0.0, 0.0, 0.0, 0.0, 1.6635931308513896E9, 0.0, 2022-09-19 18:12:10.851
155.0, -19936.012618066386, -19169.705411160638, -69728.6584649871, -20468.498226225165, -15732.521204056884, 187500.0, -59652.581471512494, -20782.137904422034, 0.626, -0.5760000000000001, 0.546, 192.0, 0.0, 0.0, 0.0, 0.0, 0.0, 0.0, 0.0, 0.0, 0.0, 1.663593130854406E9, 0.0, 2022-09-19 18:12:10.854
156.0, -19573.40026776794, -19143.06213176991, -69819.09362305327, -20514.63222678092, -15601.785850737793, 187500.0, -59685.01385271715, -20806.814230300693, 0.626, -0.582, 0.542, 192.0, 19.0, 144.0, 237.0, 208.0, 16.0, 240.0, 0.0, 0.0, 0.0, 1.663593130858329E9, 0.0, 2022-09-19 18:12:10.858
157.0, -19652.927774539923, -19182.73647817808, -69760.19677641353, -20507.81494472205, -15635.469929631941, 187500.0, -59820.13014794948, -20814.4138234155, 0.626, -0.582, 0.542, 192.0, 0.0, 0.0, 0.0, 0.0, 0.0, 0.0, 0.0, 0.0, 0.0, 1.6635931308623743E9, 0.0, 2022-09-19 18:12:10.862
158.0, -20002.553761309835, -19212.57605702592, -69662.49730139939, -20460.47394996571, -15765.445323639551, 187500.0, -59787.31778708909, -20792.53146559375, 0.626, -0.582, 0.542, 192.0, 0.0, 0.0, 0.0, 0.0, 0.0, 0.0, 0.0, 0.0, 0.0, 1.663593130866368E9, 0.0, 2022-09-19 18:12:10.866
