%OpenBCI Raw EEG Data
%Number of channels = 8
%Sample Rate = 250 Hz
%Board = OpenBCI_GUI$BoardCytonSerial
Sample Index, EXG Channel 0, EXG Channel 1, EXG Channel 2, EXG Channel 3, EXG Channel 4, EXG Channel 5, EXG Channel 6, EXG Channel 7, Accel Channel 0, Accel Channel 1, Accel Channel 2, Other, Other, Other, Other, Other, Other, Other, Analog Channel 0, Analog Channel 1, Analog Channel 2, Timestamp, Other, Timestamp (Formatted)
252.0, -4231.676963767643, 14377.312585987162, -25313.998796224452, -47932.15369369432, -187500.02235174447, -187500.02235174447, 7364.810391045856, -21963.025267484816, 0.0, 0.0, 0.0, 192.0, 0.0, 0.0, 0.0, 0.0, 0.0, 0.0, 0.0, 0.0, 0.0, 1.663590767756259E9, 0.0, 2022-09-19 17:32:47.756
253.0, -4428.931108585729, 14286.16217209842, -24935.472003873827, -48183.63317056098, -187500.02235174447, -187500.02235174447, 7128.3289347087075, -21619.45660346229, 0.0, 0.0, 0.0, 192.0, 0.0, 0.0, 0.0, 0.0, 0.0, 0.0, 0.0, 0.0, 0.0, 1.6635907677563047E9, 0.0, 2022-09-19 17:32:47.756
254.0, -4196.45061450608, 14387.28146401423, -24089.547883218274, -48178.82754550309, -187500.02235174447, -187500.02235174447, 6969.408031631474, -20798.767602296783, 0.0, 0.0, 0.0, 192.0, 0.0, 0.0, 0.0, 0.0, 0.0, 0.0, 0.0, 0.0, 0.0, 1.663590767756327E9, 0.0, 2022-09-19 17:32:47.756
0.0, 0.0, 0.0, 0.0, 0.0, 0.0, 0.0, 0.0, 0.0, 0.0, 0.0, 0.0, 192.0, 0.0, 0.0, 0.0, 0.0, 0.0, 0.0, 0.0, 0.0, 0.0, 1.6635907678263395E9, 0.0, 2022-09-19 17:32:47.826
1.0, -2242.1928932896726, 15012.72797736263, -24451.26616373851, -50860.20986559509, -187500.02235174447, -187500.02235174447, 6326.34834365229, -19484.48502832473, 0.618, -0.776, 0.2, 192.0, 19.0, 80.0, 231.0, 192.0, 6.0, 64.0, 0.0, 0.0, 0.0, 1.6635907678423867E9, 0.0, 2022-09-19 17:32:47.842
2.0, -1974.7542708819237, 15052.111751092882, -23838.828365663096, -50893.42455785567, -187500.02235174447, -187500.02235174447, 6341.145198481703, -18896.63414915015, 0.618, -0.776, 0.2, 192.0, 0.0, 0.0, 0.0, 0.0, 0.0, 0.0, 0.0, 0.0, 0.0, 1.6635907678464231E9, 0.0, 2022-09-19 17:32:47.846
3.0, -1808.3902369010732, 15139.171795746302, -24083.95994710445, -50630.74685701691, -187500.02235174447, -187500.02235174447, 6455.854351026339, -19058.036095861924, 0.618, -0.776, 0.2, 192.0, 0.0, 0.0, 0.0, 0.0, 0.0, 0.0, 0.0, 0.0, 0.0, 1.663590767849418E9, 0.0, 2022-09-19 17:32:47.849
4.0, -1868.6952434414916, 15169.681926927797, -24743.76109168066, -50409.464586909366, -187500.02235174447, -187500.02235174447, 6535.784189198517, -19633.012370230244, 0.618, -0.776, 0.2, 192.0, 0.0, 0.0, 0.0, 0.0, 0.0, 0.0, 0.0, 0.0, 0.0, 1.6635907678544972E9, 0.0, 2022-09-19 17:32:47.854
5.0, -2158.6867760046457, 15100.302112138525, -25303.895807730652, -50454.056317097704, -187500.02235174447, -187500.02235174447, 6486.85622058585, -20158.345420163325, 0.618, -0.776, 0.2, 192.0, 0.0, 0.0, 0.0, 0.0, 0.0, 0.0, 0.0, 0.0, 0.0, 1.6635907678574307E9, 0.0, 2022-09-19 17:32:47.857
6.0, -2248.5854922038907, 15007.58707613791, -24448.874527081793, -50885.623799040775, -187500.02235174447, -187500.02235174447, 6316.692390047597, -19469.643470006406, 0.618, -0.776, 0.2, 192.0, 0.0, 0.0, 0.0, 0.0, 0.0, 0.0, 0.0, 0.0, 0.0, 1.6635907678614285E9, 0.0, 2022-09-19 17:32:47.861
7.0, -1980.8115936293118, 15046.859091145885, -23851.90413616945, -50912.44589238714, -187500.02235174447, -187500.02235174447, 6335.06552398986, -18884.340689699733, 0.618, -0.776, 0.2, 192.0, 0.0, 0.0, 0.0, 0.0, 0.0, 0.0, 0.0, 0.0, 0.0, 1.6635907678654506E9, 0.0, 2022-09-19 17:32:47.865
8.0, -1812.7711788143133, 15128.912345041317, -24098.77915367832, -50644.94021474603, -187500.02235174447, -187500.02235174447, 6453.932101003183, -19055.465645249566, 0.614, -0.778, 0.216, 192.0, 19.0, 48.0, 231.0, 176.0, 6.0, 192.0, 0.0, 0.0, 0.0, 1.663590767869472E9, 0.0, 2022-09-19 17:32:47.869
9.0, -1873.9702551329442, 15156.472045954712, -24763.676495990338, -50417.868842824566, -187500.02235174447, -187500.02235174447, 6534.845415931394, -19638.063864477142, 0.614, -0.778, 0.216, 192.0, 0.0, 0.0, 0.0, 0.0, 0.0, 0.0, 0.0, 0.0, 0.0, 1.6635907678734784E9, 0.0, 2022-09-19 17:32:47.873
10.0, -2165.146430152229, 15081.258425862603, -25299.425458839592, -50464.53928524724, -187500.02235174447, -187500.02235174447, 6484.844563584872, -20174.215158726594, 0.614, -0.778, 0.216, 192.0, 0.0, 0.0, 0.0, 0.0, 0.0, 0.0, 0.0, 0.0, 0.0, 1.6635907678775208E9, 0.0, 2022-09-19 17:32:47.877
11.0, -2240.427105477703, 14992.119668974838, -24421.3148261684, -50891.05527294341, -187500.02235174447, -187500.02235174447, 6315.910078991661, -19467.408295560872, 0.614, -0.778, 0.216, 192.0, 0.0, 0.0, 0.0, 0.0, 0.0, 0.0, 0.0, 0.0, 0.0, 1.6635907678825076E9, 0.0, 2022-09-19 17:32:47.882
12.0, -1964.3607097102058, 15038.186614297227, -23837.062577851128, -50906.45562487312, -187500.02235174447, -187500.02235174447, 6335.601965856787, -18891.292082225333, 0.614, -0.778, 0.216, 192.0, 0.0, 0.0, 0.0, 0.0, 0.0, 0.0, 0.0, 0.0, 0.0, 1.6635907678855054E9, 0.0, 2022-09-19 17:32:47.885
13.0, -1818.0238387613106, 15116.641237335354, -24098.220360066935, -50638.81583676527, -187500.02235174447, -187500.02235174447, 6451.585167835376, -19070.396610545708, 0.614, -0.778, 0.216, 192.0, 0.0, 0.0, 0.0, 0.0, 0.0, 0.0, 0.0, 0.0, 0.0, 1.663590767889505E9, 0.0, 2022-09-19 17:32:47.889
14.0, -1897.1043106441869, 15141.250507980647, -24776.61815602996, -50406.69297059691, -187500.02235174447, -187500.02235174447, 6528.475168761632, -19654.827672818625, 0.614, -0.778, 0.216, 192.0, 0.0, 0.0, 0.0, 0.0, 0.0, 0.0, 0.0, 0.0, 0.0, 1.663590767893526E9, 0.0, 2022-09-19 17:32:47.893
15.0, -2194.114290966307, 15064.4052105433, -25297.212636138516, -50457.94552063293, -187500.02235174447, -187500.02235174447, 6475.590941380375, -20175.444504671636, 0.614, -0.778, 0.216, 192.0, 0.0, 0.0, 0.0, 0.0, 0.0, 0.0, 0.0, 0.0, 0.0, 1.6635907678975987E9, 0.0, 2022-09-19 17:32:47.897
16.0, -2241.410582233737, 14978.283939157003, -24398.381936357255, -50890.384720609756, -187500.02235174447, -187500.02235174447, 6311.48443358951, -19458.62405998994, 0.614, -0.778, 0.216, 192.0, 0.0, 0.0, 0.0, 0.0, 0.0, 0.0, 0.0, 0.0, 0.0, 1.663590767901596E9, 0.0, 2022-09-19 17:32:47.901
17.0, -1959.6668433745915, 15021.802785611486, -23829.99942660325, -50897.20200266862, -187500.02235174447, -187500.02235174447, 6337.367753668756, -18889.950977558015, 0.614, -0.778, 0.216, 192.0, 0.0, 0.0, 0.0, 0.0, 0.0, 0.0, 0.0, 0.0, 0.0, 1.6635907679056027E9, 0.0, 2022-09-19 17:32:47.905
18.0, -1820.013144017833, 15100.033891205061, -24095.828723410217, -50631.75268551739, -187500.02235174447, -187500.02235174447, 6451.316946901911, -19076.096305381812, 0.622, -0.778, 0.22, 192.0, 19.0, 112.0, 231.0, 176.0, 6.0, 224.0, 0.0, 0.0, 0.0, 1.6635907679095442E9, 0.0, 2022-09-19 17:32:47.909
19.0, -1898.132490889131, 15127.23596420717, -24784.70948752278, -50408.63757236452, -187500.02235174447, -187500.02235174447, 6528.072837361436, -19681.538007442716, 0.622, -0.778, 0.22, 192.0, 0.0, 0.0, 0.0, 0.0, 0.0, 0.0, 0.0, 0.0, 0.0, 1.66359076791361E9, 0.0, 2022-09-19 17:32:47.913
20.0, -2183.094880949841, 15057.4538180177, -25288.29429010085, -50472.83178244016, -187500.02235174447, -187500.02235174447, 6477.267322214523, -20184.22874024257, 0.622, -0.778, 0.22, 192.0, 0.0, 0.0, 0.0, 0.0, 0.0, 0.0, 0.0, 0.0, 0.0, 1.6635907679165976E9, 0.0, 2022-09-19 17:32:47.916
21.0, -2254.151076573262, 14970.43847685319, -24382.109866393792, -50906.54503185094, -187500.02235174447, -187500.02235174447, 6309.562183566354, -19450.264507563654, 0.622, -0.778, 0.22, 192.0, 0.0, 0.0, 0.0, 0.0, 0.0, 0.0, 0.0, 0.0, 0.0, 1.6635907679215913E9, 0.0, 2022-09-19 17:32:47.921
22.0, -1996.7930909148565, 15015.11961401935, -23831.407586503934, -50901.627648070775, -187500.02235174447, -187500.02235174447, 6340.9440327816055, -18910.246361523434, 0.622, -0.778, 0.22, 192.0, 0.0, 0.0, 0.0, 0.0, 0.0, 0.0, 0.0, 0.0, 0.0, 1.6635907679256003E9, 0.0, 2022-09-19 17:32:47.925
23.0, -1855.038327579299, 15089.953254455717, -24105.998767137382, -50631.10448492819, -187500.02235174447, -187500.02235174447, 6459.1624092057245, -19087.83097122085, 0.622, -0.778, 0.22, 192.0, 0.0, 0.0, 0.0, 0.0, 0.0, 0.0, 0.0, 0.0, 0.0, 1.6635907679295568E9, 0.0, 2022-09-19 17:32:47.929
24.0, -1901.2170316239635, 15122.363283915913, -24807.508266867193, -50398.422825148446, -187500.02235174447, -187500.02235174447, 6543.003802657581, -19685.203693533385, 0.622, -0.778, 0.22, 192.0, 0.0, 0.0, 0.0, 0.0, 0.0, 0.0, 0.0, 0.0, 0.0, 1.66359076793371E9, 0.0, 2022-09-19 17:32:47.933
25.0, -2182.893715249743, 15052.335268537436, -25296.385621593672, -50463.80167768022, -187500.02235174447, -187500.02235174447, 6486.118613018824, -20174.50573140451, 0.622, -0.778, 0.22, 192.0, 0.0, 0.0, 0.0, 0.0, 0.0, 0.0, 0.0, 0.0, 0.0, 1.6635907679375975E9, 0.0, 2022-09-19 17:32:47.937
26.0, -2235.1967972751618, 14970.930215231207, -24359.266383560465, -50895.07858694537, -187500.02235174447, -187500.02235174447, 6320.8721662607395, -19408.779669854604, 0.622, -0.778, 0.22, 192.0, 0.0, 0.0, 0.0, 0.0, 0.0, 0.0, 0.0, 0.0, 0.0, 1.6635907679416234E9, 0.0, 2022-09-19 17:32:47.941
27.0, -1956.4705439174825, 15016.818346597953, -23830.401758003445, -50882.42749958367, -187500.02235174447, -187500.02235174447, 6347.49309390701, -18868.64976509211, 0.622, -0.778, 0.22, 192.0, 0.0, 0.0, 0.0, 0.0, 0.0, 0.0, 0.0, 0.0, 0.0, 1.663590767944596E9, 0.0, 2022-09-19 17:32:47.944
28.0, -1816.4368649049838, 15088.858018977407, -24123.746052234896, -50615.25709810938, -187500.02235174447, -187500.02235174447, 6455.653185326241, -19076.699802482104, 0.614, -0.776, 0.226, 192.0, 19.0, 48.0, 231.0, 192.0, 7.0, 16.0, 0.0, 0.0, 0.0, 1.6635907679496403E9, 0.0, 2022-09-19 17:32:47.949
29.0, -1907.7660927493685, 15109.4663273652, -24837.750177115224, -50387.35871164307, -187500.02235174447, -187500.02235174447, 6528.631630972819, -19691.70805116988, 0.614, -0.776, 0.226, 192.0, 0.0, 0.0, 0.0, 0.0, 0.0, 0.0, 0.0, 0.0, 0.0, 1.6635907679536278E9, 0.0, 2022-09-19 17:32:47.953
30.0, -2209.1346632402733, 15034.811500884474, -25304.365194364214, -50465.411003281, -187500.02235174447, -187500.02235174447, 6466.270263942512, -20161.36290566479, 0.614, -0.776, 0.226, 192.0, 0.0, 0.0, 0.0, 0.0, 0.0, 0.0, 0.0, 0.0, 0.0, 1.6635907679576426E9, 0.0, 2022-09-19 17:32:47.957
31.0, -2257.7720591750217, 14949.696057998664, -24360.80865392788, -50901.895869004235, -187500.02235174447, -187500.02235174447, 6299.548602050377, -19405.292797719576, 0.614, -0.776, 0.226, 192.0, 0.0, 0.0, 0.0, 0.0, 0.0, 0.0, 0.0, 0.0, 0.0, 1.6635907679616296E9, 0.0, 2022-09-19 17:32:47.961
32.0, -1974.3966429706388, 14998.959302778161, -23846.472662266813, -50885.824964740874, -187500.02235174447, -187500.02235174447, 6333.992640256005, -18887.425230434565, 0.614, -0.776, 0.226, 192.0, 0.0, 0.0, 0.0, 0.0, 0.0, 0.0, 0.0, 0.0, 0.0, 1.6635907679656472E9, 0.0, 2022-09-19 17:32:47.965
33.0, -1836.6875453814919, 15077.324518838468, -24132.06090117227, -50614.05010390879, -187500.02235174447, -187500.02235174447, 6450.109952701325, -19085.841665964326, 0.614, -0.776, 0.226, 192.0, 0.0, 0.0, 0.0, 0.0, 0.0, 0.0, 0.0, 0.0, 0.0, 1.6635907679696796E9, 0.0, 2022-09-19 17:32:47.969
34.0, -1924.0605144572874, 15099.743318527142, -24850.69183715485, -50390.242086677805, -187500.02235174447, -187500.02235174447, 6525.211814071156, -19725.01215040829, 0.614, -0.776, 0.226, 192.0, 0.0, 0.0, 0.0, 0.0, 0.0, 0.0, 0.0, 0.0, 0.0, 1.6635907679726572E9, 0.0, 2022-09-19 17:32:47.972
35.0, -2216.354276699338, 15022.763910623064, -25291.088258157764, -50480.54313427724, -187500.02235174447, -187500.02235174447, 6462.582226107386, -20191.247188001536, 0.614, -0.776, 0.226, 192.0, 0.0, 0.0, 0.0, 0.0, 0.0, 0.0, 0.0, 0.0, 0.0, 1.6635907679765868E9, 0.0, 2022-09-19 17:32:47.976
36.0, -2255.536884729491, 14938.52018577101, -24324.889400588203, -50919.30787793492, -187500.02235174447, -187500.02235174447, 6297.224020627024, -19394.116925491922, 0.614, -0.776, 0.226, 192.0, 0.0, 0.0, 0.0, 0.0, 0.0, 0.0, 0.0, 0.0, 0.0, 1.663590767981676E9, 0.0, 2022-09-19 17:32:47.981
37.0, -1973.033186558865, 14988.163410206249, -23828.457156235836, -50891.25643864351, -187500.02235174447, -187500.02235174447, 6332.7856460554185, -18877.32224194077, 0.614, -0.776, 0.226, 192.0, 0.0, 0.0, 0.0, 0.0, 0.0, 0.0, 0.0, 0.0, 0.0, 1.663590767985675E9, 0.0, 2022-09-19 17:32:47.985
38.0, -1843.4377722069946, 15057.78909418453, -24126.227095869435, -50622.43200807954, -187500.02235174447, -187500.02235174447, 6446.3101561439225, -19092.88246546775, 0.614, -0.778, 0.226, 192.0, 19.0, 48.0, 231.0, 176.0, 7.0, 16.0, 0.0, 0.0, 0.0, 1.6635907679896135E9, 0.0, 2022-09-19 17:32:47.989
39.0, -1936.9798227524548, 15077.279815349559, -24854.715151156804, -50395.472394880344, -187500.02235174447, -187500.02235174447, 6522.954287881171, -19726.979103920356, 0.614, -0.778, 0.226, 192.0, 0.0, 0.0, 0.0, 0.0, 0.0, 0.0, 0.0, 0.0, 0.0, 1.6635907679937272E9, 0.0, 2022-09-19 17:32:47.993
40.0, -2233.0063263185416, 14999.629855111822, -25268.15536834662, -50488.23213436987, -187500.02235174447, -187500.02235174447, 6462.314005173923, -20163.866301043785, 0.614, -0.778, 0.226, 192.0, 0.0, 0.0, 0.0, 0.0, 0.0, 0.0, 0.0, 0.0, 0.0, 1.6635907679976997E9, 0.0, 2022-09-19 17:32:47.997
41.0, -2256.989748119086, 14920.996418118051, -24290.847693782773, -50920.8725000468, -187500.02235174447, -187500.02235174447, 6304.063654430349, -19369.999393224643, 0.614, -0.778, 0.226, 192.0, 0.0, 0.0, 0.0, 0.0, 0.0, 0.0, 0.0, 0.0, 0.0, 1.6635907680007E9, 0.0, 2022-09-19 17:32:48.000
42.0, -1970.909770835611, 14974.975880977618, -23812.22978976128, -50887.12136591928, -187500.02235174447, -187500.02235174447, 6347.738963096019, -18880.54089314233, 0.614, -0.778, 0.226, 192.0, 0.0, 0.0, 0.0, 0.0, 0.0, 0.0, 0.0, 0.0, 0.0, 1.6635907680046928E9, 0.0, 2022-09-19 17:32:48.004
43.0, -1839.5932721606819, 15049.988335369628, -24120.57210452224, -50621.51558655687, -187500.02235174447, -187500.02235174447, 6458.827133038894, -19103.92422722867, 0.614, -0.778, 0.226, 192.0, 0.0, 0.0, 0.0, 0.0, 0.0, 0.0, 0.0, 0.0, 0.0, 1.663590768009714E9, 0.0, 2022-09-19 17:32:48.009
44.0, -1936.8457122857228, 15068.36146931189, -24859.230203536776, -50392.320798912144, -187500.02235174447, -187500.02235174447, 6533.05727637497, -19743.318229117183, 0.614, -0.778, 0.226, 192.0, 0.0, 0.0, 0.0, 0.0, 0.0, 0.0, 0.0, 0.0, 0.0, 1.6635907680137308E9, 0.0, 2022-09-19 17:32:48.013
45.0, -2236.5826054313907, 14988.945721262184, -25266.635449723657, -50497.46340482991, -187500.02235174447, -187500.02235174447, 6462.604577851842, -20178.730211106566, 0.614, -0.778, 0.226, 192.0, 0.0, 0.0, 0.0, 0.0, 0.0, 0.0, 0.0, 0.0, 0.0, 1.6635907680177193E9, 0.0, 2022-09-19 17:32:48.017
46.0, -2255.2016085626615, 14910.04406333495, -24281.99640297847, -50935.08820952037, -187500.02235174447, -187500.02235174447, 6300.085043917304, -19371.429904869783, 0.614, -0.778, 0.226, 192.0, 0.0, 0.0, 0.0, 0.0, 0.0, 0.0, 0.0, 0.0, 0.0, 1.6635907680207255E9, 0.0, 2022-09-19 17:32:48.020
47.0, -1969.1886865125523, 14966.973956462618, -23826.601961446046, -50891.479956088064, -187500.02235174447, -187500.02235174447, 6342.8215793158515, -18898.668157895587, 0.614, -0.778, 0.226, 192.0, 0.0, 0.0, 0.0, 0.0, 0.0, 0.0, 0.0, 0.0, 0.0, 1.663590768024758E9, 0.0, 2022-09-19 17:32:48.024
48.0, -1843.4377722069946, 15044.668620189264, -24138.25233438639, -50618.36399058867, -187500.02235174447, -187500.02235174447, 6456.033164981981, -19123.50435537152, 0.624, -0.782, 0.22, 192.0, 19.0, 128.0, 231.0, 144.0, 6.0, 224.0, 0.0, 0.0, 0.0, 1.6635907680287929E9, 0.0, 2022-09-19 17:32:48.028
49.0, -1946.09933449022, 15060.65011747481, -24891.461419041327, -50393.036054734715, -187500.02235174447, -187500.02235174447, 6523.781302426017, -19766.63109858407, 0.624, -0.782, 0.22, 192.0, 0.0, 0.0, 0.0, 0.0, 0.0, 0.0, 0.0, 0.0, 0.0, 1.6635907680327728E9, 0.0, 2022-09-19 17:32:48.032
50.0, -2244.986861346586, 14978.306290901459, -25266.05430436782, -50506.42645435649, -187500.02235174447, -187500.02235174447, 6455.027336481493, -20161.474664387068, 0.624, -0.782, 0.22, 192.0, 0.0, 0.0, 0.0, 0.0, 0.0, 0.0, 0.0, 0.0, 0.0, 1.6635907680377645E9, 0.0, 2022-09-19 17:32:48.037
51.0, -2256.8109341634436, 14895.47072595009, -24254.637867765174, -50938.91035782223, -187500.02235174447, -187500.02235174447, 6301.62731428472, -19345.367770834895, 0.624, -0.782, 0.22, 192.0, 0.0, 0.0, 0.0, 0.0, 0.0, 0.0, 0.0, 0.0, 0.0, 1.663590768041771E9, 0.0, 2022-09-19 17:32:48.041
52.0, -1966.6629393891026, 14947.39382831977, -23815.537847940668, -50883.29921761742, -187500.02235174447, -187500.02235174447, 6352.566939898365, -18894.510733426898, 0.624, -0.782, 0.22, 192.0, 0.0, 0.0, 0.0, 0.0, 0.0, 0.0, 0.0, 0.0, 0.0, 1.6635907680457096E9, 0.0, 2022-09-19 17:32:48.045
53.0, -1845.069449552232, 15019.008817554572, -24141.850965243695, -50610.92085968505, -187500.02235174447, -187500.02235174447, 6465.331490675389, -19124.80075654993, 0.624, -0.782, 0.22, 192.0, 0.0, 0.0, 0.0, 0.0, 0.0, 0.0, 0.0, 0.0, 0.0, 1.6635907680487623E9, 0.0, 2022-09-19 17:32:48.048
54.0, -1956.939930551044, 15030.967000838162, -24893.808352209137, -50387.649284320985, -187500.02235174447, -187500.02235174447, 6538.712267722162, -19788.759325594823, 0.624, -0.782, 0.22, 192.0, 0.0, 0.0, 0.0, 0.0, 0.0, 0.0, 0.0, 0.0, 0.0, 1.6635907680527613E9, 0.0, 2022-09-19 17:32:48.052
55.0, -2259.7166609426336, 14948.712581242631, -25255.593687962733, -50510.58387882518, -187500.02235174447, -187500.02235174447, 6460.235292939579, -20169.14131273524, 0.624, -0.782, 0.22, 192.0, 0.0, 0.0, 0.0, 0.0, 0.0, 0.0, 0.0, 0.0, 0.0, 1.663590768056788E9, 0.0, 2022-09-19 17:32:48.056
56.0, -2259.247274309072, 14870.213254715592, -24249.720483985006, -50945.3253084809, -187500.02235174447, -187500.02235174447, 6299.079215416815, -19337.209384108708, 0.624, -0.782, 0.22, 192.0, 0.0, 0.0, 0.0, 0.0, 0.0, 0.0, 0.0, 0.0, 0.0, 1.6635907680607944E9, 0.0, 2022-09-19 17:32:48.060
57.0, -1972.9661313254992, 14918.113043083316, -23826.87018237951, -50887.12136591928, -187500.02235174447, -187500.02235174447, 6348.655384618686, -18900.210428263003, 0.624, -0.782, 0.22, 192.0, 0.0, 0.0, 0.0, 0.0, 0.0, 0.0, 0.0, 0.0, 0.0, 1.6635907680647247E9, 0.0, 2022-09-19 17:32:48.064
58.0, -1845.8294088637126, 14990.487991629601, -24147.68477054653, -50613.51366204186, -187500.02235174447, -187500.02235174447, 6465.845580797861, -19136.624829366785, 0.628, -0.78, 0.218, 192.0, 19.0, 160.0, 231.0, 160.0, 6.0, 208.0, 0.0, 0.0, 0.0, 1.6635907680697916E9, 0.0, 2022-09-19 17:32:48.069
59.0, -1956.2470264729295, 15009.196401738693, -24912.047375684666, -50390.33149365563, -187500.02235174447, -187500.02235174447, 6532.230261830123, -19813.97209334041, 0.628, -0.78, 0.218, 192.0, 0.0, 0.0, 0.0, 0.0, 0.0, 0.0, 0.0, 0.0, 0.0, 1.6635907680737593E9, 0.0, 2022-09-19 17:32:48.073
60.0, -2258.8449429088764, 14927.366665287813, -25249.558716959804, -50521.04449523026, -187500.02235174447, -187500.02235174447, 6450.154656190236, -20183.3123187199, 0.628, -0.78, 0.218, 192.0, 0.0, 0.0, 0.0, 0.0, 0.0, 0.0, 0.0, 0.0, 0.0, 1.6635907680768309E9, 0.0, 2022-09-19 17:32:48.076
61.0, -2255.760402174044, 14855.438751630636, -24229.201582575035, -50951.71790739512, -187500.02235174447, -187500.02235174447, 6295.346474092779, -19319.39504377783, 0.628, -0.78, 0.218, 192.0, 0.0, 0.0, 0.0, 0.0, 0.0, 0.0, 0.0, 0.0, 0.0, 1.6635907680808468E9, 0.0, 2022-09-19 17:32:48.080
62.0, -1965.2994829773288, 14912.547458713945, -23827.741900413264, -50885.35557810731, -187500.02235174447, -187500.02235174447, 6347.984832285027, -18893.30373922631, 0.628, -0.78, 0.218, 192.0, 0.0, 0.0, 0.0, 0.0, 0.0, 0.0, 0.0, 0.0, 0.0, 1.6635907680848448E9, 0.0, 2022-09-19 17:32:48.084
63.0, -1851.2832345108075, 14979.20036067967, -24164.15800621009, -50616.531147543334, -187500.02235174447, -187500.02235174447, 6459.765906306017, -19146.92898356068, 0.628, -0.78, 0.218, 192.0, 0.0, 0.0, 0.0, 0.0, 0.0, 0.0, 0.0, 0.0, 0.0, 1.663590768088902E9, 0.0, 2022-09-19 17:32:48.088
64.0, -1962.192590498041, 14997.752308577576, -24935.9860939963, -50391.65024657849, -187500.02235174447, -187500.02235174447, 6530.486825762609, -19816.96722709742, 0.628, -0.78, 0.218, 192.0, 0.0, 0.0, 0.0, 0.0, 0.0, 0.0, 0.0, 0.0, 0.0, 1.6635907680928764E9, 0.0, 2022-09-19 17:32:48.092
65.0, -2264.7010999561667, 14914.268543037004, -25242.450862223013, -50534.4778936479, -187500.02235174447, -187500.02235174447, 6448.433571867177, -20167.688449345642, 0.628, -0.78, 0.218, 192.0, 0.0, 0.0, 0.0, 0.0, 0.0, 0.0, 0.0, 0.0, 0.0, 1.6635907680978687E9, 0.0, 2022-09-19 17:32:48.097
66.0, -2255.11220158484, 14838.384370611237, -24215.49996322393, -50964.99484360157, -187500.02235174447, -187500.02235174447, 6290.71966299053, -19319.149174588823, 0.628, -0.78, 0.218, 192.0, 0.0, 0.0, 0.0, 0.0, 0.0, 0.0, 0.0, 0.0, 0.0, 1.6635907681018722E9, 0.0, 2022-09-19 17:32:48.101
67.0, -1963.0419567873428, 14899.672853907688, -23825.640836434464, -50887.65780778621, -187500.02235174447, -187500.02235174447, 6346.4649136620665, -18905.798364376828, 0.628, -0.78, 0.218, 192.0, 0.0, 0.0, 0.0, 0.0, 0.0, 0.0, 0.0, 0.0, 0.0, 1.6635907681049159E9, 0.0, 2022-09-19 17:32:48.104
68.0, -1850.3221094992293, 14968.762096019042, -24158.92769800755, -50615.86059520967, -187500.02235174447, -187500.02235174447, 6461.934025518182, -19173.147579806755, 0.628, -0.78, 0.218, 192.0, 0.0, 0.0, 0.0, 0.0, 0.0, 0.0, 0.0, 0.0, 0.0, 1.6635907681089349E9, 0.0, 2022-09-19 17:32:48.108
69.0, -1966.5288289223706, 14978.999194979573, -24930.062881715643, -50390.91263901146, -187500.02235174447, -187500.02235174447, 6535.761837454062, -19841.97882914291, 0.638, -0.782, 0.218, 192.0, 19.0, 240.0, 231.0, 144.0, 6.0, 208.0, 0.0, 0.0, 0.0, 1.663590768112899E9, 0.0, 2022-09-19 17:32:48.112
70.0, -2264.634044722801, 14890.016900302995, -25222.669568380068, -50536.064867504225, -187500.02235174447, -187500.02235174447, 6450.579339334887, -20147.013085724484, 0.638, -0.782, 0.218, 192.0, 0.0, 0.0, 0.0, 0.0, 0.0, 0.0, 0.0, 0.0, 0.0, 1.6635907681169224E9, 0.0, 2022-09-19 17:32:48.116
71.0, -2245.63506193579, 14814.6468179997, -24185.32510820927, -50960.36803249932, -187500.02235174447, -187500.02235174447, 6298.967456694539, -19289.846037607913, 0.638, -0.782, 0.218, 192.0, 0.0, 0.0, 0.0, 0.0, 0.0, 0.0, 0.0, 0.0, 0.0, 1.6635907681209252E9, 0.0, 2022-09-19 17:32:48.120
72.0, -1958.8174770852897, 14873.767182083988, -23825.596132945557, -50876.86191521429, -187500.02235174447, -187500.02235174447, 6357.26080623398, -18906.93830334405, 0.638, -0.782, 0.218, 192.0, 0.0, 0.0, 0.0, 0.0, 0.0, 0.0, 0.0, 0.0, 0.0, 1.6635907681259E9, 0.0, 2022-09-19 17:32:48.125
73.0, -1850.6126821771481, 14945.181005618693, -24171.17645396906, -50604.930592171026, -187500.02235174447, -187500.02235174447, 6470.740612833573, -19149.87941382878, 0.638, -0.782, 0.218, 192.0, 0.0, 0.0, 0.0, 0.0, 0.0, 0.0, 0.0, 0.0, 0.0, 1.663590768129936E9, 0.0, 2022-09-19 17:32:48.129
74.0, -1974.7542708819237, 14962.213034893637, -24955.812091328156, -50383.380101130024, -187500.02235174447, -187500.02235174447, 6537.0582386324695, -19829.506555736847, 0.638, -0.782, 0.218, 192.0, 0.0, 0.0, 0.0, 0.0, 0.0, 0.0, 0.0, 0.0, 0.0, 1.6635907681329455E9, 0.0, 2022-09-19 17:32:48.132
75.0, -2271.920713415231, 14879.869208320286, -25220.27793172335, -50544.044440274774, -187500.02235174447, -187500.02235174447, 6444.030278209481, -20140.41932111017, 0.638, -0.782, 0.218, 192.0, 0.0, 0.0, 0.0, 0.0, 0.0, 0.0, 0.0, 0.0, 0.0, 1.6635907681369448E9, 0.0, 2022-09-19 17:32:48.136
76.0, -2250.0607073379406, 14807.40485279618, -24175.289174948834, -50969.48754423708, -187500.02235174447, -187500.02235174447, 6294.385349081201, -19284.123991027354, 0.638, -0.782, 0.218, 192.0, 0.0, 0.0, 0.0, 0.0, 0.0, 0.0, 0.0, 0.0, 0.0, 1.6635907681409817E9, 0.0, 2022-09-19 17:32:48.140
77.0, -1961.7455556089349, 14867.888673292242, -23823.450365477845, -50871.430441311655, -187500.02235174447, -187500.02235174447, 6360.21123650208, -18891.046213036327, 0.638, -0.782, 0.218, 192.0, 0.0, 0.0, 0.0, 0.0, 0.0, 0.0, 0.0, 0.0, 0.0, 1.6635907681449106E9, 0.0, 2022-09-19 17:32:48.144
78.0, -1859.911007870556, 14938.564889259922, -24177.367887183176, -50595.65461822208, -187500.02235174447, -187500.02235174447, 6468.058403498937, -19163.737495391073, 0.638, -0.782, 0.218, 192.0, 0.0, 0.0, 0.0, 0.0, 0.0, 0.0, 0.0, 0.0, 0.0, 1.6635907681489313E9, 0.0, 2022-09-19 17:32:48.148
79.0, -1993.909715880122, 14950.76894173252, -24969.916042079454, -50379.267380150246, -187500.02235174447, -187500.02235174447, 6529.14572109529, -19859.256727606862, 0.632, -0.778, 0.21, 192.0, 19.0, 192.0, 231.0, 176.0, 6.0, 144.0, 0.0, 0.0, 0.0, 1.663590768153926E9, 0.0, 2022-09-19 17:32:48.153
80.0, -2288.081024656418, 14862.457199389602, -25209.884370551634, -50551.1299432671, -187500.02235174447, -187500.02235174447, 6439.5599293184205, -20150.83523402634, 0.632, -0.778, 0.21, 192.0, 0.0, 0.0, 0.0, 0.0, 0.0, 0.0, 0.0, 0.0, 0.0, 1.6635907681580155E9, 0.0, 2022-09-19 17:32:48.158
81.0, -2251.513570727536, 14789.277588042927, -24157.11720670667, -50973.26498905003, -187500.02235174447, -187500.02235174447, 6294.854735714762, -19274.400982189298, 0.632, -0.778, 0.21, 192.0, 0.0, 0.0, 0.0, 0.0, 0.0, 0.0, 0.0, 0.0, 0.0, 1.6635907681609666E9, 0.0, 2022-09-19 17:32:48.160
82.0, -1951.8884363041445, 14853.538853351934, -23822.57864744409, -50871.139868633734, -187500.02235174447, -187500.02235174447, 6366.223855760558, -18908.257056266913, 0.632, -0.778, 0.21, 192.0, 0.0, 0.0, 0.0, 0.0, 0.0, 0.0, 0.0, 0.0, 0.0, 1.663590768165014E9, 0.0, 2022-09-19 17:32:48.165
83.0, -1848.0198798203326, 14926.33848504287, -24192.25414899041, -50599.610876990664, -187500.02235174447, -187500.02235174447, 6472.484048901088, -19189.95609163715, 0.632, -0.778, 0.21, 192.0, 0.0, 0.0, 0.0, 0.0, 0.0, 0.0, 0.0, 0.0, 0.0, 1.6635907681689754E9, 0.0, 2022-09-19 17:32:48.168
84.0, -1979.8951721066444, 14940.397732305257, -24987.976251599343, -50383.961246485866, -187500.02235174447, -187500.02235174447, 6539.472227033642, -19892.359661145172, 0.632, -0.778, 0.21, 192.0, 0.0, 0.0, 0.0, 0.0, 0.0, 0.0, 0.0, 0.0, 0.0, 1.663590768173E9, 0.0, 2022-09-19 17:32:48.173
85.0, -2283.700082743178, 14848.688524805133, -25200.27312043585, -50565.39035622959, -187500.02235174447, -187500.02235174447, 6445.818417765906, -20155.97613525106, 0.632, -0.778, 0.21, 192.0, 0.0, 0.0, 0.0, 0.0, 0.0, 0.0, 0.0, 0.0, 0.0, 1.6635907681770017E9, 0.0, 2022-09-19 17:32:48.177
86.0, -2248.563140459435, 14775.151285547172, -24150.456386858987, -50978.450593763664, -187500.02235174447, -187500.02235174447, 6298.453366572066, -19280.1006770254, 0.632, -0.778, 0.21, 192.0, 0.0, 0.0, 0.0, 0.0, 0.0, 0.0, 0.0, 0.0, 0.0, 1.6635907681819513E9, 0.0, 2022-09-19 17:32:48.181
87.0, -1954.4812386609601, 14836.618582799267, -23835.76617667272, -50870.13404013325, -187500.02235174447, -187500.02235174447, 6366.201504016102, -18931.346408289242, 0.632, -0.778, 0.21, 192.0, 0.0, 0.0, 0.0, 0.0, 0.0, 0.0, 0.0, 0.0, 0.0, 1.6635907681860712E9, 0.0, 2022-09-19 17:32:48.186
88.0, -1840.912025083545, 14907.071281322394, -24188.722573366475, -50598.33682755671, -187500.02235174447, -187500.02235174447, 6479.681310615696, -19199.053251630456, 0.632, -0.778, 0.21, 192.0, 0.0, 0.0, 0.0, 0.0, 0.0, 0.0, 0.0, 0.0, 0.0, 1.6635907681889927E9, 0.0, 2022-09-19 17:32:48.188
89.0, -1967.7805266118678, 14918.202450061137, -24990.457295233882, -50381.65901680697, -187500.02235174447, -187500.02235174447, 6545.328384080933, -19891.532646600324, 0.624, -0.774, 0.214, 192.0, 19.0, 128.0, 231.0, 208.0, 6.0, 176.0, 0.0, 0.0, 0.0, 1.663590768193004E9, 0.0, 2022-09-19 17:32:48.193
90.0, -2264.0305476225076, 14826.716760005565, -25186.7950185293, -50566.15031554107, -187500.02235174447, -187500.02235174447, 6444.522016587498, -20141.134576932738, 0.624, -0.774, 0.214, 192.0, 0.0, 0.0, 0.0, 0.0, 0.0, 0.0, 0.0, 0.0, 0.0, 1.6635907681970181E9, 0.0, 2022-09-19 17:32:48.197
91.0, -2219.4388174341702, 14761.24850049597, -24130.272761615845, -50975.54486698448, -187500.02235174447, -187500.02235174447, 6300.4873753175, -19261.1463977273, 0.624, -0.774, 0.214, 192.0, 0.0, 0.0, 0.0, 0.0, 0.0, 0.0, 0.0, 0.0, 0.0, 1.6635907682012208E9, 0.0, 2022-09-19 17:32:48.201
92.0, -1936.4657326299828, 14823.252239614993, -23833.262781293724, -50861.46156328459, -187500.02235174447, -187500.02235174447, 6368.660195906186, -18924.193850063544, 0.624, -0.774, 0.214, 192.0, 0.0, 0.0, 0.0, 0.0, 0.0, 0.0, 0.0, 0.0, 0.0, 1.6635907682050948E9, 0.0, 2022-09-19 17:32:48.205
93.0, -1839.5709204162265, 14898.287045751458, -24204.23468401846, -50587.96561812945, -187500.02235174447, -187500.02235174447, 6475.456830913643, -19199.209713841643, 0.624, -0.774, 0.214, 192.0, 0.0, 0.0, 0.0, 0.0, 0.0, 0.0, 0.0, 0.0, 0.0, 1.663590768209015E9, 0.0, 2022-09-19 17:32:48.209
94.0, -1979.0905093062534, 14912.167479058204, -25014.99951064581, -50376.473412093335, -187500.02235174447, -187500.02235174447, 6541.707401479173, -19908.050585752797, 0.624, -0.774, 0.214, 192.0, 0.0, 0.0, 0.0, 0.0, 0.0, 0.0, 0.0, 0.0, 0.0, 1.663590768214079E9, 0.0, 2022-09-19 17:32:48.214
95.0, -2276.7039867286667, 14821.911134947675, -25182.570538827247, -50575.850972634675, -187500.02235174447, -187500.02235174447, 6441.6162898083085, -20137.245373397516, 0.624, -0.774, 0.214, 192.0, 0.0, 0.0, 0.0, 0.0, 0.0, 0.0, 0.0, 0.0, 0.0, 1.6635907682170727E9, 0.0, 2022-09-19 17:32:48.217
96.0, -2214.5661371429132, 14759.214491750537, -24118.851020199185, -50980.059919364445, -187500.02235174447, -187500.02235174447, 6300.979113695516, -19245.500176608584, 0.624, -0.774, 0.214, 192.0, 0.0, 0.0, 0.0, 0.0, 0.0, 0.0, 0.0, 0.0, 0.0, 1.663590768221017E9, 0.0, 2022-09-19 17:32:48.221
97.0, -1927.4803313589493, 14825.845041971808, -23848.886650667984, -50855.53835100393, -187500.02235174447, -187500.02235174447, 6372.392937230223, -18916.482498226465, 0.624, -0.774, 0.214, 192.0, 0.0, 0.0, 0.0, 0.0, 0.0, 0.0, 0.0, 0.0, 0.0, 1.6635907682250726E9, 0.0, 2022-09-19 17:32:48.225
98.0, -1837.6710221375254, 14890.307472980914, -24225.31237903981, -50589.686702452505, -187500.02235174447, -187500.02235174447, 6480.2401042270785, -19213.1348506373, 0.624, -0.774, 0.214, 192.0, 0.0, 0.0, 0.0, 0.0, 0.0, 0.0, 0.0, 0.0, 0.0, 1.6635907682290316E9, 0.0, 2022-09-19 17:32:48.229
99.0, -1979.0011023284321, 14900.075185307884, -25022.88967643853, -50381.48020285132, -187500.02235174447, -187500.02235174447, 6552.547997539998, -19929.016522051876, 0.624, -0.774, 0.218, 192.0, 19.0, 128.0, 231.0, 208.0, 6.0, 208.0, 0.0, 0.0, 0.0, 1.6635907682330935E9, 0.0, 2022-09-19 17:32:48.233
100.0, -2278.1344983738063, 14805.996692895496, -25167.527814808825, -50588.45735650747, -187500.02235174447, -187500.02235174447, 6444.633775309775, -20154.210347439093, 0.624, -0.774, 0.218, 192.0, 0.0, 0.0, 0.0, 0.0, 0.0, 0.0, 0.0, 0.0, 0.0, 1.6635907682371905E9, 0.0, 2022-09-19 17:32:48.237
101.0, -2215.728427854589, 14739.902584541152, -24102.24367406889, -50986.3854630453, -187500.02235174447, -187500.02235174447, 6305.941200964595, -19254.731447068625, 0.624, -0.774, 0.218, 192.0, 0.0, 0.0, 0.0, 0.0, 0.0, 0.0, 0.0, 0.0, 0.0, 1.6635907682411556E9, 0.0, 2022-09-19 17:32:48.241
102.0, -1935.9963459964213, 14801.481640515523, -23843.34341804307, -50851.91736840217, -187500.02235174447, -187500.02235174447, 6385.580466458853, -18936.08497811377, 0.624, -0.774, 0.218, 192.0, 0.0, 0.0, 0.0, 0.0, 0.0, 0.0, 0.0, 0.0, 0.0, 1.6635907682441583E9, 0.0, 2022-09-19 17:32:48.244
103.0, -1841.0237838058215, 14872.694298350132, -24227.972236629994, -50583.09293783819, -187500.02235174447, -187500.02235174447, 6492.488860188587, -19233.3408276249, 0.624, -0.774, 0.218, 192.0, 0.0, 0.0, 0.0, 0.0, 0.0, 0.0, 0.0, 0.0, 0.0, 1.6635907682491188E9, 0.0, 2022-09-19 17:32:48.249
104.0, -1980.878648862678, 14885.166571756194, -25046.38135986106, -50382.329569140624, -187500.02235174447, -187500.02235174447, 6552.436238817721, -19955.99507760943, 0.624, -0.774, 0.218, 192.0, 0.0, 0.0, 0.0, 0.0, 0.0, 0.0, 0.0, 0.0, 0.0, 1.6635907682531266E9, 0.0, 2022-09-19 17:32:48.253
105.0, -2277.9780361626194, 14790.26106479896, -25166.767855497346, -50603.254211336876, -187500.02235174447, -187500.02235174447, 6437.32475487289, -20146.051960712906, 0.624, -0.774, 0.218, 192.0, 0.0, 0.0, 0.0, 0.0, 0.0, 0.0, 0.0, 0.0, 0.0, 1.6635907682570953E9, 0.0, 2022-09-19 17:32:48.257
106.0, -2205.670142849701, 14730.045465236362, -24095.00170886537, -50996.0861201389, -187500.02235174447, -187500.02235174447, 6299.81682298384, -19240.67219980624, 0.624, -0.774, 0.218, 192.0, 0.0, 0.0, 0.0, 0.0, 0.0, 0.0, 0.0, 0.0, 0.0, 1.6635907682611637E9, 0.0, 2022-09-19 17:32:48.261
107.0, -1915.4103893530835, 14799.425280025636, -23844.796281432664, -50855.22542658156, -187500.02235174447, -187500.02235174447, 6384.284065280445, -18950.792425965363, 0.624, -0.774, 0.218, 192.0, 0.0, 0.0, 0.0, 0.0, 0.0, 0.0, 0.0, 0.0, 0.0, 1.6635907682651546E9, 0.0, 2022-09-19 17:32:48.265
108.0, -1828.0150685328329, 14865.809961057897, -24239.237515835466, -50588.97144662994, -187500.02235174447, -187500.02235174447, 6489.963113065138, -19255.37964765783, 0.624, -0.774, 0.218, 192.0, 0.0, 0.0, 0.0, 0.0, 0.0, 0.0, 0.0, 0.0, 0.0, 1.6635907682691436E9, 0.0, 2022-09-19 17:32:48.269
109.0, -1985.0807768202756, 14868.022783758974, -25070.43183689497, -50394.10893846857, -187500.02235174447, -187500.02235174447, 6544.0990381358915, -19988.740383236454, 0.62, -0.778, 0.222, 192.0, 19.0, 96.0, 231.0, 176.0, 6.0, 240.0, 0.0, 0.0, 0.0, 1.6635907682721756E9, 0.0, 2022-09-19 17:32:48.272
110.0, -2278.112146629351, 14775.821837880832, -25158.11773039314, -50621.0461999233, -187500.02235174447, -187500.02235174447, 6434.0390484379595, -20152.913946260687, 0.62, -0.778, 0.222, 192.0, 0.0, 0.0, 0.0, 0.0, 0.0, 0.0, 0.0, 0.0, 0.0, 1.6635907682761457E9, 0.0, 2022-09-19 17:32:48.276
111.0, -2200.6186486028014, 14721.082415709785, -24076.896795856574, -51007.73137900011, -187500.02235174447, -187500.02235174447, 6305.762387008952, -19248.025923732035, 0.62, -0.778, 0.222, 192.0, 0.0, 0.0, 0.0, 0.0, 0.0, 0.0, 0.0, 0.0, 0.0, 1.6635907682812023E9, 0.0, 2022-09-19 17:32:48.281
112.0, -1922.5182440898711, 14786.30480603037, -23856.329781571603, -50863.78614470794, -187500.02235174447, -187500.02235174447, 6383.83703039134, -18973.501798331952, 0.62, -0.778, 0.222, 192.0, 0.0, 0.0, 0.0, 0.0, 0.0, 0.0, 0.0, 0.0, 0.0, 1.6635907682851696E9, 0.0, 2022-09-19 17:32:48.285
113.0, -1843.4824756959054, 14851.750713795509, -24248.759358973428, -50596.16870834455, -187500.02235174447, -187500.02235174447, 6491.080700287903, -19273.730429855637, 0.62, -0.778, 0.222, 192.0, 0.0, 0.0, 0.0, 0.0, 0.0, 0.0, 0.0, 0.0, 0.0, 1.6635907682891965E9, 0.0, 2022-09-19 17:32:48.289
114.0, -1995.876669392189, 14857.785684798442, -25074.142226474552, -50397.729921070335, -187500.02235174447, -187500.02235174447, 6550.469285305654, -20007.784069512378, 0.62, -0.778, 0.222, 192.0, 0.0, 0.0, 0.0, 0.0, 0.0, 0.0, 0.0, 0.0, 0.0, 1.6635907682932067E9, 0.0, 2022-09-19 17:32:48.293
115.0, -2287.633989767312, 14758.521587672423, -25143.20911684145, -50630.5009878279, -187500.02235174447, -187500.02235174447, 6431.803873992429, -20151.595193337824, 0.62, -0.778, 0.222, 192.0, 0.0, 0.0, 0.0, 0.0, 0.0, 0.0, 0.0, 0.0, 0.0, 1.663590768297202E9, 0.0, 2022-09-19 17:32:48.297
116.0, -2206.899488794743, 14698.14952589864, -24079.84722612467, -51011.01708543504, -187500.02235174447, -187500.02235174447, 6290.5855525237985, -19242.460339362664, 0.62, -0.778, 0.222, 192.0, 0.0, 0.0, 0.0, 0.0, 0.0, 0.0, 0.0, 0.0, 0.0, 1.6635907683002079E9, 0.0, 2022-09-19 17:32:48.300
117.0, -1927.9050145036001, 14765.651794153668, -23864.644630508978, -50856.186551593135, -187500.02235174447, -187500.02235174447, 6376.148030298714, -18973.166522165124, 0.62, -0.778, 0.222, 192.0, 0.0, 0.0, 0.0, 0.0, 0.0, 0.0, 0.0, 0.0, 0.0, 1.6635907683042135E9, 0.0, 2022-09-19 17:32:48.304
118.0, -1853.3395950006957, 14827.946105950608, -24269.65824003914, -50593.10651935417, -187500.02235174447, -187500.02235174447, 6479.703662360152, -19297.535037700538, 0.62, -0.778, 0.222, 192.0, 0.0, 0.0, 0.0, 0.0, 0.0, 0.0, 0.0, 0.0, 0.0, 1.6635907683092153E9, 0.0, 2022-09-19 17:32:48.309
119.0, -2011.0088003884318, 14833.914021720175, -25103.31125298873, -50396.85820303657, -187500.02235174447, -187500.02235174447, 6535.560671753964, -20026.693645321568, 0.618, -0.78, 0.216, 192.0, 19.0, 80.0, 231.0, 160.0, 6.0, 192.0, 0.0, 0.0, 0.0, 1.6635907683131504E9, 0.0, 2022-09-19 17:32:48.313
120.0, -2298.02755093903, 14738.24855545146, -25143.633799986103, -50639.3522786322, -187500.02235174447, -187500.02235174447, 6413.542498772443, -20144.26382115648, 0.618, -0.78, 0.216, 192.0, 0.0, 0.0, 0.0, 0.0, 0.0, 0.0, 0.0, 0.0, 0.0, 1.663590768317326E9, 0.0, 2022-09-19 17:32:48.317
121.0, -2202.1162154813073, 14688.024185660386, -24066.391475962577, -51010.23477437911, -187500.02235174447, -187500.02235174447, 6287.277494344413, -19227.32820836642, 0.618, -0.78, 0.216, 192.0, 0.0, 0.0, 0.0, 0.0, 0.0, 0.0, 0.0, 0.0, 0.0, 1.6635907683212457E9, 0.0, 2022-09-19 17:32:48.321
122.0, -1923.2782034013514, 14762.67901214111, -23868.95851718885, -50853.593749236315, -187500.02235174447, -187500.02235174447, 6379.254922778002, -18979.693231546073, 0.618, -0.78, 0.216, 192.0, 0.0, 0.0, 0.0, 0.0, 0.0, 0.0, 0.0, 0.0, 0.0, 1.6635907683252428E9, 0.0, 2022-09-19 17:32:48.325
123.0, -1852.3784699891175, 14832.46115833058, -24275.827321508805, -50592.34656004269, -187500.02235174447, -187500.02235174447, 6484.397528695766, -19307.52626747206, 0.618, -0.78, 0.216, 192.0, 0.0, 0.0, 0.0, 0.0, 0.0, 0.0, 0.0, 0.0, 0.0, 1.6635907683282695E9, 0.0, 2022-09-19 17:32:48.328
124.0, -2013.2216230895071, 14839.323143878359, -25110.150886792053, -50400.792110060705, -187500.02235174447, -187500.02235174447, 6536.745314210095, -20047.525471153913, 0.618, -0.78, 0.216, 192.0, 0.0, 0.0, 0.0, 0.0, 0.0, 0.0, 0.0, 0.0, 0.0, 1.663590768332307E9, 0.0, 2022-09-19 17:32:48.332
125.0, -2295.7476730045883, 14741.333096186292, -25129.01575911233, -50655.08790672874, -187500.02235174447, -187500.02235174447, 6410.010923148504, -20140.240507154525, 0.618, -0.78, 0.216, 192.0, 0.0, 0.0, 0.0, 0.0, 0.0, 0.0, 0.0, 0.0, 0.0, 1.6635907683372653E9, 0.0, 2022-09-19 17:32:48.337
126.0, -2188.727520552578, 14690.57228452829, -24042.922144284505, -51018.52727157203, -187500.02235174447, -187500.02235174447, 6297.849869471774, -19214.99004542709, 0.618, -0.78, 0.216, 192.0, 0.0, 0.0, 0.0, 0.0, 0.0, 0.0, 0.0, 0.0, 0.0, 1.6635907683413002E9, 0.0, 2022-09-19 17:32:48.341
127.0, -1910.9400404620221, 14756.800503349365, -23868.466778810835, -50851.13505734623, -187500.02235174447, -187500.02235174447, 6391.54838222842, -18983.47067635902, 0.618, -0.78, 0.216, 192.0, 0.0, 0.0, 0.0, 0.0, 0.0, 0.0, 0.0, 0.0, 0.0, 1.6635907683452876E9, 0.0, 2022-09-19 17:32:48.345
128.0, -1847.2375687643969, 14816.367902322758, -24284.633908824195, -50587.026844862325, -187500.02235174447, -187500.02235174447, 6495.729863134607, -19316.35520653191, 0.618, -0.78, 0.216, 192.0, 0.0, 0.0, 0.0, 0.0, 0.0, 0.0, 0.0, 0.0, 0.0, 1.6635907683492377E9, 0.0, 2022-09-19 17:32:48.349
129.0, -2014.9203556681105, 14819.005408168485, -25120.8797241306, -50395.137118713516, -187500.02235174447, -187500.02235174447, 6549.82108471645, -20065.853901607265, 0.62, -0.778, 0.214, 192.0, 19.0, 96.0, 231.0, 176.0, 6.0, 176.0, 0.0, 0.0, 0.0, 1.6635907683523061E9, 0.0, 2022-09-19 17:32:48.352
130.0, -2288.349245589882, 14724.189308189072, -25100.53963667627, -50654.79733405082, -187500.02235174447, -187500.02235174447, 6425.791254733951, -20126.538887803425, 0.62, -0.778, 0.214, 192.0, 0.0, 0.0, 0.0, 0.0, 0.0, 0.0, 0.0, 0.0, 0.0, 1.66359076835629E9, 0.0, 2022-09-19 17:32:48.356
131.0, -2172.991892456042, 14671.707412208012, -24031.031016234283, -51015.308620370466, -187500.02235174447, -187500.02235174447, 6301.381445095712, -19197.645091729773, 0.62, -0.778, 0.214, 192.0, 0.0, 0.0, 0.0, 0.0, 0.0, 0.0, 0.0, 0.0, 0.0, 1.66359076836032E9, 0.0, 2022-09-19 17:32:48.360
132.0, -1892.164575119564, 14739.29908744086, -23876.491055070288, -50843.960147376085, -187500.02235174447, -187500.02235174447, 6390.833126405851, -18978.329775134298, 0.62, -0.778, 0.214, 192.0, 0.0, 0.0, 0.0, 0.0, 0.0, 0.0, 0.0, 0.0, 0.0, 1.663590768365318E9, 0.0, 2022-09-19 17:32:48.365
133.0, -1829.1997109889642, 14804.588532994812, -24289.640699582185, -50579.136679069605, -187500.02235174447, -187500.02235174447, 6500.423729470222, -19313.985921619646, 0.62, -0.778, 0.214, 192.0, 0.0, 0.0, 0.0, 0.0, 0.0, 0.0, 0.0, 0.0, 0.0, 1.6635907683693104E9, 0.0, 2022-09-19 17:32:48.369
134.0, -2004.0797596072866, 14804.879105672731, -25127.54054397828, -50390.644418078, -187500.02235174447, -187500.02235174447, 6556.303090608489, -20055.817968346833, 0.62, -0.778, 0.214, 192.0, 0.0, 0.0, 0.0, 0.0, 0.0, 0.0, 0.0, 0.0, 0.0, 1.663590768373357E9, 0.0, 2022-09-19 17:32:48.373
135.0, -2290.2938473574936, 14699.736499754967, -25092.11302901662, -50657.926578274564, -187500.02235174447, -187500.02235174447, 6424.338391344356, -20108.277512583438, 0.62, -0.778, 0.214, 192.0, 0.0, 0.0, 0.0, 0.0, 0.0, 0.0, 0.0, 0.0, 0.0, 1.6635907683773327E9, 0.0, 2022-09-19 17:32:48.377
136.0, -2184.078357705874, 14645.824092128765, -24034.294370924756, -51010.10066391238, -187500.02235174447, -187500.02235174447, 6298.7439392499855, -19196.549856251462, 0.62, -0.778, 0.214, 192.0, 0.0, 0.0, 0.0, 0.0, 0.0, 0.0, 0.0, 0.0, 0.0, 1.6635907683803318E9, 0.0, 2022-09-19 17:32:48.380
137.0, -1902.2228601244522, 14724.189308189072, -23888.851569754075, -50821.89897559869, -187500.02235174447, -187500.02235174447, 6396.2422485640345, -18978.553292578854, 0.62, -0.778, 0.214, 192.0, 0.0, 0.0, 0.0, 0.0, 0.0, 0.0, 0.0, 0.0, 0.0, 1.6635907683843665E9, 0.0, 2022-09-19 17:32:48.384
138.0, -1834.3853157025953, 14790.126954332229, -24315.076984772324, -50551.867550834126, -187500.02235174447, -187500.02235174447, 6502.815366126939, -19311.057843096, 0.62, -0.778, 0.214, 192.0, 0.0, 0.0, 0.0, 0.0, 0.0, 0.0, 0.0, 0.0, 0.0, 1.6635907683883958E9, 0.0, 2022-09-19 17:32:48.388
139.0, -2014.2050998455406, 14785.746012418987, -25150.11580587814, -50369.85729573456, -187500.02235174447, -187500.02235174447, 6555.274910363545, -20057.986087558995, 0.618, -0.776, 0.216, 192.0, 19.0, 80.0, 231.0, 192.0, 6.0, 192.0, 0.0, 0.0, 0.0, 1.6635907683933613E9, 0.0, 2022-09-19 17:32:48.393
140.0, -2299.2568968840715, 14680.692813479045, -25078.232595709873, -50654.46205788399, -187500.02235174447, -187500.02235174447, 6421.70088549863, -20100.901436913187, 0.618, -0.776, 0.216, 192.0, 0.0, 0.0, 0.0, 0.0, 0.0, 0.0, 0.0, 0.0, 0.0, 1.6635907683973985E9, 0.0, 2022-09-19 17:32:48.397
141.0, -2171.963712211098, 14634.268240245372, -24011.65205379153, -51008.91602145625, -187500.02235174447, -187500.02235174447, 6304.935372464106, -19187.83267591389, 0.618, -0.776, 0.216, 192.0, 0.0, 0.0, 0.0, 0.0, 0.0, 0.0, 0.0, 0.0, 0.0, 1.6635907684013896E9, 0.0, 2022-09-19 17:32:48.401
142.0, -1889.8176419517567, 14714.063967950819, -23885.051773196672, -50825.65406866719, -187500.02235174447, -187500.02235174447, 6401.807832933407, -18984.700022304063, 0.618, -0.776, 0.216, 192.0, 0.0, 0.0, 0.0, 0.0, 0.0, 0.0, 0.0, 0.0, 0.0, 1.663590768405325E9, 0.0, 2022-09-19 17:32:48.405
143.0, -1828.9538417999556, 14780.716869916543, -24314.741708605496, -50565.61387367414, -187500.02235174447, -187500.02235174447, 6506.90573536226, -19324.625351980372, 0.618, -0.776, 0.216, 192.0, 0.0, 0.0, 0.0, 0.0, 0.0, 0.0, 0.0, 0.0, 0.0, 1.6635907684083488E9, 0.0, 2022-09-19 17:32:48.408
144.0, -2015.322687068306, 14777.16294254815, -25159.8388147162, -50388.3421883991, -187500.02235174447, -187500.02235174447, 6553.86675046286, -20073.36408774425, 0.618, -0.776, 0.216, 192.0, 0.0, 0.0, 0.0, 0.0, 0.0, 0.0, 0.0, 0.0, 0.0, 1.6635907684124277E9, 0.0, 2022-09-19 17:32:48.412
145.0, -2291.7690624915435, 14674.6131389872, -25064.285107169762, -50672.49991565942, -187500.02235174447, -187500.02235174447, 6421.343257587345, -20079.332003513813, 0.618, -0.776, 0.216, 192.0, 0.0, 0.0, 0.0, 0.0, 0.0, 0.0, 0.0, 0.0, 0.0, 1.6635907684164157E9, 0.0, 2022-09-19 17:32:48.416
146.0, -2151.891845690232, 14634.648219901112, -24000.5655885417, -51008.89366971179, -187500.02235174447, -187500.02235174447, 6308.9586864660605, -19160.69765814515, 0.618, -0.776, 0.216, 192.0, 0.0, 0.0, 0.0, 0.0, 0.0, 0.0, 0.0, 0.0, 0.0, 1.6635907684204082E9, 0.0, 2022-09-19 17:32:48.420
147.0, -1870.818659164746, 14716.589715074268, -23882.883653984507, -50818.12153078575, -187500.02235174447, -187500.02235174447, 6406.412292291199, -18973.792371009873, 0.618, -0.776, 0.216, 192.0, 0.0, 0.0, 0.0, 0.0, 0.0, 0.0, 0.0, 0.0, 0.0, 1.6635907684254136E9, 0.0, 2022-09-19 17:32:48.425
148.0, -1806.0656554777213, 14781.566236205845, -24319.72614761903, -50557.2319695034, -187500.02235174447, -187500.02235174447, 6509.81146214145, -19321.45140426772, 0.618, -0.776, 0.216, 192.0, 0.0, 0.0, 0.0, 0.0, 0.0, 0.0, 0.0, 0.0, 0.0, 1.6635907684294136E9, 0.0, 2022-09-19 17:32:48.429
149.0, -1996.1001868367418, 14771.10561980076, -25167.483111319914, -50385.9952552313, -187500.02235174447, -187500.02235174447, 6553.509122551575, -20064.423389962125, 0.622, -0.78, 0.214, 192.0, 19.0, 112.0, 231.0, 160.0, 6.0, 176.0, 0.0, 0.0, 0.0, 1.6635907684334383E9, 0.0, 2022-09-19 17:32:48.433
150.0, -2268.2997308134713, 14668.801685428822, -25037.440662078938, -50682.13351751966, -187500.02235174447, -187500.02235174447, 6421.0079814205155, -20050.58766014429, 0.622, -0.78, 0.214, 192.0, 0.0, 0.0, 0.0, 0.0, 0.0, 0.0, 0.0, 0.0, 0.0, 1.6635907684374487E9, 0.0, 2022-09-19 17:32:48.437
151.0, -2136.312679804883, 14625.282838974339, -23993.837713460653, -51015.39802734829, -187500.02235174447, -187500.02235174447, 6305.918849220139, -19138.1670997342, 0.622, -0.78, 0.214, 192.0, 0.0, 0.0, 0.0, 0.0, 0.0, 0.0, 0.0, 0.0, 0.0, 1.6635907684404676E9, 0.0, 2022-09-19 17:32:48.440
152.0, -1867.5776562187264, 14701.390528844659, -23891.86905525554, -50815.86400459576, -187500.02235174447, -187500.02235174447, 6408.267487080991, -18964.918728461114, 0.622, -0.78, 0.214, 192.0, 0.0, 0.0, 0.0, 0.0, 0.0, 0.0, 0.0, 0.0, 0.0, 1.6635907684444778E9, 0.0, 2022-09-19 17:32:48.444
153.0, -1822.2036149744529, 14759.907395828654, -24336.53465944942, -50551.08523977819, -187500.02235174447, -187500.02235174447, 6510.280848775012, -19328.335741559953, 0.622, -0.78, 0.214, 192.0, 0.0, 0.0, 0.0, 0.0, 0.0, 0.0, 0.0, 0.0, 0.0, 1.6635907684484718E9, 0.0, 2022-09-19 17:32:48.448
154.0, -2022.7658179719233, 14749.53618640139, -25184.492788850403, -50378.909752238964, -187500.02235174447, -187500.02235174447, 6551.139837639313, -20084.741125672, 0.622, -0.78, 0.214, 192.0, 0.0, 0.0, 0.0, 0.0, 0.0, 0.0, 0.0, 0.0, 0.0, 1.6635907684534554E9, 0.0, 2022-09-19 17:32:48.453
155.0, -2297.178184649728, 14650.450903231014, -25031.495098053827, -50679.13838376265, -187500.02235174447, -187500.02235174447, 6412.111987127303, -20025.44194763207, 0.622, -0.78, 0.214, 192.0, 0.0, 0.0, 0.0, 0.0, 0.0, 0.0, 0.0, 0.0, 0.0, 1.6635907684574337E9, 0.0, 2022-09-19 17:32:48.457
156.0, -2153.2329503575506, 14614.397539424604, -23978.70558246441, -50998.745977729086, -187500.02235174447, -187500.02235174447, 6310.210384155558, -19112.64140756624, 0.622, -0.78, 0.214, 192.0, 0.0, 0.0, 0.0, 0.0, 0.0, 0.0, 0.0, 0.0, 0.0, 1.6635907684604645E9, 0.0, 2022-09-19 17:32:48.460
157.0, -1891.4716710414496, 14682.659766991112, -23907.559979863167, -50800.128376499226, -187500.02235174447, -187500.02235174447, 6405.629981235264, -18970.059629685835, 0.622, -0.78, 0.214, 192.0, 0.0, 0.0, 0.0, 0.0, 0.0, 0.0, 0.0, 0.0, 0.0, 1.663590768464534E9, 0.0, 2022-09-19 17:32:48.464
158.0, -1841.6049291616596, 14740.193157219072, -24360.853357416792, -50549.61002464414, -187500.02235174447, -187500.02235174447, 6504.603505683363, -19347.424131324784, 0.622, -0.78, 0.214, 192.0, 0.0, 0.0, 0.0, 0.0, 0.0, 0.0, 0.0, 0.0, 0.0, 1.6635907684684942E9, 0.0, 2022-09-19 17:32:48.468
159.0, -2035.5957192892695, 14729.91135476963, -25194.595777344202, -50385.30235115318, -187500.02235174447, -187500.02235174447, 6552.056259161981, -20102.421355536146, 0.628, -0.772, 0.226, 192.0, 19.0, 160.0, 231.0, 224.0, 7.0, 16.0, 0.0, 0.0, 0.0, 1.6635907684724536E9, 0.0, 2022-09-19 17:32:48.472
160.0, -2297.5581643054684, 14625.148728507607, -25010.37269954356, -50691.409491468614, -187500.02235174447, -187500.02235174447, 6415.867080195794, -20027.855936033244, 0.628, -0.772, 0.226, 192.0, 0.0, 0.0, 0.0, 0.0, 0.0, 0.0, 0.0, 0.0, 0.0, 1.6635907684765213E9, 0.0, 2022-09-19 17:32:48.476
161.0, -2146.8850549322433, 14585.943768732997, -23964.534576479742, -51005.518556299045, -187500.02235174447, -187500.02235174447, 6315.865375502751, -19115.480079112065, 0.628, -0.772, 0.226, 192.0, 0.0, 0.0, 0.0, 0.0, 0.0, 0.0, 0.0, 0.0, 0.0, 1.6635907684815547E9, 0.0, 2022-09-19 17:32:48.481
162.0, -1874.9984353778882, 14657.938737623543, -23901.547360604687, -50798.67551310963, -187500.02235174447, -187500.02235174447, 6415.0847691398585, -18974.14999892116, 0.628, -0.772, 0.226, 192.0, 0.0, 0.0, 0.0, 0.0, 0.0, 0.0, 0.0, 0.0, 0.0, 1.6635907684855988E9, 0.0, 2022-09-19 17:32:48.485
163.0, -1826.5622051432379, 14716.299142396349, -24349.699836933596, -50538.50120764985, -187500.02235174447, -187500.02235174447, 6517.634572700807, -19334.05778814051, 0.628, -0.772, 0.226, 192.0, 0.0, 0.0, 0.0, 0.0, 0.0, 0.0, 0.0, 0.0, 0.0, 1.6635907684885929E9, 0.0, 2022-09-19 17:32:48.488
164.0, -2027.124408140708, 14709.10188068174, -25190.23718717542, -50376.36165337106, -187500.02235174447, -187500.02235174447, 6559.477038321143, -20085.05405009437, 0.628, -0.772, 0.226, 192.0, 0.0, 0.0, 0.0, 0.0, 0.0, 0.0, 0.0, 0.0, 0.0, 1.6635907684925983E9, 0.0, 2022-09-19 17:32:48.492
165.0, -2296.1947078936946, 14602.014672996364, -24992.245434790308, -50698.249125271934, -187500.02235174447, -187500.02235174447, 6411.441434793644, -20003.24666538795, 0.628, -0.772, 0.226, 192.0, 0.0, 0.0, 0.0, 0.0, 0.0, 0.0, 0.0, 0.0, 0.0, 1.6635907684965675E9, 0.0, 2022-09-19 17:32:48.496
166.0, -2141.6547467297014, 14561.7368294879, -23969.004925370806, -51014.63806803681, -187500.02235174447, -187500.02235174447, 6302.476680574022, -19104.751241773516, 0.628, -0.772, 0.226, 192.0, 0.0, 0.0, 0.0, 0.0, 0.0, 0.0, 0.0, 0.0, 0.0, 1.6635907685006983E9, 0.0, 2022-09-19 17:32:48.500
167.0, -1880.429909280528, 14642.180757782551, -23913.080860743627, -50806.18569924661, -187500.02235174447, -187500.02235174447, 6406.188774846647, -18983.76124903694, 0.628, -0.772, 0.226, 192.0, 0.0, 0.0, 0.0, 0.0, 0.0, 0.0, 0.0, 0.0, 0.0, 1.6635907685045946E9, 0.0, 2022-09-19 17:32:48.504
168.0, -1842.811923362246, 14703.849220734743, -24370.665773232675, -50546.681946120494, -187500.02235174447, -187500.02235174447, 6510.280848775012, -19358.64470704135, 0.628, -0.772, 0.226, 192.0, 0.0, 0.0, 0.0, 0.0, 0.0, 0.0, 0.0, 0.0, 0.0, 1.6635907685086076E9, 0.0, 2022-09-19 17:32:48.508
169.0, -2047.6656612951354, 14692.449831062537, -25217.99805378891, -50387.89515351, -187500.02235174447, -187500.02235174447, 6546.58008177043, -20113.396062063704, 0.628, -0.772, 0.226, 192.0, 0.0, 0.0, 0.0, 0.0, 0.0, 0.0, 0.0, 0.0, 0.0, 1.663590768513596E9, 0.0, 2022-09-19 17:32:48.513
170.0, -2309.8963272447977, 14587.798963522788, -24984.690545164412, -50713.40360801263, -187500.02235174447, -187500.02235174447, 6400.064396865892, -20002.017319442908, 0.628, -0.768, 0.222, 192.0, 19.0, 160.0, 232.0, 0.0, 6.0, 240.0, 0.0, 0.0, 0.0, 1.6635907685165467E9, 0.0, 2022-09-19 17:32:48.516
171.0, -2149.18728461114, 14555.612451507146, -23951.279992017746, -51011.68763776871, -187500.02235174447, -187500.02235174447, 6304.0860061748035, -19088.993261932526, 0.628, -0.768, 0.222, 192.0, 0.0, 0.0, 0.0, 0.0, 0.0, 0.0, 0.0, 0.0, 0.0, 1.663590768520641E9, 0.0, 2022-09-19 17:32:48.520
172.0, -1892.298685586296, 14632.949487322509, -23915.941884033906, -50796.261524708454, -187500.02235174447, -187500.02235174447, 6406.702864969118, -18986.957548494047, 0.628, -0.768, 0.222, 192.0, 0.0, 0.0, 0.0, 0.0, 0.0, 0.0, 0.0, 0.0, 0.0, 1.6635907685246012E9, 0.0, 2022-09-19 17:32:48.524
173.0, -1854.4348304790058, 14691.488706050957, -24381.14874138221, -50539.03764951678, -187500.02235174447, -187500.02235174447, 6506.726921406618, -19368.658288557326, 0.628, -0.768, 0.222, 192.0, 0.0, 0.0, 0.0, 0.0, 0.0, 0.0, 0.0, 0.0, 0.0, 1.6635907685285895E9, 0.0, 2022-09-19 17:32:48.528
174.0, -2068.5645423608476, 14679.95520591202, -25223.206010246995, -50385.01177847526, -187500.02235174447, -187500.02235174447, 6537.728790966129, -20122.604980779288, 0.628, -0.768, 0.222, 192.0, 0.0, 0.0, 0.0, 0.0, 0.0, 0.0, 0.0, 0.0, 0.0, 1.663590768532554E9, 0.0, 2022-09-19 17:32:48.532
175.0, -2323.0391529845183, 14579.573521563236, -24960.125978008033, -50715.258802802426, -187500.02235174447, -187500.02235174447, 6392.26363805099, -19986.840484957753, 0.628, -0.768, 0.222, 192.0, 0.0, 0.0, 0.0, 0.0, 0.0, 0.0, 0.0, 0.0, 0.0, 1.6635907685377393E9, 0.0, 2022-09-19 17:32:48.537
176.0, -2154.99873816952, 14550.426846793514, -23941.199355268403, -51009.698332512184, -187500.02235174447, -187500.02235174447, 6297.939276449594, -19090.602587533307, 0.628, -0.768, 0.222, 192.0, 0.0, 0.0, 0.0, 0.0, 0.0, 0.0, 0.0, 0.0, 0.0, 1.6635907685416317E9, 0.0, 2022-09-19 17:32:48.541
177.0, -1907.3861130936282, 14624.545231407314, -23924.100270760093, -50797.35676018677, -187500.02235174447, -187500.02235174447, 6399.282085809957, -18992.81370554134, 0.628, -0.768, 0.222, 192.0, 0.0, 0.0, 0.0, 0.0, 0.0, 0.0, 0.0, 0.0, 0.0, 1.663590768544617E9, 0.0, 2022-09-19 17:32:48.544
178.0, -1864.0013771058773, 14686.660729248611, -24391.29643336492, -50542.0327832738, -187500.02235174447, -187500.02235174447, 6502.591848682386, -19380.616471840916, 0.628, -0.768, 0.222, 192.0, 0.0, 0.0, 0.0, 0.0, 0.0, 0.0, 0.0, 0.0, 0.0, 1.663590768548601E9, 0.0, 2022-09-19 17:32:48.548
179.0, -2067.7598795604563, 14678.636452989156, -25226.245847492915, -50390.01856923325, -187500.02235174447, -187500.02235174447, 6538.533453766519, -20130.89747797221, 0.628, -0.768, 0.222, 192.0, 0.0, 0.0, 0.0, 0.0, 0.0, 0.0, 0.0, 0.0, 0.0, 1.6635907685526133E9, 0.0, 2022-09-19 17:32:48.552
180.0, -2320.3569436498815, 14573.762068004855, -24937.193088196887, -50728.93807040907, -187500.02235174447, -187500.02235174447, 6389.73789092754, -19963.102932346217, 0.626, -0.776, 0.224, 192.0, 19.0, 144.0, 231.0, 192.0, 7.0, 0.0, 0.0, 0.0, 0.0, 1.663590768556652E9, 0.0, 2022-09-19 17:32:48.556
181.0, -2146.415668298682, 14545.129483357607, -23922.20037248139, -51009.89949821228, -187500.02235174447, -187500.02235174447, 6304.041302685893, -19064.11577035377, 0.626, -0.776, 0.224, 192.0, 0.0, 0.0, 0.0, 0.0, 0.0, 0.0, 0.0, 0.0, 0.0, 1.6635907685606184E9, 0.0, 2022-09-19 17:32:48.560
182.0, -1896.9478484329998, 14622.019484283863, -23920.3451776916, -50787.65610309316, -187500.02235174447, -187500.02235174447, 6409.630943492764, -18979.80499026835, 0.626, -0.776, 0.224, 192.0, 0.0, 0.0, 0.0, 0.0, 0.0, 0.0, 0.0, 0.0, 0.0, 1.663590768564633E9, 0.0, 2022-09-19 17:32:48.564
183.0, -1864.4484119949834, 14680.424592545582, -24402.762878270492, -50534.65670760354, -187500.02235174447, -187500.02235174447, 6509.47618597462, -19388.149009722354, 0.626, -0.776, 0.224, 192.0, 0.0, 0.0, 0.0, 0.0, 0.0, 0.0, 0.0, 0.0, 0.0, 1.6635907685696297E9, 0.0, 2022-09-19 17:32:48.569
184.0, -2078.1757924766293, 14665.359516782704, -25235.208897019496, -50394.04188323521, -187500.02235174447, -187500.02235174447, 6535.448913031687, -20132.864431484275, 0.626, -0.776, 0.224, 192.0, 0.0, 0.0, 0.0, 0.0, 0.0, 0.0, 0.0, 0.0, 0.0, 1.663590768572878E9, 0.0, 2022-09-19 17:32:48.572
185.0, -2318.881728515831, 14564.486094055903, -24917.568256565126, -50738.392858313666, -187500.02235174447, -187500.02235174447, 6385.513411225487, -19938.046626811818, 0.626, -0.776, 0.224, 192.0, 0.0, 0.0, 0.0, 0.0, 0.0, 0.0, 0.0, 0.0, 0.0, 1.663590768576666E9, 0.0, 2022-09-19 17:32:48.576
186.0, -2139.6207379842685, 14541.039114122286, -23916.903009045483, -51012.55935580246, -187500.02235174447, -187500.02235174447, 6303.527212563421, -19060.405380774188, 0.626, -0.776, 0.224, 192.0, 0.0, 0.0, 0.0, 0.0, 0.0, 0.0, 0.0, 0.0, 0.0, 1.6635907685806644E9, 0.0, 2022-09-19 17:32:48.580
187.0, -1896.366703077162, 14617.415024926071, -23930.15759350748, -50786.02442574793, -187500.02235174447, -187500.02235174447, 6407.261658580502, -18992.701946819063, 0.626, -0.776, 0.224, 192.0, 0.0, 0.0, 0.0, 0.0, 0.0, 0.0, 0.0, 0.0, 0.0, 1.6635907685846596E9, 0.0, 2022-09-19 17:32:48.584
188.0, -1872.6067987211704, 14674.836656431755, -24415.481020865565, -50532.153312224546, -187500.02235174447, -187500.02235174447, 6508.962095852148, -19394.921588292313, 0.626, -0.776, 0.224, 192.0, 0.0, 0.0, 0.0, 0.0, 0.0, 0.0, 0.0, 0.0, 0.0, 1.6635907685887265E9, 0.0, 2022-09-19 17:32:48.588
189.0, -2092.8161850948554, 14655.748266666922, -25250.6092489492, -50394.77949080223, -187500.02235174447, -187500.02235174447, 6535.203043842679, -20136.775986763954, 0.626, -0.776, 0.224, 192.0, 0.0, 0.0, 0.0, 0.0, 0.0, 0.0, 0.0, 0.0, 0.0, 1.6635907685927525E9, 0.0, 2022-09-19 17:32:48.592
190.0, -2331.599871110901, 14550.739771215889, -24909.65573902795, -50744.58429152779, -187500.02235174447, -187500.02235174447, 6381.668911179175, -19927.071920284263, 0.628, -0.774, 0.214, 192.0, 19.0, 160.0, 231.0, 208.0, 6.0, 176.0, 0.0, 0.0, 0.0, 1.6635907685977104E9, 0.0, 2022-09-19 17:32:48.597
191.0, -2147.242682843528, 14530.511442483836, -23908.118773474547, -51009.005428434066, -187500.02235174447, -187500.02235174447, 6308.422244599134, -19043.172185799147, 0.628, -0.774, 0.214, 192.0, 0.0, 0.0, 0.0, 0.0, 0.0, 0.0, 0.0, 0.0, 0.0, 1.6635907686007316E9, 0.0, 2022-09-19 17:32:48.600
192.0, -1895.6961507435026, 14609.860135300176, -23923.541477148712, -50783.36456815775, -187500.02235174447, -187500.02235174447, 6419.108083141814, -18987.449286872066, 0.628, -0.774, 0.214, 192.0, 0.0, 0.0, 0.0, 0.0, 0.0, 0.0, 0.0, 0.0, 0.0, 1.6635907686046827E9, 0.0, 2022-09-19 17:32:48.604
193.0, -1870.103403342176, 14669.360479040204, -24415.525724354473, -50534.79081807027, -187500.02235174447, -187500.02235174447, 6518.171014567735, -19404.1305070079, 0.628, -0.774, 0.214, 192.0, 0.0, 0.0, 0.0, 0.0, 0.0, 0.0, 0.0, 0.0, 0.0, 1.6635907686087155E9, 0.0, 2022-09-19 17:32:48.608
194.0, -2097.4653479415592, 14649.355667752705, -25255.14665307363, -50409.01755202026, -187500.02235174447, -187500.02235174447, 6540.321593322944, -20155.909080017696, 0.628, -0.774, 0.214, 192.0, 0.0, 0.0, 0.0, 0.0, 0.0, 0.0, 0.0, 0.0, 0.0, 1.663590768612707E9, 0.0, 2022-09-19 17:32:48.612
195.0, -2338.9088915477864, 14537.753407687356, -24887.88513992848, -50769.55119008436, -187500.02235174447, -187500.02235174447, 6383.993492602527, -19920.344045203216, 0.628, -0.774, 0.214, 192.0, 0.0, 0.0, 0.0, 0.0, 0.0, 0.0, 0.0, 0.0, 0.0, 1.663590768616699E9, 0.0, 2022-09-19 17:32:48.616
196.0, -2149.9695956670757, 14513.59117193117, -23909.951616519884, -51030.35134438889, -187500.02235174447, -187500.02235174447, 6304.823613741829, -19043.328648010334, 0.628, -0.774, 0.214, 192.0, 0.0, 0.0, 0.0, 0.0, 0.0, 0.0, 0.0, 0.0, 0.0, 1.66359076862074E9, 0.0, 2022-09-19 17:32:48.620
197.0, -1904.681552014536, 14591.129373446629, -23945.803814626197, -50796.37328343073, -187500.02235174447, -187500.02235174447, 6413.073112138881, -18993.19368519708, 0.628, -0.774, 0.214, 192.0, 0.0, 0.0, 0.0, 0.0, 0.0, 0.0, 0.0, 0.0, 0.0, 1.6635907686257415E9, 0.0, 2022-09-19 17:32:48.625
198.0, -1883.8944296711004, 14643.6559729166, -24444.292419468453, -50539.842312317174, -187500.02235174447, -187500.02235174447, 6508.962095852148, -19411.75245186716, 0.628, -0.774, 0.214, 192.0, 0.0, 0.0, 0.0, 0.0, 0.0, 0.0, 0.0, 0.0, 0.0, 1.6635907686287508E9, 0.0, 2022-09-19 17:32:48.628
199.0, -2112.8209963823556, 14621.483042416936, -25264.04264736684, -50412.3479619441, -187500.02235174447, -187500.02235174447, 6536.745314210095, -20165.788551066944, 0.628, -0.774, 0.214, 192.0, 0.0, 0.0, 0.0, 0.0, 0.0, 0.0, 0.0, 0.0, 0.0, 1.663590768631753E9, 0.0, 2022-09-19 17:32:48.631
200.0, -2344.2286067281493, 14516.809823132733, -24875.010535122223, -50775.921437254125, -187500.02235174447, -187500.02235174447, 6378.316149510879, -19910.46457415397, 0.628, -0.774, 0.216, 192.0, 19.0, 160.0, 231.0, 208.0, 6.0, 192.0, 0.0, 0.0, 0.0, 1.6635907686367943E9, 0.0, 2022-09-19 17:32:48.636
201.0, -2147.019165398975, 14497.810840345723, -23897.68050881392, -51017.65555353827, -187500.02235174447, -187500.02235174447, 6309.696294033086, -19042.90396486568, 0.628, -0.774, 0.216, 192.0, 0.0, 0.0, 0.0, 0.0, 0.0, 0.0, 0.0, 0.0, 0.0, 1.6635907686407802E9, 0.0, 2022-09-19 17:32:48.640
202.0, -1902.9157642025668, 14583.261559398361, -23943.389826225022, -50775.720271554026, -187500.02235174447, -187500.02235174447, 6422.751417488029, -19006.850601059272, 0.628, -0.774, 0.216, 192.0, 0.0, 0.0, 0.0, 0.0, 0.0, 0.0, 0.0, 0.0, 0.0, 1.663590768644883E9, 0.0, 2022-09-19 17:32:48.644
203.0, -1884.3191128157514, 14639.342086236727, -24451.713198627618, -50522.74322780887, -187500.02235174447, -187500.02235174447, 6516.695799433684, -19429.298571264575, 0.628, -0.774, 0.216, 192.0, 0.0, 0.0, 0.0, 0.0, 0.0, 0.0, 0.0, 0.0, 0.0, 1.6635907686487625E9, 0.0, 2022-09-19 17:32:48.648
204.0, -2115.4585022280817, 14609.614266111168, -25274.547967260834, -50407.34117118611, -187500.02235174447, -187500.02235174447, 6531.291488563, -20179.400763440226, 0.628, -0.774, 0.216, 192.0, 0.0, 0.0, 0.0, 0.0, 0.0, 0.0, 0.0, 0.0, 0.0, 1.6635907686528196E9, 0.0, 2022-09-19 17:32:48.652
205.0, -2336.785475824532, 14502.035320047775, -24850.982409832766, -50781.57642860132, -187500.02235174447, -187500.02235174447, 6371.342405240823, -19906.28479794083, 0.628, -0.774, 0.216, 192.0, 0.0, 0.0, 0.0, 0.0, 0.0, 0.0, 0.0, 0.0, 0.0, 1.6635907686568139E9, 0.0, 2022-09-19 17:32:48.656
206.0, -2135.7538861935004, 14485.852657062132, -23888.516293587243, -51020.33776287291, -187500.02235174447, -187500.02235174447, 6305.874145731229, -19044.513290466464, 0.628, -0.774, 0.216, 192.0, 0.0, 0.0, 0.0, 0.0, 0.0, 0.0, 0.0, 0.0, 0.0, 1.66359076865978E9, 0.0, 2022-09-19 17:32:48.659
207.0, -1899.6971130010027, 14563.614376022146, -23949.424797227955, -50780.14591695618, -187500.02235174447, -187500.02235174447, 6414.771844717485, -19016.886534319703, 0.628, -0.774, 0.216, 192.0, 0.0, 0.0, 0.0, 0.0, 0.0, 0.0, 0.0, 0.0, 0.0, 1.6635907686648536E9, 0.0, 2022-09-19 17:32:48.664
208.0, -1882.709787214969, 14613.503469646392, -24458.08344579738, -50525.76071331033, -187500.02235174447, -187500.02235174447, 6512.940706365193, -19442.866080148946, 0.628, -0.774, 0.216, 192.0, 0.0, 0.0, 0.0, 0.0, 0.0, 0.0, 0.0, 0.0, 0.0, 1.6635907686688206E9, 0.0, 2022-09-19 17:32:48.668
209.0, -2116.956069106587, 14589.385937379115, -25269.18354859156, -50409.35282818709, -187500.02235174447, -187500.02235174447, 6531.604412985374, -20171.957632536607, 0.628, -0.774, 0.216, 192.0, 0.0, 0.0, 0.0, 0.0, 0.0, 0.0, 0.0, 0.0, 0.0, 1.6635907686727958E9, 0.0, 2022-09-19 17:32:48.672
210.0, -2338.5959671254122, 14482.298729693739, -24819.91348503989, -50787.94667577108, -187500.02235174447, -187500.02235174447, 6371.185943029635, -19878.389820860604, 0.626, -0.776, 0.214, 192.0, 19.0, 144.0, 231.0, 192.0, 6.0, 176.0, 0.0, 0.0, 0.0, 1.663590768676803E9, 0.0, 2022-09-19 17:32:48.676
211.0, -2135.195092582118, 14469.267662676295, -23877.67569752642, -51017.92377447174, -187500.02235174447, -187500.02235174447, 6304.711855019553, -19021.42393844413, 0.626, -0.776, 0.214, 192.0, 0.0, 0.0, 0.0, 0.0, 0.0, 0.0, 0.0, 0.0, 0.0, 1.663590768680957E9, 0.0, 2022-09-19 17:32:48.680
212.0, -1905.843842726212, 14546.649401980569, -23951.79408214022, -50776.39082388769, -187500.02235174447, -187500.02235174447, 6416.515280784998, -19005.33068243631, 0.626, -0.776, 0.214, 192.0, 0.0, 0.0, 0.0, 0.0, 0.0, 0.0, 0.0, 0.0, 0.0, 1.6635907686848722E9, 0.0, 2022-09-19 17:32:48.684
213.0, -1895.6961507435026, 14595.443260126503, -24462.911422599725, -50528.934661022984, -187500.02235174447, -187500.02235174447, 6520.473244246632, -19447.828167418025, 0.626, -0.776, 0.214, 192.0, 0.0, 0.0, 0.0, 0.0, 0.0, 0.0, 0.0, 0.0, 0.0, 1.6635907686879003E9, 0.0, 2022-09-19 17:32:48.687
214.0, -2130.8588541577883, 14569.179960391517, -25270.43524628106, -50417.24299397982, -187500.02235174447, -187500.02235174447, 6534.264270575556, -20179.870150073784, 0.626, -0.776, 0.214, 192.0, 0.0, 0.0, 0.0, 0.0, 0.0, 0.0, 0.0, 0.0, 0.0, 1.6635907686928515E9, 0.0, 2022-09-19 17:32:48.692
215.0, -2344.496827661613, 14463.187988184452, -24800.065135963578, -50796.417986919645, -187500.02235174447, -187500.02235174447, 6370.8283151183505, -19858.340306084196, 0.626, -0.776, 0.214, 192.0, 0.0, 0.0, 0.0, 0.0, 0.0, 0.0, 0.0, 0.0, 0.0, 1.6635907686968713E9, 0.0, 2022-09-19 17:32:48.696
216.0, -2131.0376681134308, 14453.688496790946, -23864.510520042244, -51012.80522499147, -187500.02235174447, -187500.02235174447, 6310.769177766941, -19014.830173829814, 0.626, -0.776, 0.214, 192.0, 0.0, 0.0, 0.0, 0.0, 0.0, 0.0, 0.0, 0.0, 0.0, 1.663590768700884E9, 0.0, 2022-09-19 17:32:48.700
217.0, -1902.1558048910863, 14532.299582040261, -23951.101178062105, -50765.95255922706, -187500.02235174447, -187500.02235174447, 6418.057551152415, -19015.344263952287, 0.626, -0.776, 0.214, 192.0, 0.0, 0.0, 0.0, 0.0, 0.0, 0.0, 0.0, 0.0, 0.0, 1.6635907687048793E9, 0.0, 2022-09-19 17:32:48.704
218.0, -1892.7010169864914, 14578.679451785023, -24484.19028332118, -50516.931774250486, -187500.02235174447, -187500.02235174447, 6509.8785173748165, -19467.207129860777, 0.626, -0.776, 0.214, 192.0, 0.0, 0.0, 0.0, 0.0, 0.0, 0.0, 0.0, 0.0, 0.0, 1.663590768708882E9, 0.0, 2022-09-19 17:32:48.708
219.0, -2132.222310569562, 14550.717419471433, -25282.549891775834, -50414.94076430092, -187500.02235174447, -187500.02235174447, 6522.976639625626, -20205.99933934204, 0.626, -0.776, 0.214, 192.0, 0.0, 0.0, 0.0, 0.0, 0.0, 0.0, 0.0, 0.0, 0.0, 1.663590768711876E9, 0.0, 2022-09-19 17:32:48.711
220.0, -2337.9924700251186, 14449.598127555624, -24784.307156122584, -50803.548193400886, -187500.02235174447, -187500.02235174447, 6359.11600102377, -19864.867015465145, 0.622, -0.778, 0.218, 192.0, 19.0, 112.0, 231.0, 176.0, 6.0, 208.0, 0.0, 0.0, 0.0, 1.6635907687159636E9, 0.0, 2022-09-19 17:32:48.715
221.0, -2122.0075633534866, 14437.483482060848, -23872.847720724076, -51013.52048081404, -187500.02235174447, -187500.02235174447, 6297.425186327123, -19024.262609989957, 0.622, -0.778, 0.218, 192.0, 0.0, 0.0, 0.0, 0.0, 0.0, 0.0, 0.0, 0.0, 0.0, 1.6635907687199476E9, 0.0, 2022-09-19 17:32:48.719
222.0, -1885.3472930606954, 14521.861317379633, -23963.014657856784, -50764.85732374875, -187500.02235174447, -187500.02235174447, 6414.727141228574, -19032.48805194951, 0.622, -0.778, 0.218, 192.0, 0.0, 0.0, 0.0, 0.0, 0.0, 0.0, 0.0, 0.0, 0.0, 1.6635907687249813E9, 0.0, 2022-09-19 17:32:48.724
223.0, -1883.4250430375391, 14571.795114492788, -24500.685870729194, -50512.21555617041, -187500.02235174447, -187500.02235174447, 6510.414959241743, -19465.821321704545, 0.622, -0.778, 0.218, 192.0, 0.0, 0.0, 0.0, 0.0, 0.0, 0.0, 0.0, 0.0, 0.0, 1.6635907687289095E9, 0.0, 2022-09-19 17:32:48.728
224.0, -2126.6343744557353, 14547.58817524769, -25295.603310537736, -50412.14679624401, -187500.02235174447, -187500.02235174447, 6519.132139579313, -20188.006185055518, 0.622, -0.778, 0.218, 192.0, 0.0, 0.0, 0.0, 0.0, 0.0, 0.0, 0.0, 0.0, 0.0, 1.6635907687329676E9, 0.0, 2022-09-19 17:32:48.732
225.0, -2327.6212605978562, 14443.004362941309, -24773.95829843978, -50804.39755969019, -187500.02235174447, -187500.02235174447, 6355.87499807775, -19826.891401635577, 0.622, -0.778, 0.218, 192.0, 0.0, 0.0, 0.0, 0.0, 0.0, 0.0, 0.0, 0.0, 0.0, 1.6635907687359664E9, 0.0, 2022-09-19 17:32:48.735
226.0, -2107.0989498017966, 14433.326057592161, -23861.984772918793, -51008.312524355955, -187500.02235174447, -187500.02235174447, 6306.9023259761725, -19011.991502283992, 0.622, -0.778, 0.218, 192.0, 0.0, 0.0, 0.0, 0.0, 0.0, 0.0, 0.0, 0.0, 0.0, 1.6635907687399364E9, 0.0, 2022-09-19 17:32:48.739
227.0, -1887.2471913393965, 14507.8244218617, -23968.803759670707, -50759.44820159057, -187500.02235174447, -187500.02235174447, 6422.237327365557, -19020.57457215483, 0.622, -0.778, 0.218, 192.0, 0.0, 0.0, 0.0, 0.0, 0.0, 0.0, 0.0, 0.0, 0.0, 1.6635907687439003E9, 0.0, 2022-09-19 17:32:48.743
228.0, -1893.393921064606, 14554.673678240024, -24520.13188840531, -50513.80253002674, -187500.02235174447, -187500.02235174447, 6511.353732508866, -19486.496685325706, 0.622, -0.778, 0.218, 192.0, 0.0, 0.0, 0.0, 0.0, 0.0, 0.0, 0.0, 0.0, 0.0, 1.6635907687479951E9, 0.0, 2022-09-19 17:32:48.747
229.0, -2149.231988100051, 14524.565878458725, -25303.448772841548, -50425.64724989501, -187500.02235174447, -187500.02235174447, 6516.584040711408, -20218.91864763721, 0.622, -0.778, 0.218, 192.0, 0.0, 0.0, 0.0, 0.0, 0.0, 0.0, 0.0, 0.0, 0.0, 1.6635907687529905E9, 0.0, 2022-09-19 17:32:48.752
230.0, -2339.9594235371856, 14427.961638922889, -24752.36651329595, -50824.022391321945, -187500.02235174447, -187500.02235174447, 6354.01980328796, -19828.59013421418, 0.622, -0.774, 0.218, 192.0, 19.0, 112.0, 231.0, 208.0, 6.0, 208.0, 0.0, 0.0, 0.0, 1.6635907687570112E9, 0.0, 2022-09-19 17:32:48.757
231.0, -2106.6519149126907, 14428.90041219001, -23860.19663336237, -51016.87324248234, -187500.02235174447, -187500.02235174447, 6305.650628286676, -19020.060482032357, 0.622, -0.774, 0.218, 192.0, 0.0, 0.0, 0.0, 0.0, 0.0, 0.0, 0.0, 0.0, 0.0, 1.663590768761025E9, 0.0, 2022-09-19 17:32:48.761
232.0, -1885.749624460891, 14509.456099206936, -23970.92717539396, -50761.9292452251, -187500.02235174447, -187500.02235174447, 6421.052684909426, -19040.825252631337, 0.622, -0.774, 0.218, 192.0, 0.0, 0.0, 0.0, 0.0, 0.0, 0.0, 0.0, 0.0, 0.0, 1.6635907687640245E9, 0.0, 2022-09-19 17:32:48.764
233.0, -1882.262752325863, 14562.362678332649, -24525.004568696568, -50511.589707325664, -187500.02235174447, -187500.02235174447, 6511.9348778647045, -19505.182743690344, 0.622, -0.774, 0.218, 192.0, 0.0, 0.0, 0.0, 0.0, 0.0, 0.0, 0.0, 0.0, 0.0, 1.663590768768016E9, 0.0, 2022-09-19 17:32:48.768
234.0, -2128.42251401216, 14532.344285529172, -25301.951205963043, -50429.6035086636, -187500.02235174447, -187500.02235174447, 6516.829909900416, -20221.24322906056, 0.622, -0.774, 0.218, 192.0, 0.0, 0.0, 0.0, 0.0, 0.0, 0.0, 0.0, 0.0, 0.0, 1.6635907687719815E9, 0.0, 2022-09-19 17:32:48.771
235.0, -2315.640725569812, 14428.676894745458, -24725.27619901612, -50834.170083304656, -187500.02235174447, -187500.02235174447, 6352.63399513173, -19824.45506148995, 0.622, -0.774, 0.218, 192.0, 0.0, 0.0, 0.0, 0.0, 0.0, 0.0, 0.0, 0.0, 0.0, 1.6635907687760549E9, 0.0, 2022-09-19 17:32:48.776
236.0, -2083.6296181237244, 14427.738121478335, -23854.876918182006, -51017.00735294907, -187500.02235174447, -187500.02235174447, 6302.163756151647, -19027.168336769144, 0.622, -0.774, 0.218, 192.0, 0.0, 0.0, 0.0, 0.0, 0.0, 0.0, 0.0, 0.0, 0.0, 1.6635907687810445E9, 0.0, 2022-09-19 17:32:48.781
237.0, -1869.0305196083214, 14506.796241616756, -23982.304213321713, -50763.09153593678, -187500.02235174447, -187500.02235174447, 6420.002152920027, -19057.0973225948, 0.622, -0.774, 0.218, 192.0, 0.0, 0.0, 0.0, 0.0, 0.0, 0.0, 0.0, 0.0, 0.0, 1.663590768785015E9, 0.0, 2022-09-19 17:32:48.785
238.0, -1879.6923017135027, 14551.343268316183, -24552.47486263214, -50519.27870741829, -187500.02235174447, -187500.02235174447, 6506.637514428797, -19536.29637197213, 0.622, -0.774, 0.218, 192.0, 0.0, 0.0, 0.0, 0.0, 0.0, 0.0, 0.0, 0.0, 0.0, 1.6635907687890036E9, 0.0, 2022-09-19 17:32:48.789
239.0, -2134.61394722628, 14518.195631288962, -25310.8248485118, -50438.41009597899, -187500.02235174447, -187500.02235174447, 6510.638476686297, -20238.20820310214, 0.622, -0.774, 0.218, 192.0, 0.0, 0.0, 0.0, 0.0, 0.0, 0.0, 0.0, 0.0, 0.0, 1.663590768792019E9, 0.0, 2022-09-19 17:32:48.792
240.0, -2324.0002779960964, 14412.650693971002, -24713.69799538827, -50843.22253980906, -187500.02235174447, -187500.02235174447, 6342.553358382387, -19806.484258947883, 0.626, -0.78, 0.216, 192.0, 19.0, 144.0, 231.0, 160.0, 6.0, 192.0, 0.0, 0.0, 0.0, 1.6635907687960954E9, 0.0, 2022-09-19 17:32:48.796
241.0, -2082.9814175345205, 14412.628342226548, -23848.95370590135, -51012.13467265781, -187500.02235174447, -187500.02235174447, 6300.8002997398735, -19013.891400562694, 0.626, -0.78, 0.216, 192.0, 0.0, 0.0, 0.0, 0.0, 0.0, 0.0, 0.0, 0.0, 0.0, 1.663590768800079E9, 0.0, 2022-09-19 17:32:48.800
242.0, -1869.2093335639638, 14492.781697843278, -23980.426666787465, -50754.86609397723, -187500.02235174447, -187500.02235174447, 6422.08086515437, -19058.57253772885, 0.626, -0.78, 0.216, 192.0, 0.0, 0.0, 0.0, 0.0, 0.0, 0.0, 0.0, 0.0, 0.0, 1.663590768804033E9, 0.0, 2022-09-19 17:32:48.804
243.0, -1884.9896651494105, 14541.150872844562, -24549.882060275326, -50513.31079164872, -187500.02235174447, -187500.02235174447, 6515.62291569983, -19544.387703464952, 0.626, -0.78, 0.216, 192.0, 0.0, 0.0, 0.0, 0.0, 0.0, 0.0, 0.0, 0.0, 0.0, 1.663590768809074E9, 0.0, 2022-09-19 17:32:48.809
244.0, -2144.895749675721, 14507.10916603913, -25306.130982176186, -50441.829912880654, -187500.02235174447, -187500.02235174447, 6515.175880810724, -20240.264563592027, 0.626, -0.78, 0.216, 192.0, 0.0, 0.0, 0.0, 0.0, 0.0, 0.0, 0.0, 0.0, 0.0, 1.663590768813025E9, 0.0, 2022-09-19 17:32:48.813
245.0, -2330.012897254574, 14398.479687986337, -24695.906006801848, -50855.02426088146, -187500.02235174447, -187500.02235174447, 6343.268614204957, -19802.10331703464, 0.626, -0.78, 0.216, 192.0, 0.0, 0.0, 0.0, 0.0, 0.0, 0.0, 0.0, 0.0, 0.0, 1.6635907688171155E9, 0.0, 2022-09-19 17:32:48.817
246.0, -2086.8929728141993, 14401.877153143545, -23842.6281622205, -51013.900460469784, -187500.02235174447, -187500.02235174447, 6308.355189365768, -19014.114918007246, 0.626, -0.78, 0.216, 192.0, 0.0, 0.0, 0.0, 0.0, 0.0, 0.0, 0.0, 0.0, 0.0, 1.6635907688201509E9, 0.0, 2022-09-19 17:32:48.820
247.0, -1876.5407057453044, 14482.455191904926, -23987.75803896881, -50751.22275963101, -187500.02235174447, -187500.02235174447, 6426.305344856423, -19068.541415755917, 0.626, -0.78, 0.216, 192.0, 0.0, 0.0, 0.0, 0.0, 0.0, 0.0, 0.0, 0.0, 0.0, 1.6635907688241177E9, 0.0, 2022-09-19 17:32:48.824
248.0, -1886.3084180722735, 14533.68539019649, -24567.29406920601, -50502.4701955879, -187500.02235174447, -187500.02235174447, 6519.534470979509, -19561.10680831752, 0.626, -0.78, 0.216, 192.0, 0.0, 0.0, 0.0, 0.0, 0.0, 0.0, 0.0, 0.0, 0.0, 1.6635907688281088E9, 0.0, 2022-09-19 17:32:48.828
249.0, -2145.409839798193, 14500.135421769075, -25318.24562767096, -50440.287642513234, -187500.02235174447, -187500.02235174447, 6514.818252899439, -20254.77084574352, 0.626, -0.78, 0.216, 192.0, 0.0, 0.0, 0.0, 0.0, 0.0, 0.0, 0.0, 0.0, 0.0, 1.663590768832094E9, 0.0, 2022-09-19 17:32:48.832
250.0, -2317.1382924483173, 14396.557437963182, -24679.388067649375, -50860.54514176192, -187500.02235174447, -187500.02235174447, 6342.910986293672, -19780.735049335366, 0.622, -0.782, 0.22, 192.0, 19.0, 112.0, 231.0, 144.0, 6.0, 224.0, 0.0, 0.0, 0.0, 1.6635907688361096E9, 0.0, 2022-09-19 17:32:48.836
251.0, -2071.6937865845903, 14399.08318508663, -23853.804034448152, -51015.10745467037, -187500.02235174447, -187500.02235174447, 6307.01408469845, -19015.09839476328, 0.622, -0.782, 0.22, 192.0, 0.0, 0.0, 0.0, 0.0, 0.0, 0.0, 0.0, 0.0, 0.0, 1.6635907688411298E9, 0.0, 2022-09-19 17:32:48.841
252.0, -1862.4814584829162, 14473.514494122803, -24007.740498511852, -50754.530817810395, -187500.02235174447, -187500.02235174447, 6424.718371000096, -19084.589968274828, 0.622, -0.782, 0.22, 192.0, 0.0, 0.0, 0.0, 0.0, 0.0, 0.0, 0.0, 0.0, 0.0, 1.6635907688451884E9, 0.0, 2022-09-19 17:32:48.845
253.0, -1880.586371491715, 14520.073177823208, -24590.472828206162, -50508.885146246575, -187500.02235174447, -187500.02235174447, 6516.941668622693, -19581.156323093932, 0.622, -0.782, 0.22, 192.0, 0.0, 0.0, 0.0, 0.0, 0.0, 0.0, 0.0, 0.0, 0.0, 1.6635907688481147E9, 0.0, 2022-09-19 17:32:48.848
254.0, -2144.962804909087, 14486.411450673515, -25325.398185896658, -50450.81531415169, -187500.02235174447, -187500.02235174447, 6513.924183121227, -20269.187720917194, 0.622, -0.782, 0.22, 192.0, 0.0, 0.0, 0.0, 0.0, 0.0, 0.0, 0.0, 0.0, 0.0, 1.6635907688521063E9, 0.0, 2022-09-19 17:32:48.852
255.0, -2313.6961238022, 14384.241626768307, -24662.98188721918, -50872.54802853442, -187500.02235174447, -187500.02235174447, 6340.6534601036865, -19778.20930221192, 0.622, -0.782, 0.22, 192.0, 0.0, 0.0, 0.0, 0.0, 0.0, 0.0, 0.0, 0.0, 0.0, 1.6635907688561015E9, 0.0, 2022-09-19 17:32:48.856
0.0, -2071.2467516954844, 14389.002548337288, -23844.930391899397, -51014.52630931453, -187500.02235174447, -187500.02235174447, 6310.098625433282, -19017.378272697722, 0.622, -0.782, 0.22, 192.0, 0.0, 0.0, 0.0, 0.0, 0.0, 0.0, 0.0, 0.0, 0.0, 1.6635907688601153E9, 0.0, 2022-09-19 17:32:48.860
1.0, -1870.1928103199973, 14468.8653312761, -24004.18657114346, -50751.401573586656, -187500.02235174447, -187500.02235174447, 6430.172196647191, -19094.223570135066, 0.622, -0.782, 0.22, 192.0, 0.0, 0.0, 0.0, 0.0, 0.0, 0.0, 0.0, 0.0, 0.0, 1.6635907688643045E9, 0.0, 2022-09-19 17:32:48.864
2.0, -1891.2034501079859, 14515.625180676601, -24595.993709086622, -50510.94150673646, -187500.02235174447, -187500.02235174447, 6523.401322770277, -19609.11835540752, 0.622, -0.782, 0.22, 192.0, 0.0, 0.0, 0.0, 0.0, 0.0, 0.0, 0.0, 0.0, 0.0, 1.6635907688691535E9, 0.0, 2022-09-19 17:32:48.869
3.0, -2157.5468370374247, 14476.308462179717, -25327.141621964172, -50467.37795679307, -187500.02235174447, -187500.02235174447, 6507.442177229188, -20292.07590723943, 0.622, -0.782, 0.22, 192.0, 0.0, 0.0, 0.0, 0.0, 0.0, 0.0, 0.0, 0.0, 0.0, 1.6635907688731697E9, 0.0, 2022-09-19 17:32:48.873
4.0, -2311.9750394791413, 14375.41268770846, -24634.97515141668, -50893.245743900035, -187500.02235174447, -187500.02235174447, 6333.746771066996, -19767.413409640005, 0.626, -0.774, 0.222, 192.0, 19.0, 144.0, 231.0, 208.0, 6.0, 240.0, 0.0, 0.0, 0.0, 1.6635907688761635E9, 0.0, 2022-09-19 17:32:48.876
5.0, -2057.7910015333896, 14388.644920426002, -23833.463946993823, -51026.93152748723, -187500.02235174447, -187500.02235174447, 6312.400855112178, -19027.10128153578, 0.626, -0.774, 0.222, 192.0, 0.0, 0.0, 0.0, 0.0, 0.0, 0.0, 0.0, 0.0, 0.0, 1.663590768880154E9, 0.0, 2022-09-19 17:32:48.880
6.0, -1855.5300659573159, 14471.391078399549, -24014.71424278191, -50757.77182075642, -187500.02235174447, -187500.02235174447, 6432.005039692526, -19111.657930810205, 0.626, -0.774, 0.222, 192.0, 0.0, 0.0, 0.0, 0.0, 0.0, 0.0, 0.0, 0.0, 0.0, 1.6635907688841703E9, 0.0, 2022-09-19 17:32:48.884
7.0, -1889.2588483403742, 14511.132480041086, -24616.892590152336, -50512.03674221477, -187500.02235174447, -187500.02235174447, 6517.880441889816, -19620.808317757645, 0.626, -0.774, 0.222, 192.0, 0.0, 0.0, 0.0, 0.0, 0.0, 0.0, 0.0, 0.0, 0.0, 1.663590768888206E9, 0.0, 2022-09-19 17:32:48.888
8.0, -2163.3359388513495, 14469.133552209563, -25324.124136462706, -50468.7637649493, -187500.02235174447, -187500.02235174447, 6506.7716248955285, -20285.4374391362, 0.626, -0.774, 0.222, 192.0, 0.0, 0.0, 0.0, 0.0, 0.0, 0.0, 0.0, 0.0, 0.0, 1.663590768892188E9, 0.0, 2022-09-19 17:32:48.892
9.0, -2314.701952302689, 14367.120190515541, -24612.48929649464, -50892.061101443905, -187500.02235174447, -187500.02235174447, 6339.602928114286, -19741.977124449866, 0.626, -0.774, 0.222, 192.0, 0.0, 0.0, 0.0, 0.0, 0.0, 0.0, 0.0, 0.0, 0.0, 1.6635907688972058E9, 0.0, 2022-09-19 17:32:48.897
10.0, -2056.2487311659734, 14378.966615076855, -23834.067444094115, -51012.44759708019, -187500.02235174447, -187500.02235174447, 6315.48539584701, -19016.95358955307, 0.626, -0.774, 0.222, 192.0, 0.0, 0.0, 0.0, 0.0, 0.0, 0.0, 0.0, 0.0, 0.0, 1.6635907689012067E9, 0.0, 2022-09-19 17:32:48.901
11.0, -1871.6680254540474, 14455.856616003111, -24022.31383589671, -50747.31120435133, -187500.02235174447, -187500.02235174447, 6430.4627693251105, -19109.35570113131, 0.626, -0.774, 0.222, 192.0, 0.0, 0.0, 0.0, 0.0, 0.0, 0.0, 0.0, 0.0, 0.0, 1.663590768904199E9, 0.0, 2022-09-19 17:32:48.904
12.0, -1901.105272901687, 14496.715604867411, -24624.73805245615, -50501.732588020874, -187500.02235174447, -187500.02235174447, 6524.273040804034, -19620.629503802003, 0.626, -0.774, 0.222, 192.0, 0.0, 0.0, 0.0, 0.0, 0.0, 0.0, 0.0, 0.0, 0.0, 1.6635907689083197E9, 0.0, 2022-09-19 17:32:48.908
13.0, -2160.7878399834444, 14452.660316546002, -25322.91714226212, -50469.6131312386, -187500.02235174447, -187500.02235174447, 6506.548107450975, -20275.64737506478, 0.626, -0.774, 0.222, 192.0, 0.0, 0.0, 0.0, 0.0, 0.0, 0.0, 0.0, 0.0, 0.0, 1.6635907689122388E9, 0.0, 2022-09-19 17:32:48.912
14.0, -2303.1684521637503, 14349.17173971793, -24590.472828206162, -50897.9619619801, -187500.02235174447, -187500.02235174447, 6339.222948458547, -19726.599124264612, 0.63, -0.772, 0.218, 192.0, 19.0, 176.0, 231.0, 224.0, 6.0, 208.0, 0.0, 0.0, 0.0, 1.6635907689162252E9, 0.0, 2022-09-19 17:32:48.916
15.0, -2043.5305885709035, 14358.112437500053, -23828.7253771693, -51011.62058253534, -187500.02235174447, -187500.02235174447, 6321.900346505684, -19004.593074869284, 0.63, -0.772, 0.218, 192.0, 0.0, 0.0, 0.0, 0.0, 0.0, 0.0, 0.0, 0.0, 0.0, 1.6635907689202244E9, 0.0, 2022-09-19 17:32:48.920
16.0, -1851.0820688107096, 14436.879984960555, -24025.04074872026, -50743.69022174957, -187500.02235174447, -187500.02235174447, 6439.112894429314, -19105.26533189599, 0.63, -0.772, 0.218, 192.0, 0.0, 0.0, 0.0, 0.0, 0.0, 0.0, 0.0, 0.0, 0.0, 1.6635907689243088E9, 0.0, 2022-09-19 17:32:48.924
17.0, -1889.2588483403742, 14479.258892447817, -24641.658323008814, -50498.37982635258, -187500.02235174447, -187500.02235174447, 6524.876537904327, -19633.794681286177, 0.63, -0.772, 0.218, 192.0, 0.0, 0.0, 0.0, 0.0, 0.0, 0.0, 0.0, 0.0, 0.0, 1.663590768929351E9, 0.0, 2022-09-19 17:32:48.929
18.0, -2172.5001540780254, 14428.587487767636, -25333.265999944928, -50475.46928828589, -187500.02235174447, -187500.02235174447, 6497.272133502023, -20291.315947927946, 0.63, -0.772, 0.218, 192.0, 0.0, 0.0, 0.0, 0.0, 0.0, 0.0, 0.0, 0.0, 0.0, 1.6635907689322577E9, 0.0, 2022-09-19 17:32:48.932
19.0, -2312.891461001809, 14326.887050495989, -24587.96943282717, -50911.194194697644, -187500.02235174447, -187500.02235174447, 6320.20161392708, -19723.76045271879, 0.63, -0.772, 0.218, 192.0, 0.0, 0.0, 0.0, 0.0, 0.0, 0.0, 0.0, 0.0, 0.0, 1.6635907689362752E9, 0.0, 2022-09-19 17:32:48.936
20.0, -2047.799771761867, 14350.401085662972, -23836.77200517321, -51008.06665516695, -187500.02235174447, -187500.02235174447, 6312.087930689804, -19014.539601151897, 0.63, -0.772, 0.218, 192.0, 0.0, 0.0, 0.0, 0.0, 0.0, 0.0, 0.0, 0.0, 0.0, 1.663590768940256E9, 0.0, 2022-09-19 17:32:48.940
21.0, -1863.1743625610309, 14434.086016903642, -24034.04850173575, -50738.07993389129, -187500.02235174447, -187500.02235174447, 6433.301440870934, -19134.747282832537, 0.63, -0.772, 0.218, 192.0, 0.0, 0.0, 0.0, 0.0, 0.0, 0.0, 0.0, 0.0, 0.0, 1.6635907689442916E9, 0.0, 2022-09-19 17:32:48.944
22.0, -1909.5989357947035, 14473.536845867258, -24666.848739009947, -50501.44201534295, -187500.02235174447, -187500.02235174447, 6513.633610443308, -19677.537045185214, 0.63, -0.772, 0.218, 192.0, 0.0, 0.0, 0.0, 0.0, 0.0, 0.0, 0.0, 0.0, 0.0, 1.6635907689483223E9, 0.0, 2022-09-19 17:32:48.948
23.0, -2187.1405466962515, 14430.755606979801, -25330.38262491019, -50484.72291049039, -187500.02235174447, -187500.02235174447, 6495.394586967777, -20293.886398540308, 0.63, -0.772, 0.218, 192.0, 0.0, 0.0, 0.0, 0.0, 0.0, 0.0, 0.0, 0.0, 0.0, 1.663590768953286E9, 0.0, 2022-09-19 17:32:48.953
24.0, -2307.9740772216414, 14336.833576778601, -24562.53314763703, -50915.955116266625, -187500.02235174447, -187500.02235174447, 6324.359038395767, -19698.011243106277, 0.63, -0.772, 0.218, 192.0, 0.0, 0.0, 0.0, 0.0, 0.0, 0.0, 0.0, 0.0, 0.0, 1.663590768956315E9, 0.0, 2022-09-19 17:32:48.956
25.0, -2040.4013443471606, 14351.228100207818, -23827.339569013067, -51006.99377143309, -187500.02235174447, -187500.02235174447, 6320.045151715894, -19002.357900423754, 0.63, -0.776, 0.23, 192.0, 19.0, 176.0, 231.0, 192.0, 7.0, 48.0, 0.0, 0.0, 0.0, 1.6635907689593709E9, 0.0, 2022-09-19 17:32:48.959
26.0, -1855.7982868907795, 14428.81100521219, -24037.021283748305, -50734.414247800625, -187500.02235174447, -187500.02235174447, 6442.756228775529, -19124.063148982903, 0.63, -0.776, 0.23, 192.0, 0.0, 0.0, 0.0, 0.0, 0.0, 0.0, 0.0, 0.0, 0.0, 1.6635907689643028E9, 0.0, 2022-09-19 17:32:48.964
27.0, -1895.9196681880558, 14473.872122034089, -24669.866224511414, -50492.791890238754, -187500.02235174447, -187500.02235174447, 6527.581098983419, -19667.568167158148, 0.63, -0.776, 0.23, 192.0, 0.0, 0.0, 0.0, 0.0, 0.0, 0.0, 0.0, 0.0, 0.0, 1.6635907689683292E9, 0.0, 2022-09-19 17:32:48.968
28.0, -2174.087127934352, 14429.392150568028, -25322.559514350836, -50483.56061977871, -187500.02235174447, -187500.02235174447, 6502.457738215654, -20290.77950606102, 0.63, -0.776, 0.23, 192.0, 0.0, 0.0, 0.0, 0.0, 0.0, 0.0, 0.0, 0.0, 0.0, 1.6635907689723735E9, 0.0, 2022-09-19 17:32:48.972
29.0, -2300.97798120713, 14330.12805344201, -24535.62164731284, -50919.71020933512, -187500.02235174447, -187500.02235174447, 6330.081084976326, -19669.021030547745, 0.63, -0.776, 0.23, 192.0, 0.0, 0.0, 0.0, 0.0, 0.0, 0.0, 0.0, 0.0, 0.0, 1.6635907689763565E9, 0.0, 2022-09-19 17:32:48.976
30.0, -2035.908643711644, 14351.40691416346, -23828.613618447023, -51000.91409694125, -187500.02235174447, -187500.02235174447, 6327.845910530796, -18983.649490314663, 0.63, -0.776, 0.23, 192.0, 0.0, 0.0, 0.0, 0.0, 0.0, 0.0, 0.0, 0.0, 0.0, 1.6635907689803529E9, 0.0, 2022-09-19 17:32:48.980
31.0, -1852.199656033475, 14436.656467516003, -24047.593658875663, -50727.32874480829, -187500.02235174447, -187500.02235174447, 6451.406353879733, -19119.4139861362, 0.63, -0.776, 0.23, 192.0, 0.0, 0.0, 0.0, 0.0, 0.0, 0.0, 0.0, 0.0, 0.0, 1.6635907689843829E9, 0.0, 2022-09-19 17:32:48.984
32.0, -1901.1499763905974, 14473.916825523, -24693.26850095612, -50489.23796287036, -187500.02235174447, -187500.02235174447, 6534.599546742385, -19684.197865032897, 0.63, -0.776, 0.23, 192.0, 0.0, 0.0, 0.0, 0.0, 0.0, 0.0, 0.0, 0.0, 0.0, 1.663590768987389E9, 0.0, 2022-09-19 17:32:48.987
33.0, -2187.922857752187, 14416.919877161967, -25335.12119473472, -50488.83563147016, -187500.02235174447, -187500.02235174447, 6505.721092906129, -20292.187665961705, 0.63, -0.776, 0.23, 192.0, 0.0, 0.0, 0.0, 0.0, 0.0, 0.0, 0.0, 0.0, 0.0, 1.6635907689923563E9, 0.0, 2022-09-19 17:32:48.992
34.0, -2301.6932370297, 14317.812242247135, -24526.815059997447, -50925.40990417122, -187500.02235174447, -187500.02235174447, 6337.390105413211, -19661.42143743294, 0.63, -0.776, 0.23, 192.0, 0.0, 0.0, 0.0, 0.0, 0.0, 0.0, 0.0, 0.0, 0.0, 1.663590768996357E9, 0.0, 2022-09-19 17:32:48.996
35.0, -2036.6686030231242, 14334.419588377428, -23836.369673773013, -50999.8859166963, -187500.02235174447, -187500.02235174447, 6334.3949716562, -19003.028452757415, 0.622, -0.772, 0.228, 192.0, 19.0, 112.0, 231.0, 224.0, 7.0, 32.0, 0.0, 0.0, 0.0, 1.6635907690003672E9, 0.0, 2022-09-19 17:32:49.000
36.0, -1861.4979817268827, 14413.589467238126, -24070.303031242256, -50730.43563728758, -187500.02235174447, -187500.02235174447, 6448.925310245194, -19145.967858549102, 0.622, -0.772, 0.228, 192.0, 0.0, 0.0, 0.0, 0.0, 0.0, 0.0, 0.0, 0.0, 0.0, 1.6635907690043645E9, 0.0, 2022-09-19 17:32:49.004
37.0, -1916.0809416867426, 14452.570909568181, -24723.353948992964, -50496.21170714041, -187500.02235174447, -187500.02235174447, 6529.682162962218, -19709.81296417868, 0.622, -0.772, 0.228, 192.0, 0.0, 0.0, 0.0, 0.0, 0.0, 0.0, 0.0, 0.0, 0.0, 1.6635907690084243E9, 0.0, 2022-09-19 17:32:49.008
38.0, -2199.9033927802316, 14405.587542723126, -25346.00649428445, -50504.92888747798, -187500.02235174447, -187500.02235174447, 6502.86006961585, -20306.64924462429, 0.622, -0.772, 0.228, 192.0, 0.0, 0.0, 0.0, 0.0, 0.0, 0.0, 0.0, 0.0, 0.0, 1.663590769012448E9, 0.0, 2022-09-19 17:32:49.012
39.0, -2310.142196433806, 14313.140727655975, -24520.064833171946, -50944.498293936056, -187500.02235174447, -187500.02235174447, 6331.601003599287, -19652.74896058428, 0.622, -0.772, 0.228, 192.0, 0.0, 0.0, 0.0, 0.0, 0.0, 0.0, 0.0, 0.0, 0.0, 1.663590769015442E9, 0.0, 2022-09-19 17:32:49.015
40.0, -2034.388725088683, 14339.627544835514, -23839.655380207943, -51003.75276848707, -187500.02235174447, -187500.02235174447, 6336.518387379455, -18998.222827699523, 0.622, -0.772, 0.228, 192.0, 0.0, 0.0, 0.0, 0.0, 0.0, 0.0, 0.0, 0.0, 0.0, 1.663590769019446E9, 0.0, 2022-09-19 17:32:49.019
41.0, -1863.4425834944946, 14420.965542908376, -24075.645098167075, -50729.98860239847, -187500.02235174447, -187500.02235174447, 6452.434534124677, -19144.93967830416, 0.622, -0.772, 0.228, 192.0, 0.0, 0.0, 0.0, 0.0, 0.0, 0.0, 0.0, 0.0, 0.0, 1.663590769024477E9, 0.0, 2022-09-19 17:32:49.024
42.0, -1917.198528909508, 14461.042220716743, -24729.768899651637, -50492.81424198321, -187500.02235174447, -187500.02235174447, 6535.67243047624, -19710.639978723524, 0.622, -0.772, 0.228, 192.0, 0.0, 0.0, 0.0, 0.0, 0.0, 0.0, 0.0, 0.0, 0.0, 1.6635907690283995E9, 0.0, 2022-09-19 17:32:49.028
43.0, -2199.38930265776, 14408.94030439142, -25343.011360527442, -50511.34383813666, -187500.02235174447, -187500.02235174447, 6494.545220678476, -20301.173067232736, 0.622, -0.772, 0.228, 192.0, 0.0, 0.0, 0.0, 0.0, 0.0, 0.0, 0.0, 0.0, 0.0, 1.6635907690324497E9, 0.0, 2022-09-19 17:32:49.032
44.0, -2300.8215189959433, 14313.833631734089, -24498.294234072477, -50954.1765992852, -187500.02235174447, -187500.02235174447, 6319.843986015795, -19634.912268508946, 0.622, -0.772, 0.228, 192.0, 0.0, 0.0, 0.0, 0.0, 0.0, 0.0, 0.0, 0.0, 0.0, 1.6635907690364652E9, 0.0, 2022-09-19 17:32:49.036
45.0, -2025.5374342843813, 14338.889937268488, -23836.168508072915, -51008.4913383116, -187500.02235174447, -187500.02235174447, 6328.695276820097, -18999.027490499913, 0.624, -0.774, 0.228, 192.0, 19.0, 128.0, 231.0, 208.0, 7.0, 32.0, 0.0, 0.0, 0.0, 1.6635907690404932E9, 0.0, 2022-09-19 17:32:49.040
46.0, -1854.881865368112, 14412.76245269328, -24081.881234870107, -50739.86807344772, -187500.02235174447, -187500.02235174447, 6444.142036931758, -19157.479006943584, 0.624, -0.774, 0.228, 192.0, 0.0, 0.0, 0.0, 0.0, 0.0, 0.0, 0.0, 0.0, 0.0, 1.6635907690434847E9, 0.0, 2022-09-19 17:32:49.043
47.0, -1908.61545903867, 14448.61465079959, -24748.365551038452, -50506.58291656768, -187500.02235174447, -187500.02235174447, 6529.637459473308, -19728.387263821038, 0.624, -0.774, 0.228, 192.0, 0.0, 0.0, 0.0, 0.0, 0.0, 0.0, 0.0, 0.0, 0.0, 1.6635907690475338E9, 0.0, 2022-09-19 17:32:49.047
48.0, -2196.505927623025, 14395.618664696058, -25339.59154362578, -50533.203844213946, -187500.02235174447, -187500.02235174447, 6493.718206133629, -20294.579302618422, 0.624, -0.774, 0.228, 192.0, 0.0, 0.0, 0.0, 0.0, 0.0, 0.0, 0.0, 0.0, 0.0, 1.6635907690526304E9, 0.0, 2022-09-19 17:32:49.052
49.0, -2297.3569986053703, 14298.902666437945, -24480.502245486052, -50974.539038483985, -187500.02235174447, -187500.02235174447, 6323.487320362011, -19617.053224689153, 0.624, -0.774, 0.228, 192.0, 0.0, 0.0, 0.0, 0.0, 0.0, 0.0, 0.0, 0.0, 0.0, 1.6635907690565393E9, 0.0, 2022-09-19 17:32:49.056
50.0, -2020.6647539931244, 14323.64604754997, -23834.358016772036, -51016.135634915314, -187500.02235174447, -187500.02235174447, 6336.0713524903485, -18991.80787704085, 0.624, -0.774, 0.228, 192.0, 0.0, 0.0, 0.0, 0.0, 0.0, 0.0, 0.0, 0.0, 0.0, 1.663590769060598E9, 0.0, 2022-09-19 17:32:49.060
51.0, -1850.8809031106118, 14398.56909496416, -24083.5352639598, -50739.55514902534, -187500.02235174447, -187500.02235174447, 6453.261548669523, -19149.477082428584, 0.624, -0.774, 0.228, 192.0, 0.0, 0.0, 0.0, 0.0, 0.0, 0.0, 0.0, 0.0, 0.0, 1.663590769064597E9, 0.0, 2022-09-19 17:32:49.064
52.0, -1905.3744560926505, 14434.063665159187, -24756.65804823137, -50498.33512286367, -187500.02235174447, -187500.02235174447, 6535.1806920982235, -19728.789595221235, 0.624, -0.774, 0.228, 192.0, 0.0, 0.0, 0.0, 0.0, 0.0, 0.0, 0.0, 0.0, 0.0, 1.6635907690685992E9, 0.0, 2022-09-19 17:32:49.068
53.0, -2195.2542299335278, 14376.284405742217, -25340.48561340399, -50530.4769313904, -187500.02235174447, -187500.02235174447, 6488.644360142274, -20304.190552734202, 0.624, -0.774, 0.228, 192.0, 0.0, 0.0, 0.0, 0.0, 0.0, 0.0, 0.0, 0.0, 0.0, 1.663590769071601E9, 0.0, 2022-09-19 17:32:49.071
54.0, -2283.8788966988204, 14285.759840698223, -24465.817149378916, -50971.119221582325, -187500.02235174447, -187500.02235174447, 6319.195785426591, -19609.431279829896, 0.624, -0.774, 0.228, 192.0, 0.0, 0.0, 0.0, 0.0, 0.0, 0.0, 0.0, 0.0, 0.0, 1.6635907690756145E9, 0.0, 2022-09-19 17:32:49.075
55.0, -2001.9786956284877, 14317.253448635753, -23845.62329597751, -51000.35530332987, -187500.02235174447, -187500.02235174447, 6336.384276912722, -18996.121763720723, 0.624, -0.774, 0.228, 192.0, 19.0, 128.0, 231.0, 208.0, 7.0, 32.0, 0.0, 0.0, 0.0, 1.6635907690796278E9, 0.0, 2022-09-19 17:32:49.079
56.0, -1837.1122285261429, 14396.713900174369, -24102.802467680274, -50723.79716918435, -187500.02235174447, -187500.02235174447, 6455.139095203769, -19168.923100104705, 0.624, -0.774, 0.228, 192.0, 0.0, 0.0, 0.0, 0.0, 0.0, 0.0, 0.0, 0.0, 0.0, 1.6635907690845647E9, 0.0, 2022-09-19 17:32:49.084
57.0, -1903.51926130286, 14432.90137444751, -24779.121551408953, -50485.90755294652, -187500.02235174447, -187500.02235174447, 6538.980488655626, -19743.362932606095, 0.624, -0.774, 0.228, 192.0, 0.0, 0.0, 0.0, 0.0, 0.0, 0.0, 0.0, 0.0, 0.0, 1.6635907690885627E9, 0.0, 2022-09-19 17:32:49.088
58.0, -2203.7478928265446, 14374.60802490807, -25332.215467955528, -50528.88995753408, -187500.02235174447, -187500.02235174447, 6493.3829299668, -20282.844636779384, 0.624, -0.774, 0.228, 192.0, 0.0, 0.0, 0.0, 0.0, 0.0, 0.0, 0.0, 0.0, 0.0, 1.6635907690926745E9, 0.0, 2022-09-19 17:32:49.092
59.0, -2286.963437433653, 14284.508143008727, -24438.860945565815, -50970.73924192658, -187500.02235174447, -187500.02235174447, 6323.733189551019, -19569.19813981034, 0.624, -0.774, 0.228, 192.0, 0.0, 0.0, 0.0, 0.0, 0.0, 0.0, 0.0, 0.0, 0.0, 1.6635907690956018E9, 0.0, 2022-09-19 17:32:49.095
60.0, -1994.3120472803173, 14327.490547596282, -23827.987769602274, -50990.207611347156, -187500.02235174447, -187500.02235174447, 6345.950823539594, -18977.927443734105, 0.624, -0.774, 0.228, 192.0, 0.0, 0.0, 0.0, 0.0, 0.0, 0.0, 0.0, 0.0, 0.0, 1.66359076909961E9, 0.0, 2022-09-19 17:32:49.099
61.0, -1835.9052343255562, 14409.387339280527, -24102.646005469087, -50717.44927375904, -187500.02235174447, -187500.02235174447, 6457.173103949202, -19158.12720753279, 0.624, -0.774, 0.228, 192.0, 0.0, 0.0, 0.0, 0.0, 0.0, 0.0, 0.0, 0.0, 0.0, 1.6635907691035883E9, 0.0, 2022-09-19 17:32:49.103
62.0, -1905.1285869036421, 14444.47957807536, -24796.399449872908, -50488.43330006997, -187500.02235174447, -187500.02235174447, 6533.370200797343, -19764.731200305367, 0.624, -0.774, 0.228, 192.0, 0.0, 0.0, 0.0, 0.0, 0.0, 0.0, 0.0, 0.0, 0.0, 1.6635907691076467E9, 0.0, 2022-09-19 17:32:49.107
63.0, -2194.6954363221453, 14390.030728582231, -25322.76068005093, -50538.23298671639, -187500.02235174447, -187500.02235174447, 6490.164278765235, -20292.165314217247, 0.624, -0.774, 0.228, 192.0, 0.0, 0.0, 0.0, 0.0, 0.0, 0.0, 0.0, 0.0, 0.0, 1.6635907691126397E9, 0.0, 2022-09-19 17:32:49.112
64.0, -2265.818687178932, 14299.416756560417, -24414.139916198244, -50977.04243386298, -187500.02235174447, -187500.02235174447, 6325.25310817398, -19558.022267582688, 0.624, -0.774, 0.228, 192.0, 0.0, 0.0, 0.0, 0.0, 0.0, 0.0, 0.0, 0.0, 0.0, 1.663590769116635E9, 0.0, 2022-09-19 17:32:49.116
65.0, -1986.4889367209598, 14337.481777367804, -23829.552391714144, -50990.85581193636, -187500.02235174447, -187500.02235174447, 6345.101457250293, -18973.971184965514, 0.626, -0.772, 0.224, 192.0, 19.0, 144.0, 231.0, 224.0, 7.0, 0.0, 0.0, 0.0, 0.0, 1.6635907691205797E9, 0.0, 2022-09-19 17:32:49.120
66.0, -1825.8916528095785, 14422.172537108963, -24099.650871712074, -50714.342381279756, -187500.02235174447, -187500.02235174447, 6461.062307484425, -19163.759847135527, 0.626, -0.772, 0.224, 192.0, 0.0, 0.0, 0.0, 0.0, 0.0, 0.0, 0.0, 0.0, 0.0, 1.663590769123782E9, 0.0, 2022-09-19 17:32:49.123
67.0, -1894.2879908428183, 14459.455246860416, -24792.934929482333, -50475.04460514124, -187500.02235174447, -187500.02235174447, 6544.367259069355, -19766.742857306344, 0.626, -0.772, 0.224, 192.0, 0.0, 0.0, 0.0, 0.0, 0.0, 0.0, 0.0, 0.0, 0.0, 1.6635907691276836E9, 0.0, 2022-09-19 17:32:49.127
68.0, -2193.153165954729, 14400.938379876421, -25313.305892146338, -50531.99685001336, -187500.02235174447, -187500.02235174447, 6489.069043286925, -20275.133284942305, 0.626, -0.772, 0.224, 192.0, 0.0, 0.0, 0.0, 0.0, 0.0, 0.0, 0.0, 0.0, 0.0, 1.6635907691316743E9, 0.0, 2022-09-19 17:32:49.131
69.0, -2266.6233499793234, 14307.30692235314, -24398.24782589052, -50976.39423327378, -187500.02235174447, -187500.02235174447, 6317.742922036997, -19533.122424259476, 0.626, -0.772, 0.224, 192.0, 0.0, 0.0, 0.0, 0.0, 0.0, 0.0, 0.0, 0.0, 0.0, 1.6635907691356435E9, 0.0, 2022-09-19 17:32:49.135
70.0, -1985.5948669427476, 14343.539100115193, -23830.245295792258, -50980.50695425355, -187500.02235174447, -187500.02235174447, 6344.386201427723, -18962.527091804397, 0.626, -0.772, 0.224, 192.0, 0.0, 0.0, 0.0, 0.0, 0.0, 0.0, 0.0, 0.0, 0.0, 1.6635907691406803E9, 0.0, 2022-09-19 17:32:49.140
71.0, -1838.0062983043551, 14417.836298684633, -24108.30099681628, -50706.76513990941, -187500.02235174447, -187500.02235174447, 6462.738688318574, -19148.091274272356, 0.626, -0.772, 0.224, 192.0, 0.0, 0.0, 0.0, 0.0, 0.0, 0.0, 0.0, 0.0, 0.0, 1.6635907691447291E9, 0.0, 2022-09-19 17:32:49.144
72.0, -1918.2714126433627, 14445.664220531491, -24816.828944305056, -50475.82691619718, -187500.02235174447, -187500.02235174447, 6538.86872993335, -19757.57864207967, 0.626, -0.772, 0.224, 192.0, 0.0, 0.0, 0.0, 0.0, 0.0, 0.0, 0.0, 0.0, 0.0, 1.6635907691477087E9, 0.0, 2022-09-19 17:32:49.147
73.0, -2215.639020876768, 14382.095859300598, -25320.10082246075, -50545.58671064219, -187500.02235174447, -187500.02235174447, 6483.592865895375, -20251.99922943106, 0.626, -0.772, 0.224, 192.0, 0.0, 0.0, 0.0, 0.0, 0.0, 0.0, 0.0, 0.0, 0.0, 1.6635907691516764E9, 0.0, 2022-09-19 17:32:49.151
74.0, -2273.977073905119, 14290.341948311561, -24377.01366865798, -50988.039492134994, -187500.02235174447, -187500.02235174447, 6320.983924983016, -19502.43347912234, 0.626, -0.772, 0.224, 192.0, 0.0, 0.0, 0.0, 0.0, 0.0, 0.0, 0.0, 0.0, 0.0, 1.663590769155691E9, 0.0, 2022-09-19 17:32:49.155
75.0, -1988.7241111664905, 14325.992980717778, -23836.593191217566, -50984.2843990665, -187500.02235174447, -187500.02235174447, 6347.649556118197, -18963.197644138058, 0.622, -0.776, 0.224, 192.0, 19.0, 112.0, 231.0, 192.0, 7.0, 0.0, 0.0, 0.0, 0.0, 1.6635907691597319E9, 0.0, 2022-09-19 17:32:49.159
76.0, -1849.428039721017, 14402.972388621854, -24128.998712181892, -50712.442483001054, -187500.02235174447, -187500.02235174447, 6455.7649440485175, -19165.927966347692, 0.622, -0.776, 0.224, 192.0, 0.0, 0.0, 0.0, 0.0, 0.0, 0.0, 0.0, 0.0, 0.0, 1.663590769163695E9, 0.0, 2022-09-19 17:32:49.163
77.0, -1937.225691941463, 14433.773092481268, -24838.666598637894, -50482.93477093396, -187500.02235174447, -187500.02235174447, 6535.9406514097045, -19767.27929917327, 0.622, -0.776, 0.224, 192.0, 0.0, 0.0, 0.0, 0.0, 0.0, 0.0, 0.0, 0.0, 0.0, 1.66359076916878E9, 0.0, 2022-09-19 17:32:49.168
78.0, -2227.284279737983, 14379.056022054676, -25316.61395032572, -50555.48853343589, -187500.02235174447, -187500.02235174447, 6481.6482641277635, -20242.231517104094, 0.622, -0.776, 0.224, 192.0, 0.0, 0.0, 0.0, 0.0, 0.0, 0.0, 0.0, 0.0, 0.0, 1.6635907691726918E9, 0.0, 2022-09-19 17:32:49.172
79.0, -2282.761309476055, 14297.047471648155, -24375.4043430572, -50993.359207315356, -187500.02235174447, -187500.02235174447, 6312.758483023463, -19487.860141737478, 0.622, -0.776, 0.224, 192.0, 0.0, 0.0, 0.0, 0.0, 0.0, 0.0, 0.0, 0.0, 0.0, 1.66359076917571E9, 0.0, 2022-09-19 17:32:49.175
80.0, -2001.7998816728452, 14334.9336784999, -23851.322990813613, -50984.35145429987, -187500.02235174447, -187500.02235174447, 6342.307489193379, -18972.29480413137, 0.622, -0.776, 0.224, 192.0, 0.0, 0.0, 0.0, 0.0, 0.0, 0.0, 0.0, 0.0, 0.0, 1.6635907691796944E9, 0.0, 2022-09-19 17:32:49.179
81.0, -1856.625301435626, 14412.963618393376, -24138.408796597578, -50714.58825046876, -187500.02235174447, -187500.02235174447, 6458.245987683057, -19173.84048388487, 0.622, -0.776, 0.224, 192.0, 0.0, 0.0, 0.0, 0.0, 0.0, 0.0, 0.0, 0.0, 0.0, 1.663590769183725E9, 0.0, 2022-09-19 17:32:49.183
82.0, -1950.9943665259323, 14443.76432225279, -24860.817177393103, -50488.65681751452, -187500.02235174447, -187500.02235174447, 6532.72200020814, -19794.86135183112, 0.622, -0.776, 0.224, 192.0, 0.0, 0.0, 0.0, 0.0, 0.0, 0.0, 0.0, 0.0, 0.0, 1.6635907691877415E9, 0.0, 2022-09-19 17:32:49.187
83.0, -2256.8109341634436, 14377.022013309243, -25329.376796409702, -50572.989949344395, -187500.02235174447, -187500.02235174447, 6467.276092443, -20258.43653183419, 0.622, -0.776, 0.224, 192.0, 0.0, 0.0, 0.0, 0.0, 0.0, 0.0, 0.0, 0.0, 0.0, 1.6635907691918073E9, 0.0, 2022-09-19 17:32:49.191
84.0, -2290.472661313136, 14299.617922260515, -24364.11671210727, -51006.278515610524, -187500.02235174447, -187500.02235174447, 6302.655494529664, -19474.739667742215, 0.622, -0.776, 0.224, 192.0, 0.0, 0.0, 0.0, 0.0, 0.0, 0.0, 0.0, 0.0, 0.0, 1.6635907691958025E9, 0.0, 2022-09-19 17:32:49.195
85.0, -2004.3479805407503, 14340.163986702442, -23852.820557692117, -50980.23873332009, -187500.02235174447, -187500.02235174447, 6337.63597460222, -18955.530995789886, 0.622, -0.78, 0.228, 192.0, 19.0, 112.0, 231.0, 160.0, 7.0, 32.0, 0.0, 0.0, 0.0, 1.6635907692007604E9, 0.0, 2022-09-19 17:32:49.200
86.0, -1857.2287985359192, 14417.18809809543, -24149.092930447216, -50707.88272713217, -187500.02235174447, -187500.02235174447, 6452.479237613587, -19166.822036125905, 0.622, -0.78, 0.228, 192.0, 0.0, 0.0, 0.0, 0.0, 0.0, 0.0, 0.0, 0.0, 0.0, 1.6635907692037547E9, 0.0, 2022-09-19 17:32:49.203
87.0, -1946.4122589125943, 14452.414447356994, -24874.898776399947, -50476.18454410846, -187500.02235174447, -187500.02235174447, 6530.240956573601, -19790.279244217785, 0.622, -0.78, 0.228, 192.0, 0.0, 0.0, 0.0, 0.0, 0.0, 0.0, 0.0, 0.0, 0.0, 1.6635907692078402E9, 0.0, 2022-09-19 17:32:49.207
88.0, -2243.1987217901615, 14392.8470483836, -25310.86955200071, -50563.49045795089, -187500.02235174447, -187500.02235174447, 6470.405336666744, -20237.6270577463, 0.622, -0.78, 0.228, 192.0, 0.0, 0.0, 0.0, 0.0, 0.0, 0.0, 0.0, 0.0, 0.0, 1.663590769211804E9, 0.0, 2022-09-19 17:32:49.211
89.0, -2278.447422796181, 14314.079500923099, -24337.786357138917, -51003.01516092005, -187500.02235174447, -187500.02235174447, 6306.120014920237, -19458.266432078653, 0.622, -0.78, 0.228, 192.0, 0.0, 0.0, 0.0, 0.0, 0.0, 0.0, 0.0, 0.0, 0.0, 1.6635907692157743E9, 0.0, 2022-09-19 17:32:49.215
90.0, -1991.518079223404, 14361.17462649043, -23851.367694302524, -50972.57208497192, -187500.02235174447, -187500.02235174447, 6343.849759560795, -18960.470731314508, 0.622, -0.78, 0.228, 192.0, 0.0, 0.0, 0.0, 0.0, 0.0, 0.0, 0.0, 0.0, 0.0, 1.6635907692197719E9, 0.0, 2022-09-19 17:32:49.219
91.0, -1855.0606793237544, 14440.366857095583, -24154.12207294966, -50698.383235738664, -187500.02235174447, -187500.02235174447, 6457.150752204747, -19170.80064663895, 0.622, -0.78, 0.228, 192.0, 0.0, 0.0, 0.0, 0.0, 0.0, 0.0, 0.0, 0.0, 0.0, 1.663590769223801E9, 0.0, 2022-09-19 17:32:49.223
92.0, -1947.4180874130832, 14471.234616188362, -24888.10865737303, -50472.943541162436, -187500.02235174447, -187500.02235174447, 6530.062142617959, -19809.144116538064, 0.622, -0.78, 0.228, 192.0, 0.0, 0.0, 0.0, 0.0, 0.0, 0.0, 0.0, 0.0, 0.0, 1.663590769228799E9, 0.0, 2022-09-19 17:32:49.228
93.0, -2246.8420561363764, 14404.447603755905, -25304.38754610867, -50578.17555405803, -187500.02235174447, -187500.02235174447, 6461.442287140166, -20242.991476415573, 0.622, -0.78, 0.228, 192.0, 0.0, 0.0, 0.0, 0.0, 0.0, 0.0, 0.0, 0.0, 0.0, 1.6635907692318952E9, 0.0, 2022-09-19 17:32:49.231
94.0, -2269.8196494364324, 14327.423492362917, -24318.608560396264, -51014.61571629235, -187500.02235174447, -187500.02235174447, 6302.4990323184775, -19444.922440638835, 0.622, -0.78, 0.228, 192.0, 0.0, 0.0, 0.0, 0.0, 0.0, 0.0, 0.0, 0.0, 0.0, 1.6635907692358477E9, 0.0, 2022-09-19 17:32:49.235
95.0, -1981.3033320073287, 14375.83737085311, -23843.142252342972, -50974.71785243963, -187500.02235174447, -187500.02235174447, 6350.801152086396, -18948.959582920026, 0.618, -0.78, 0.226, 192.0, 19.0, 80.0, 231.0, 160.0, 7.0, 16.0, 0.0, 0.0, 0.0, 1.6635907692398088E9, 0.0, 2022-09-19 17:32:49.239
96.0, -1853.7866298898018, 14446.088903676142, -24149.40585486959, -50701.065445073305, -187500.02235174447, -187500.02235174447, 6467.007871509537, -19181.28361478849, 0.618, -0.78, 0.226, 192.0, 0.0, 0.0, 0.0, 0.0, 0.0, 0.0, 0.0, 0.0, 0.0, 1.66359076924387E9, 0.0, 2022-09-19 17:32:49.243
97.0, -1951.3296426927618, 14476.353165668628, -24898.74808773376, -50476.25159934183, -187500.02235174447, -187500.02235174447, 6536.566500254453, -19834.69216045048, 0.618, -0.78, 0.226, 192.0, 0.0, 0.0, 0.0, 0.0, 0.0, 0.0, 0.0, 0.0, 0.0, 1.6635907692478075E9, 0.0, 2022-09-19 17:32:49.247
98.0, -2245.0762683244075, 14416.808118439689, -25287.6684412561, -50584.501097738874, -187500.02235174447, -187500.02235174447, 6470.450040155654, -20223.38899652827, 0.618, -0.78, 0.226, 192.0, 0.0, 0.0, 0.0, 0.0, 0.0, 0.0, 0.0, 0.0, 0.0, 1.6635907692519555E9, 0.0, 2022-09-19 17:32:49.251
99.0, -2264.879913911809, 14340.432207635906, -24292.18879845009, -51014.70512327017, -187500.02235174447, -187500.02235174447, 6314.568974324343, -19404.644597130373, 0.618, -0.78, 0.226, 192.0, 0.0, 0.0, 0.0, 0.0, 0.0, 0.0, 0.0, 0.0, 0.0, 1.663590769256868E9, 0.0, 2022-09-19 17:32:49.256
100.0, -1978.0623290613091, 14391.528295460737, -23847.81376693413, -50964.056070334445, -187500.02235174447, -187500.02235174447, 6353.885692821228, -18942.36581830571, 0.618, -0.78, 0.226, 192.0, 0.0, 0.0, 0.0, 0.0, 0.0, 0.0, 0.0, 0.0, 0.0, 1.6635907692598882E9, 0.0, 2022-09-19 17:32:49.259
101.0, -1853.8089816342572, 14465.221996929884, -24171.824654558262, -50695.92454384858, -187500.02235174447, -187500.02235174447, 6459.073002227903, -19178.89197813177, 0.618, -0.78, 0.226, 192.0, 0.0, 0.0, 0.0, 0.0, 0.0, 0.0, 0.0, 0.0, 0.0, 1.6635907692638834E9, 0.0, 2022-09-19 17:32:49.263
102.0, -1955.487067161449, 14492.15584899853, -24913.54494256317, -50475.58104700816, -187500.02235174447, -187500.02235174447, 6534.91247116476, -19829.998294114863, 0.618, -0.78, 0.226, 192.0, 0.0, 0.0, 0.0, 0.0, 0.0, 0.0, 0.0, 0.0, 0.0, 1.6635907692678905E9, 0.0, 2022-09-19 17:32:49.267
103.0, -2256.5650649744352, 14417.590429495625, -25278.258356840415, -50596.28046706683, -187500.02235174447, -187500.02235174447, 6464.884455786283, -20217.24226680306, 0.618, -0.78, 0.226, 192.0, 0.0, 0.0, 0.0, 0.0, 0.0, 0.0, 0.0, 0.0, 0.0, 1.6635907692720268E9, 0.0, 2022-09-19 17:32:49.272
104.0, -2266.176315090217, 14339.471082624326, -24279.560062832843, -51028.56320483246, -187500.02235174447, -187500.02235174447, 6304.8459654862845, -19397.55909413804, 0.618, -0.78, 0.226, 192.0, 0.0, 0.0, 0.0, 0.0, 0.0, 0.0, 0.0, 0.0, 0.0, 1.6635907692759352E9, 0.0, 2022-09-19 17:32:49.275
105.0, -1973.6366836591583, 14395.439850740417, -23847.947877400864, -50968.99580585907, -187500.02235174447, -187500.02235174447, 6354.511541665976, -18947.149091619147, 0.628, -0.778, 0.228, 192.0, 19.0, 160.0, 231.0, 176.0, 7.0, 32.0, 0.0, 0.0, 0.0, 1.663590769279896E9, 0.0, 2022-09-19 17:32:49.279
106.0, -1848.2210455204304, 14474.229749945373, -24166.951974267005, -50696.2151165265, -187500.02235174447, -187500.02235174447, 6473.221656468112, -19191.27484456001, 0.628, -0.778, 0.228, 192.0, 0.0, 0.0, 0.0, 0.0, 0.0, 0.0, 0.0, 0.0, 0.0, 1.6635907692849104E9, 0.0, 2022-09-19 17:32:49.284
107.0, -1957.4316689290606, 14498.39198570156, -24924.631407813, -50475.804564452716, -187500.02235174447, -187500.02235174447, 6542.2214916016455, -19854.093474637684, 0.628, -0.778, 0.228, 192.0, 0.0, 0.0, 0.0, 0.0, 0.0, 0.0, 0.0, 0.0, 0.0, 1.6635907692889974E9, 0.0, 2022-09-19 17:32:49.288
108.0, -2252.7429166725774, 14429.459205801393, -25270.122321858686, -50605.19881310449, -187500.02235174447, -187500.02235174447, 6462.202246451646, -20225.91474365172, 0.628, -0.778, 0.228, 192.0, 0.0, 0.0, 0.0, 0.0, 0.0, 0.0, 0.0, 0.0, 0.0, 1.6635907692919605E9, 0.0, 2022-09-19 17:32:49.291
109.0, -2257.012099863541, 14357.799513077678, -24260.18110039009, -51034.8440450244, -187500.02235174447, -187500.02235174447, 6302.9684189520385, -19390.31712893452, 0.628, -0.778, 0.228, 192.0, 0.0, 0.0, 0.0, 0.0, 0.0, 0.0, 0.0, 0.0, 0.0, 1.6635907692959263E9, 0.0, 2022-09-19 17:32:49.295
110.0, -1975.000140070932, 14406.325150290151, -23851.702970469352, -50970.694538437674, -187500.02235174447, -187500.02235174447, 6353.706878865586, -18945.18213810708, 0.628, -0.778, 0.228, 192.0, 0.0, 0.0, 0.0, 0.0, 0.0, 0.0, 0.0, 0.0, 0.0, 1.6635907692999332E9, 0.0, 2022-09-19 17:32:49.299
111.0, -1855.5300659573159, 14478.968319769898, -24184.051058775316, -50703.94882010804, -187500.02235174447, -187500.02235174447, 6462.626929596297, -19188.726745692104, 0.628, -0.778, 0.228, 192.0, 0.0, 0.0, 0.0, 0.0, 0.0, 0.0, 0.0, 0.0, 0.0, 1.663590769303953E9, 0.0, 2022-09-19 17:32:49.303
112.0, -1965.970035310988, 14506.483317194381, -24953.018123271242, -50484.052358156725, -187500.02235174447, -187500.02235174447, 6530.91150890726, -19850.15956761355, 0.628, -0.778, 0.228, 192.0, 0.0, 0.0, 0.0, 0.0, 0.0, 0.0, 0.0, 0.0, 0.0, 1.6635907693079922E9, 0.0, 2022-09-19 17:32:49.307
113.0, -2261.236579565594, 14436.634115771547, -25274.70442947202, -50616.397037076604, -187500.02235174447, -187500.02235174447, 6454.714412059118, -20197.729193893578, 0.628, -0.778, 0.228, 192.0, 0.0, 0.0, 0.0, 0.0, 0.0, 0.0, 0.0, 0.0, 0.0, 1.6635907693130524E9, 0.0, 2022-09-19 17:32:49.313
114.0, -2259.8731231538204, 14359.118266000542, -24258.616478278218, -51040.23081543813, -187500.02235174447, -187500.02235174447, 6300.353264850768, -19359.963459964212, 0.628, -0.778, 0.228, 192.0, 0.0, 0.0, 0.0, 0.0, 0.0, 0.0, 0.0, 0.0, 0.0, 1.6635907693159728E9, 0.0, 2022-09-19 17:32:49.315
115.0, -1977.3023697498286, 14407.956827635388, -23870.858415467552, -50967.475887236105, -187500.02235174447, -187500.02235174447, 6349.817675330362, -18946.500891029944, 0.626, -0.774, 0.224, 192.0, 19.0, 144.0, 231.0, 208.0, 7.0, 0.0, 0.0, 0.0, 0.0, 1.6635907693189485E9, 0.0, 2022-09-19 17:32:49.318
116.0, -1863.2190660499414, 14479.549465125736, -24203.720593895985, -50696.304523504325, -187500.02235174447, -187500.02235174447, 6460.570569106409, -19198.270940574523, 0.626, -0.774, 0.224, 192.0, 0.0, 0.0, 0.0, 0.0, 0.0, 0.0, 0.0, 0.0, 0.0, 1.6635907693240523E9, 0.0, 2022-09-19 17:32:49.324
117.0, -1979.58224768427, 14503.957570070932, -24970.184263012918, -50477.25742784231, -187500.02235174447, -187500.02235174447, 6532.319668807944, -19869.113846911652, 0.626, -0.774, 0.224, 192.0, 0.0, 0.0, 0.0, 0.0, 0.0, 0.0, 0.0, 0.0, 0.0, 1.6635907693279471E9, 0.0, 2022-09-19 17:32:49.327
118.0, -2278.156850118262, 14433.907202948, -25272.826882937778, -50626.27650812585, -187500.02235174447, -187500.02235174447, 6446.265452655012, -20214.917685379707, 0.626, -0.774, 0.224, 192.0, 0.0, 0.0, 0.0, 0.0, 0.0, 0.0, 0.0, 0.0, 0.0, 1.6635907693319752E9, 0.0, 2022-09-19 17:32:49.331
119.0, -2265.3269488009155, 14364.996774792287, -24248.446434551053, -51050.35615567639, -187500.02235174447, -187500.02235174447, 6289.557372278854, -19365.30552688903, 0.626, -0.774, 0.224, 192.0, 0.0, 0.0, 0.0, 0.0, 0.0, 0.0, 0.0, 0.0, 0.0, 1.6635907693359673E9, 0.0, 2022-09-19 17:32:49.335
120.0, -1972.3626342252057, 14424.161842365485, -23869.651421266964, -50964.346643012366, -187500.02235174447, -187500.02235174447, 6348.141294496214, -18948.46784454201, 0.626, -0.774, 0.224, 192.0, 0.0, 0.0, 0.0, 0.0, 0.0, 0.0, 0.0, 0.0, 0.0, 1.6635907693410313E9, 0.0, 2022-09-19 17:32:49.341
121.0, -1857.5193712138382, 14504.002273559843, -24200.16666652759, -50688.99550306744, -187500.02235174447, -187500.02235174447, 6463.029260996493, -19198.405051041253, 0.626, -0.774, 0.224, 192.0, 0.0, 0.0, 0.0, 0.0, 0.0, 0.0, 0.0, 0.0, 0.0, 1.6635907693439736E9, 0.0, 2022-09-19 17:32:49.343
122.0, -1975.1566022821191, 14525.370541259115, -24974.118170037054, -50473.301169073726, -187500.02235174447, -187500.02235174447, 6527.111712349858, -19880.93791972851, 0.626, -0.774, 0.224, 192.0, 0.0, 0.0, 0.0, 0.0, 0.0, 0.0, 0.0, 0.0, 0.0, 1.6635907693470051E9, 0.0, 2022-09-19 17:32:49.347
123.0, -2272.5242105155244, 14447.05002868772, -25252.263278038896, -50632.266775639866, -187500.02235174447, -187500.02235174447, 6436.2742228834895, -20191.33659497936, 0.626, -0.774, 0.224, 192.0, 0.0, 0.0, 0.0, 0.0, 0.0, 0.0, 0.0, 0.0, 0.0, 1.6635907693520055E9, 0.0, 2022-09-19 17:32:49.352
124.0, -2257.6826521972007, 14372.12698127353, -24220.17147781509, -51052.993661522116, -187500.02235174447, -187500.02235174447, 6282.941255920084, -19328.53690726005, 0.626, -0.774, 0.224, 192.0, 0.0, 0.0, 0.0, 0.0, 0.0, 0.0, 0.0, 0.0, 0.0, 1.6635907693561597E9, 0.0, 2022-09-19 17:32:49.356
125.0, -1962.3937561981388, 14431.895545947022, -23867.170377632425, -50957.75287839805, -187500.02235174447, -187500.02235174447, 6342.218082215558, -18940.756492704928, 0.626, -0.774, 0.224, 192.0, 0.0, 0.0, 0.0, 0.0, 0.0, 0.0, 0.0, 0.0, 0.0, 1.6635907693600724E9, 0.0, 2022-09-19 17:32:49.360
126.0, -1845.8517606081678, 14507.153869528041, -24211.141373055147, -50689.107261789715, -187500.02235174447, -187500.02235174447, 6451.8310370243835, -19208.262170346043, 0.626, -0.774, 0.226, 192.0, 19.0, 144.0, 231.0, 208.0, 7.0, 16.0, 0.0, 0.0, 0.0, 1.663590769364079E9, 0.0, 2022-09-19 17:32:49.364
127.0, -1975.2683610043957, 14524.007084847342, -24992.915987123968, -50479.738471476856, -187500.02235174447, -187500.02235174447, 6517.031075600515, -19897.947597258997, 0.626, -0.774, 0.226, 192.0, 0.0, 0.0, 0.0, 0.0, 0.0, 0.0, 0.0, 0.0, 0.0, 1.6635907693680625E9, 0.0, 2022-09-19 17:32:49.368
128.0, -2276.7710419620325, 14443.786673997245, -25244.66368492409, -50644.82845602375, -187500.02235174447, -187500.02235174447, 6427.110007656814, -20193.504714191524, 0.626, -0.774, 0.226, 192.0, 0.0, 0.0, 0.0, 0.0, 0.0, 0.0, 0.0, 0.0, 0.0, 1.6635907693720975E9, 0.0, 2022-09-19 17:32:49.372
129.0, -2249.412506748737, 14377.51375168726, -24205.285216007855, -51052.837199310925, -187500.02235174447, -187500.02235174447, 6283.477697787011, -19335.82357595248, 0.626, -0.774, 0.226, 192.0, 0.0, 0.0, 0.0, 0.0, 0.0, 0.0, 0.0, 0.0, 0.0, 1.6635907693751194E9, 0.0, 2022-09-19 17:32:49.375
130.0, -1961.3432242087395, 14437.729351249856, -23868.57853753311, -50953.1260672958, -187500.02235174447, -187500.02235174447, 6349.236529974524, -18952.401751566144, 0.626, -0.774, 0.226, 192.0, 0.0, 0.0, 0.0, 0.0, 0.0, 0.0, 0.0, 0.0, 0.0, 1.6635907693800576E9, 0.0, 2022-09-19 17:32:49.380
131.0, -1854.233664778908, 14511.847735863656, -24217.444564991543, -50685.15100302113, -187500.02235174447, -187500.02235174447, 6458.782429549984, -19209.625626757817, 0.626, -0.774, 0.226, 192.0, 0.0, 0.0, 0.0, 0.0, 0.0, 0.0, 0.0, 0.0, 0.0, 1.6635907693840585E9, 0.0, 2022-09-19 17:32:49.384
132.0, -1979.068157561798, 14530.712608183934, -25007.936359397932, -50477.59270400914, -187500.02235174447, -187500.02235174447, 6519.199194812679, -19897.388803647616, 0.626, -0.774, 0.226, 192.0, 0.0, 0.0, 0.0, 0.0, 0.0, 0.0, 0.0, 0.0, 0.0, 1.6635907693880377E9, 0.0, 2022-09-19 17:32:49.388
133.0, -2278.3580158183595, 14446.446531587426, -25236.438242964537, -50657.52424687437, -187500.02235174447, -187500.02235174447, 6422.684362254663, -20183.75935360901, 0.626, -0.774, 0.226, 192.0, 0.0, 0.0, 0.0, 0.0, 0.0, 0.0, 0.0, 0.0, 0.0, 1.6635907693920696E9, 0.0, 2022-09-19 17:32:49.392
134.0, -2250.7536114160553, 14376.396164464495, -24192.768239112884, -51071.523257675566, -187500.02235174447, -187500.02235174447, 6272.6818052150975, -19316.221096065176, 0.626, -0.774, 0.226, 192.0, 0.0, 0.0, 0.0, 0.0, 0.0, 0.0, 0.0, 0.0, 0.0, 1.6635907693950942E9, 0.0, 2022-09-19 17:32:49.395
135.0, -1965.5453521663371, 14437.081150660653, -23874.76997074723, -50966.023023846516, -187500.02235174447, -187500.02235174447, 6339.088837991815, -18961.767132492918, 0.626, -0.774, 0.226, 192.0, 0.0, 0.0, 0.0, 0.0, 0.0, 0.0, 0.0, 0.0, 0.0, 1.663590769399112E9, 0.0, 2022-09-19 17:32:49.399
136.0, -1860.5815602042153, 14511.557163185736, -24233.470765766, -50698.249125271934, -187500.02235174447, -187500.02235174447, 6450.288766656968, -19238.05704570497, 0.626, -0.774, 0.222, 192.0, 19.0, 144.0, 231.0, 208.0, 6.0, 240.0, 0.0, 0.0, 0.0, 1.6635907694031107E9, 0.0, 2022-09-19 17:32:49.403
137.0, -1985.6619221761134, 14530.936125628486, -25021.459164793392, -50488.05332041423, -187500.02235174447, -187500.02235174447, 6517.455758745165, -19927.04956853981, 0.626, -0.774, 0.222, 192.0, 0.0, 0.0, 0.0, 0.0, 0.0, 0.0, 0.0, 0.0, 0.0, 1.6635907694071157E9, 0.0, 2022-09-19 17:32:49.407
138.0, -2280.727300730622, 14453.375572368572, -25226.022330048363, -50672.119936003684, -187500.02235174447, -187500.02235174447, 6418.728103486073, -20181.211254741105, 0.626, -0.774, 0.222, 192.0, 0.0, 0.0, 0.0, 0.0, 0.0, 0.0, 0.0, 0.0, 0.0, 1.6635907694121175E9, 0.0, 2022-09-19 17:32:49.412
139.0, -2238.1025240543513, 14391.46124022737, -24169.321259179265, -51071.00916755309, -187500.02235174447, -187500.02235174447, 6279.074404129316, -19294.53990394353, 0.626, -0.774, 0.222, 192.0, 0.0, 0.0, 0.0, 0.0, 0.0, 0.0, 0.0, 0.0, 0.0, 1.6635907694161305E9, 0.0, 2022-09-19 17:32:49.416
140.0, -1946.680479846058, 14453.062647946197, -23868.042095666184, -50955.96473884163, -187500.02235174447, -187500.02235174447, 6349.191826485614, -18959.174330136102, 0.626, -0.774, 0.222, 192.0, 0.0, 0.0, 0.0, 0.0, 0.0, 0.0, 0.0, 0.0, 0.0, 1.6635907694200983E9, 0.0, 2022-09-19 17:32:49.420
141.0, -1847.684603653503, 14527.717474426923, -24229.670969208597, -50691.677712402074, -187500.02235174447, -187500.02235174447, 6459.140057461269, -19233.653752047274, 0.626, -0.774, 0.222, 192.0, 0.0, 0.0, 0.0, 0.0, 0.0, 0.0, 0.0, 0.0, 0.0, 1.6635907694231455E9, 0.0, 2022-09-19 17:32:49.423
142.0, -1976.3635964827058, 14550.493902026881, -25027.941170685433, -50482.77830872277, -187500.02235174447, -187500.02235174447, 6527.402285027777, -19930.75995811939, 0.626, -0.774, 0.222, 192.0, 0.0, 0.0, 0.0, 0.0, 0.0, 0.0, 0.0, 0.0, 0.0, 1.6635907694271302E9, 0.0, 2022-09-19 17:32:49.427
143.0, -2264.142306344784, 14471.234616188362, -25204.65406234909, -50675.94208430554, -187500.02235174447, -187500.02235174447, 6429.389885591256, -20172.98581278155, 0.626, -0.774, 0.222, 192.0, 0.0, 0.0, 0.0, 0.0, 0.0, 0.0, 0.0, 0.0, 0.0, 1.6635907694311466E9, 0.0, 2022-09-19 17:32:49.431
144.0, -2212.2192039751058, 14413.254191071295, -24150.031703714336, -51077.021786811565, -187500.02235174447, -187500.02235174447, 6288.19391586708, -19292.841171364926, 0.626, -0.774, 0.222, 192.0, 0.0, 0.0, 0.0, 0.0, 0.0, 0.0, 0.0, 0.0, 0.0, 1.6635907694351752E9, 0.0, 2022-09-19 17:32:49.435
145.0, -1928.5085116038933, 14481.181142470974, -23870.836063723098, -50958.93752085418, -187500.02235174447, -187500.02235174447, 6358.467800434566, -18976.116952433225, 0.626, -0.774, 0.222, 192.0, 0.0, 0.0, 0.0, 0.0, 0.0, 0.0, 0.0, 0.0, 0.0, 1.663590769440166E9, 0.0, 2022-09-19 17:32:49.440
146.0, -1838.3415744711847, 14553.913718928543, -24232.397882032143, -50691.185974024054, -187500.02235174447, -187500.02235174447, 6467.767830821018, -19245.05314171948, 0.622, -0.772, 0.226, 192.0, 19.0, 112.0, 231.0, 224.0, 7.0, 16.0, 0.0, 0.0, 0.0, 1.6635907694441588E9, 0.0, 2022-09-19 17:32:49.444
